%OpenBCI Raw EXG Data
%Number of channels = 8
%Sample Rate = 250 Hz
%Board = OpenBCI_GUI$BoardCytonSerial
Sample Index, EXG Channel 0, EXG Channel 1, EXG Channel 2, EXG Channel 3, EXG Channel 4, EXG Channel 5, EXG Channel 6, EXG Channel 7, Accel Channel 0, Accel Channel 1, Accel Channel 2, Other, Other, Other, Other, Other, Other, Other, Analog Channel 0, Analog Channel 1, Analog Channel 2, Timestamp, Other, Timestamp (Formatted)
0.0, 0.0, 0.0, 0.0, 0.0, 0.0, 0.0, 0.0, 0.0, 0.0, 0.0, 0.0, 192.0, 0.0, 0.0, 0.0, 0.0, 0.0, 0.0, 0.0, 0.0, 0.0, 1.7297105363865612E9, 0.0, 2024-10-24 00:38:56.386
1.0, -57838.89387117552, -58501.08665240844, -59913.58279151712, -64949.408465553344, -65646.58172685883, -56222.54982263444, -14908.18886854516, 16219.297494804561, 0.06, 0.9500000000000001, 0.23600000000000002, 192.0, 1.0, 224.0, 29.0, 176.0, 7.0, 96.0, 0.0, 0.0, 0.0, 1.7297105364036822E9, 0.0, 2024-10-24 00:38:56.403
2.0, -57844.25828984479, -58525.27123990909, -59927.396169590495, -64971.849616986474, -65664.97721254555, -56250.869482859314, -14585.31791988825, 16566.062458284196, 0.06, 0.9500000000000001, 0.23600000000000002, 192.0, 0.0, 0.0, 0.0, 0.0, 0.0, 0.0, 0.0, 0.0, 0.0, 1.729710536406704E9, 0.0, 2024-10-24 00:38:56.406
3.0, -57870.58864481314, -58547.622984364396, -59944.56230933217, -64984.165428181346, -65658.47285490905, -56256.99386084007, -14426.084092388643, 16721.049454337295, 0.06, 0.9500000000000001, 0.23600000000000002, 192.0, 0.0, 0.0, 0.0, 0.0, 0.0, 0.0, 0.0, 0.0, 0.0, 1.7297105364105654E9, 0.0, 2024-10-24 00:38:56.410
4.0, -57857.91520570698, -58535.53069061407, -59932.71588477086, -64965.90405296136, -65634.28826740841, -56226.08139825838, -14711.895848738654, 16394.848095756544, 0.06, 0.9500000000000001, 0.23600000000000002, 192.0, 0.0, 0.0, 0.0, 0.0, 0.0, 0.0, 0.0, 0.0, 0.0, 1.7297105364145546E9, 0.0, 2024-10-24 00:38:56.414
5.0, -57830.82489142715, -58523.706617797216, -59915.25917235127, -64951.62128825442, -65613.29997936488, -56205.49544161504, -15016.773643109042, 16066.590376685905, 0.06, 0.9500000000000001, 0.23600000000000002, 192.0, 0.0, 0.0, 0.0, 0.0, 0.0, 0.0, 0.0, 0.0, 0.0, 1.7297105364186907E9, 0.0, 2024-10-24 00:38:56.418
6.0, -57805.92504810394, -58524.93596374225, -59906.3408263136, -64956.15869237885, -65629.57204932834, -56217.74419757655, -14952.780598733498, 16153.516310872594, 0.06, 0.9500000000000001, 0.23600000000000002, 192.0, 0.0, 0.0, 0.0, 0.0, 0.0, 0.0, 0.0, 0.0, 0.0, 1.7297105364216485E9, 0.0, 2024-10-24 00:38:56.421
7.0, -57828.030923370236, -58553.81441757851, -59931.754759759286, -64982.064364202546, -65658.6516688647, -56247.27085200201, -14614.598705124701, 16515.12283267055, 0.06, 0.9500000000000001, 0.23600000000000002, 192.0, 0.0, 0.0, 0.0, 0.0, 0.0, 0.0, 0.0, 0.0, 0.0, 1.729710536426591E9, 0.0, 2024-10-24 00:38:56.426
8.0, -57863.79371449873, -58567.51603692961, -59949.92672800145, -64984.97009098174, -65651.61086936128, -56243.89573858926, -14439.539842550737, 16685.085497508706, 0.06, 0.9500000000000001, 0.20800000000000002, 192.0, 1.0, 224.0, 29.0, 176.0, 6.0, 128.0, 0.0, 0.0, 0.0, 1.7297105364307015E9, 0.0, 2024-10-24 00:38:56.430
9.0, -57861.715002264384, -58547.958260531224, -59936.33686737262, -64959.44439881378, -65619.42435734563, -56208.95996200562, -14732.750026315454, 16350.90456615741, 0.06, 0.9500000000000001, 0.20800000000000002, 192.0, 0.0, 0.0, 0.0, 0.0, 0.0, 0.0, 0.0, 0.0, 0.0, 1.7297105364347453E9, 0.0, 2024-10-24 00:38:56.434
10.0, -57848.303955591204, -58538.63758309336, -59926.61385853456, -64946.61449749643, -65610.6848252636, -56196.778261277475, -15037.538413708022, 16021.395149397273, 0.06, 0.9500000000000001, 0.20800000000000002, 192.0, 0.0, 0.0, 0.0, 0.0, 0.0, 0.0, 0.0, 0.0, 0.0, 1.7297105364376564E9, 0.0, 2024-10-24 00:38:56.437
11.0, -57830.95900189388, -58552.67447861129, -59929.0949021691, -64963.91474770484, -65627.82861326082, -56227.78013083698, -14938.140206115271, 16142.049865967021, 0.06, 0.9500000000000001, 0.20800000000000002, 192.0, 0.0, 0.0, 0.0, 0.0, 0.0, 0.0, 0.0, 0.0, 0.0, 1.7297105364436505E9, 0.0, 2024-10-24 00:38:56.443
12.0, -57838.379781053045, -58573.34984223245, -59945.165806432466, -64985.93121599332, -65649.93448852713, -56248.34373573586, -14615.828051069744, 16488.25603583527, 0.06, 0.9500000000000001, 0.20800000000000002, 192.0, 0.0, 0.0, 0.0, 0.0, 0.0, 0.0, 0.0, 0.0, 0.0, 1.7297105364496264E9, 0.0, 2024-10-24 00:38:56.449
13.0, -57870.76745876879, -58585.73270866069, -59961.21435895138, -64991.206227684765, -65646.26880243645, -56241.61586065482, -14454.448456102427, 16645.634668545088, 0.06, 0.9500000000000001, 0.20800000000000002, 192.0, 0.0, 0.0, 0.0, 0.0, 0.0, 0.0, 0.0, 0.0, 0.0, 1.7297105364526472E9, 0.0, 2024-10-24 00:38:56.452
14.0, -57873.673185547974, -58568.67832764129, -59954.464132125875, -64973.07896293151, -65622.12891842471, -56217.16305222071, -14721.194174432061, 16338.320534029071, 0.06, 0.9500000000000001, 0.20800000000000002, 192.0, 0.0, 0.0, 0.0, 0.0, 0.0, 0.0, 0.0, 0.0, 0.0, 1.7297105364566717E9, 0.0, 2024-10-24 00:38:56.456
15.0, -57860.463304574885, -58550.08167625448, -59943.08709419813, -64958.55032903556, -65608.09202290679, -56205.62955208177, -15014.136137263315, 16021.685722075192, 0.06, 0.9500000000000001, 0.20800000000000002, 192.0, 0.0, 0.0, 0.0, 0.0, 0.0, 0.0, 0.0, 0.0, 0.0, 1.729710536459626E9, 0.0, 2024-10-24 00:38:56.459
16.0, -57840.749065965305, -58550.14873148784, -59940.33782963012, -64967.49102681769, -65631.11431969576, -56232.138721005766, -14930.540613000467, 16129.309371627496, 0.06, 0.9500000000000001, 0.20800000000000002, 192.0, 0.0, 0.0, 0.0, 0.0, 0.0, 0.0, 0.0, 0.0, 0.0, 1.7297105364627843E9, 0.0, 2024-10-24 00:38:56.462
17.0, -57855.97060393937, -58572.50047594315, -59963.337774674634, -64989.79806778408, -65669.38050620323, -56260.81600914193, -14590.324710646239, 16493.374585315538, 0.06, 0.9500000000000001, 0.20800000000000002, 192.0, 0.0, 0.0, 0.0, 0.0, 0.0, 0.0, 0.0, 0.0, 0.0, 1.7297105364656556E9, 0.0, 2024-10-24 00:38:56.465
18.0, -57892.627464846075, -58589.71131917374, -59988.505838931305, -64999.744594066695, -65686.12196280026, -56261.151285308755, -14405.632246212035, 16674.423715403525, 0.058, 0.9540000000000001, 0.2, 192.0, 1.0, 208.0, 29.0, 208.0, 6.0, 64.0, 0.0, 0.0, 0.0, 1.72971053646966E9, 0.0, 2024-10-24 00:38:56.469
19.0, -57881.161019940504, -58562.06221128252, -59965.081210742144, -64970.64262278588, -65634.82470927533, -56225.7237703471, -14692.338072340259, 16349.585813234546, 0.058, 0.9540000000000001, 0.2, 192.0, 0.0, 0.0, 0.0, 0.0, 0.0, 0.0, 0.0, 0.0, 0.0, 1.7297105364756775E9, 0.0, 2024-10-24 00:38:56.475
20.0, -57861.7597057533, -58546.50539714163, -59940.94132673041, -64953.252965599655, -65596.9385024236, -56210.07754922838, -14990.935026518706, 16025.820794799423, 0.058, 0.9540000000000001, 0.2, 192.0, 0.0, 0.0, 0.0, 0.0, 0.0, 0.0, 0.0, 0.0, 0.0, 1.7297105364787624E9, 0.0, 2024-10-24 00:38:56.478
21.0, -57842.13487412153, -58549.94756578774, -59936.71684702836, -64962.417180826335, -65625.41462485965, -56230.3729331938, -14910.982836602074, 16126.8059762485, 0.058, 0.9540000000000001, 0.2, 192.0, 0.0, 0.0, 0.0, 0.0, 0.0, 0.0, 0.0, 0.0, 0.0, 1.729710536482682E9, 0.0, 2024-10-24 00:38:56.482
22.0, -57856.127066150555, -58570.757039875636, -59958.59920485011, -64984.27718690362, -65651.2979449389, -56256.055087572946, -14584.043870454298, 16477.102515352075, 0.058, 0.9540000000000001, 0.2, 192.0, 0.0, 0.0, 0.0, 0.0, 0.0, 0.0, 0.0, 0.0, 0.0, 1.729710536486698E9, 0.0, 2024-10-24 00:38:56.486
23.0, -57886.972473498885, -58583.72105165971, -59978.715774859884, -64991.072117218035, -65653.42136066215, -56258.8267038854, -14419.870307430067, 16637.275116118803, 0.058, 0.9540000000000001, 0.2, 192.0, 0.0, 0.0, 0.0, 0.0, 0.0, 0.0, 0.0, 0.0, 0.0, 1.7297105364907322E9, 0.0, 2024-10-24 00:38:56.490
24.0, -57882.569179841186, -58568.521865430106, -59965.28237644224, -64973.41423909835, -65623.04533994739, -56230.77526459399, -14703.558648056824, 16312.593676161014, 0.058, 0.9540000000000001, 0.2, 192.0, 0.0, 0.0, 0.0, 0.0, 0.0, 0.0, 0.0, 0.0, 0.0, 1.7297105364936876E9, 0.0, 2024-10-24 00:38:56.493
25.0, -57864.06193543219, -58554.39556293435, -59950.23965242382, -64958.88560520239, -65613.79171774289, -56207.4176916382, -15018.181803009726, 15974.344727318852, 0.058, 0.9540000000000001, 0.2, 192.0, 0.0, 0.0, 0.0, 0.0, 0.0, 0.0, 0.0, 0.0, 0.0, 1.7297105364976952E9, 0.0, 2024-10-24 00:38:56.497
26.0, -57836.18931009642, -58555.40139143484, -59941.5001203418, -64968.47450357372, -65633.5953633303, -56232.69751461715, -14935.815624691919, 16079.80025765899, 0.058, 0.9540000000000001, 0.2, 192.0, 0.0, 0.0, 0.0, 0.0, 0.0, 0.0, 0.0, 0.0, 0.0, 1.7297105365026848E9, 0.0, 2024-10-24 00:38:56.502
27.0, -57843.92301367796, -58570.891150342366, -59952.81010303618, -64987.67465206083, -65656.81882581935, -56259.60901494134, -14618.42085342656, 16420.954933280344, 0.058, 0.9540000000000001, 0.2, 192.0, 0.0, 0.0, 0.0, 0.0, 0.0, 0.0, 0.0, 0.0, 0.0, 1.729710536506729E9, 0.0, 2024-10-24 00:38:56.506
28.0, -57884.49142986434, -58596.41684251033, -59976.570007392176, -65004.32670168003, -65662.02678227745, -56269.93552087969, -14432.767263980779, 16602.674615701988, 0.066, 0.9580000000000001, 0.19, 192.0, 2.0, 16.0, 29.0, 240.0, 5.0, 240.0, 0.0, 0.0, 0.0, 1.7297105365107446E9, 0.0, 2024-10-24 00:38:56.510
29.0, -57880.334005395656, -58582.06702257002, -59958.77801880575, -64982.757268280664, -65630.8908022512, -56237.34667746386, -14712.946380728054, 16282.374117657439, 0.066, 0.9580000000000001, 0.19, 192.0, 0.0, 0.0, 0.0, 0.0, 0.0, 0.0, 0.0, 0.0, 0.0, 1.729710536514727E9, 0.0, 2024-10-24 00:38:56.514
30.0, -57865.44774358842, -58565.90671132883, -59937.901489484495, -64962.14895989287, -65601.00651991446, -56206.054235226424, -15023.479166445633, 15948.707276428615, 0.066, 0.9580000000000001, 0.19, 192.0, 0.0, 0.0, 0.0, 0.0, 0.0, 0.0, 0.0, 0.0, 0.0, 1.7297105365188763E9, 0.0, 2024-10-24 00:38:56.518
31.0, -57849.08626664714, -58572.83575210998, -59935.91218422797, -64973.41423909835, -65625.88401149321, -56227.57896513688, -14944.510453285035, 16049.60305089987, 0.066, 0.9580000000000001, 0.19, 192.0, 0.0, 0.0, 0.0, 0.0, 0.0, 0.0, 0.0, 0.0, 0.0, 1.7297105365217454E9, 0.0, 2024-10-24 00:38:56.521
32.0, -57859.30101386321, -58595.768641921124, -59953.88298677003, -64997.084736476514, -65654.58365137383, -56257.1279713068, -14605.83682129822, 16411.96953200931, 0.066, 0.9580000000000001, 0.19, 192.0, 0.0, 0.0, 0.0, 0.0, 0.0, 0.0, 0.0, 0.0, 0.0, 1.7297105365277348E9, 0.0, 2024-10-24 00:38:56.527
33.0, -57892.493354379345, -58609.827889183514, -59974.13366724655, -65005.22077145825, -65656.12592174124, -56258.08909631838, -14432.454339558404, 16581.663975913998, 0.066, 0.9580000000000001, 0.19, 192.0, 0.0, 0.0, 0.0, 0.0, 0.0, 0.0, 0.0, 0.0, 0.0, 1.7297105365317655E9, 0.0, 2024-10-24 00:38:56.531
34.0, -57886.23486593186, -58588.39256625087, -59958.19687344991, -64982.62315781393, -65626.62161906024, -56226.975468036595, -14709.593619059757, 16264.157445926363, 0.066, 0.9580000000000001, 0.19, 192.0, 0.0, 0.0, 0.0, 0.0, 0.0, 0.0, 0.0, 0.0, 0.0, 1.7297105365357647E9, 0.0, 2024-10-24 00:38:56.535
35.0, -57864.59837729912, -58568.70067938574, -59937.16388191747, -64962.52893954861, -65607.39911882867, -56200.73452004606, -15015.58900065291, 15933.329276243363, 0.066, 0.9580000000000001, 0.19, 192.0, 0.0, 0.0, 0.0, 0.0, 0.0, 0.0, 0.0, 0.0, 0.0, 1.729710536553777E9, 0.0, 2024-10-24 00:38:56.553
36.0, -57845.95702242339, -58570.600577664445, -59933.073512682146, -64970.53086406361, -65623.24650564749, -56222.12513948979, -14927.81370017692, 16043.165748496742, 0.066, 0.9580000000000001, 0.19, 192.0, 0.0, 0.0, 0.0, 0.0, 0.0, 0.0, 0.0, 0.0, 0.0, 1.729710536556798E9, 0.0, 2024-10-24 00:38:56.556
37.0, -57859.479827818854, -58592.326473275, -59953.5030071143, -64993.26258817466, -65651.47675889454, -56255.18336953919, -14610.128356233641, 16383.38165085097, 0.066, 0.9580000000000001, 0.19, 192.0, 0.0, 0.0, 0.0, 0.0, 0.0, 0.0, 0.0, 0.0, 0.0, 1.7297105365607586E9, 0.0, 2024-10-24 00:38:56.560
38.0, -57897.70131083743, -58610.29727581707, -59980.16863824948, -65003.1420592239, -65663.47964566704, -56258.491427718574, -14438.534014050249, 16550.483292398847, 0.064, 0.96, 0.184, 192.0, 2.0, 0.0, 30.0, 0.0, 5.0, 192.0, 0.0, 0.0, 0.0, 1.7297105365638092E9, 0.0, 2024-10-24 00:38:56.563
39.0, -57890.325235167176, -58584.59276969347, -59963.38247816354, -64971.916672219835, -65627.9403719831, -56216.67131384269, -14720.814194776322, 16226.45005303026, 0.064, 0.96, 0.184, 192.0, 0.0, 0.0, 0.0, 0.0, 0.0, 0.0, 0.0, 0.0, 0.0, 1.729710536566836E9, 0.0, 2024-10-24 00:38:56.566
40.0, -57866.56533081119, -58563.626833394395, -59940.561347074676, -64950.458997542744, -65597.85492394626, -56198.655807811716, -15030.519965949055, 15891.57621760085, 0.064, 0.96, 0.184, 192.0, 0.0, 0.0, 0.0, 0.0, 0.0, 0.0, 0.0, 0.0, 0.0, 1.7297105365708556E9, 0.0, 2024-10-24 00:38:56.570
41.0, -57848.19219686893, -58568.34305147446, -59936.33686737262, -64959.17617788031, -65610.93069445262, -56219.17470922169, -14948.220842864615, 15996.607064796337, 0.064, 0.96, 0.184, 192.0, 0.0, 0.0, 0.0, 0.0, 0.0, 0.0, 0.0, 0.0, 0.0, 1.7297105365742927E9, 0.0, 2024-10-24 00:38:56.574
42.0, -57872.01915645828, -58597.869705899924, -59969.842132311125, -64990.803896284575, -65659.00929677597, -56258.08909631838, -14609.346045177705, 16358.258290083206, 0.064, 0.96, 0.184, 192.0, 0.0, 0.0, 0.0, 0.0, 0.0, 0.0, 0.0, 0.0, 0.0, 1.7297105365778077E9, 0.0, 2024-10-24 00:38:56.577
43.0, -57898.2154009599, -58608.777357194114, -59991.67978664396, -64998.33643416601, -65669.0005265475, -56263.542921965476, -14429.414502312482, 16532.26662066777, 0.064, 0.96, 0.184, 192.0, 0.0, 0.0, 0.0, 0.0, 0.0, 0.0, 0.0, 0.0, 0.0, 1.7297105365808313E9, 0.0, 2024-10-24 00:38:56.580
44.0, -57891.6663398345, -58580.9270836028, -59968.97041427737, -64967.06634367304, -65619.80433700136, -56221.47693890059, -14727.877346024197, 16193.905913103334, 0.064, 0.96, 0.184, 192.0, 0.0, 0.0, 0.0, 0.0, 0.0, 0.0, 0.0, 0.0, 0.0, 1.729710536583841E9, 0.0, 2024-10-24 00:38:56.583
45.0, -57879.23876991735, -58565.1244002729, -59955.89464377101, -64953.878814444404, -65609.20961012955, -56204.377854392274, -15034.230355528636, 15865.245862632497, 0.064, 0.96, 0.184, 192.0, 0.0, 0.0, 0.0, 0.0, 0.0, 0.0, 0.0, 0.0, 0.0, 1.729710536587822E9, 0.0, 2024-10-24 00:38:56.587
46.0, -57860.86563597508, -58570.55587417554, -59955.67112632646, -64967.89335821788, -65632.96951448555, -56229.99295353806, -14949.047857409461, 15974.389430807762, 0.064, 0.96, 0.184, 192.0, 0.0, 0.0, 0.0, 0.0, 0.0, 0.0, 0.0, 0.0, 0.0, 1.7297105365924833E9, 0.0, 2024-10-24 00:38:56.592
47.0, -57877.808258272205, -58598.428499511305, -59979.36397544909, -64998.89522777739, -65662.36205844427, -56265.621634199815, -14594.728004303934, 16353.676182469868, 0.064, 0.96, 0.184, 192.0, 0.0, 0.0, 0.0, 0.0, 0.0, 0.0, 0.0, 0.0, 0.0, 1.7297105365938396E9, 0.0, 2024-10-24 00:38:56.593
48.0, -57903.02102601779, -58607.793880438076, -59992.66326339999, -65004.61727435795, -65655.3436106853, -56264.727564421606, -14428.028694156254, 16516.776861760245, 0.062, 0.9580000000000001, 0.182, 192.0, 1.0, 240.0, 29.0, 240.0, 5.0, 176.0, 0.0, 0.0, 0.0, 1.7297105365978975E9, 0.0, 2024-10-24 00:38:56.597
49.0, -57893.49918287983, -58584.41395573783, -59974.87127481357, -64980.030355457115, -65624.49820333699, -56231.26700297201, -14731.386569903681, 16174.39284019385, 0.062, 0.9580000000000001, 0.182, 192.0, 0.0, 0.0, 0.0, 0.0, 0.0, 0.0, 0.0, 0.0, 0.0, 1.7297105366008523E9, 0.0, 2024-10-24 00:38:56.600
50.0, -57878.07647920567, -58569.840618352966, -59962.220187451865, -64970.21793964123, -65615.9821886995, -56221.49929064504, -15034.163300295271, 15850.247842102986, 0.062, 0.9580000000000001, 0.182, 192.0, 0.0, 0.0, 0.0, 0.0, 0.0, 0.0, 0.0, 0.0, 0.0, 1.7297105366039565E9, 0.0, 2024-10-24 00:38:56.603
51.0, -57853.198987626914, -58575.40620272234, -59961.05789674019, -64982.7349165362, -65647.02876174793, -56245.43800895668, -14964.20234015016, 15946.20388104962, 0.062, 0.9580000000000001, 0.182, 192.0, 0.0, 0.0, 0.0, 0.0, 0.0, 0.0, 0.0, 0.0, 0.0, 1.7297105366078467E9, 0.0, 2024-10-24 00:38:56.607
52.0, -57859.99391794133, -58601.93772339079, -59979.16280974899, -65008.126498237434, -65668.93347131413, -56275.92578839372, -14647.209900284995, 16286.79976305959, 0.062, 0.9580000000000001, 0.182, 192.0, 0.0, 0.0, 0.0, 0.0, 0.0, 0.0, 0.0, 0.0, 0.0, 1.7297105366108668E9, 0.0, 2024-10-24 00:38:56.610
53.0, -57887.15128745452, -58623.954191679266, -59995.79250762374, -65016.06136751907, -65651.27559319444, -56276.99867212757, -14469.424124887482, 16458.81878838763, 0.062, 0.9580000000000001, 0.182, 192.0, 0.0, 0.0, 0.0, 0.0, 0.0, 0.0, 0.0, 0.0, 0.0, 1.7297105366138825E9, 0.0, 2024-10-24 00:38:56.613
54.0, -57873.807296014704, -58601.289522801584, -59972.77021083477, -64986.51236134915, -65611.10950840825, -56247.06968630191, -14747.725695100511, 16139.457063610205, 0.062, 0.9580000000000001, 0.182, 192.0, 0.0, 0.0, 0.0, 0.0, 0.0, 0.0, 0.0, 0.0, 0.0, 1.729710536617906E9, 0.0, 2024-10-24 00:38:56.617
55.0, -57855.63532777254, -58585.26332202713, -59955.6040710931, -64967.69219251779, -65596.37970881221, -56223.84622381285, -15051.26238480358, 15811.691082917581, 0.062, 0.9580000000000001, 0.182, 192.0, 0.0, 0.0, 0.0, 0.0, 0.0, 0.0, 0.0, 0.0, 0.0, 1.7297105366209114E9, 0.0, 2024-10-24 00:38:56.620
56.0, -57838.42448454195, -58592.326473275, -59954.955870503894, -64978.86806474544, -65624.69936903709, -56247.85199735785, -14954.099351656361, 15931.518784942484, 0.062, 0.9580000000000001, 0.182, 192.0, 0.0, 0.0, 0.0, 0.0, 0.0, 0.0, 0.0, 0.0, 0.0, 1.7297105366241477E9, 0.0, 2024-10-24 00:38:56.624
57.0, -57859.569234796676, -58620.35556082196, -59982.78379235075, -65007.09831799249, -65667.68177362463, -56286.49816352107, -14617.839708070722, 16292.27594045114, 0.062, 0.9580000000000001, 0.182, 192.0, 0.0, 0.0, 0.0, 0.0, 0.0, 0.0, 0.0, 0.0, 0.0, 1.7297105366278763E9, 0.0, 2024-10-24 00:38:56.627
58.0, -57894.572066613684, -58635.53239530711, -60000.55342919272, -65012.127460494936, -65668.37467770276, -56283.50302976406, -14462.517435850792, 16443.329029480105, 0.066, 0.968, 0.186, 192.0, 2.0, 16.0, 30.0, 64.0, 5.0, 208.0, 0.0, 0.0, 0.0, 1.7297105366309028E9, 0.0, 2024-10-24 00:38:56.630
59.0, -57889.72173806689, -58612.80067119607, -59977.799353337214, -64984.165428181346, -65621.2348486465, -56247.114389790826, -14758.052201038863, 16105.28124633804, 0.066, 0.968, 0.186, 192.0, 0.0, 0.0, 0.0, 0.0, 0.0, 0.0, 0.0, 0.0, 0.0, 1.7297105366338983E9, 0.0, 2024-10-24 00:38:56.633
60.0, -57870.23101690186, -58593.44406049777, -59953.23478618083, -64962.81951222653, -65591.6858424766, -56221.298124944944, -15075.514027537589, 15762.830169538282, 0.066, 0.968, 0.186, 192.0, 0.0, 0.0, 0.0, 0.0, 0.0, 0.0, 0.0, 0.0, 0.0, 1.729710536637944E9, 0.0, 2024-10-24 00:38:56.637
61.0, -57845.442932300924, -58594.27107504262, -59945.38932387702, -64970.24029138569, -65601.45355480356, -56239.067761786915, -14975.355860633357, 15889.564560599872, 0.066, 0.968, 0.186, 192.0, 0.0, 0.0, 0.0, 0.0, 0.0, 0.0, 0.0, 0.0, 0.0, 1.7297105366419137E9, 0.0, 2024-10-24 00:38:56.641
62.0, -57857.51287430678, -58618.96975266573, -59970.400925922506, -64996.36948065394, -65637.01518023196, -56268.974395868114, -14623.829975584744, 16266.54908258308, 0.066, 0.968, 0.186, 192.0, 0.0, 0.0, 0.0, 0.0, 0.0, 0.0, 0.0, 0.0, 0.0, 1.7297105366469195E9, 0.0, 2024-10-24 00:38:56.646
63.0, -57894.97439801388, -58637.70051451928, -59992.216228510886, -65004.48316389122, -65635.74113079801, -56267.07449758941, -14452.637964801546, 16432.06375027463, 0.066, 0.968, 0.186, 192.0, 0.0, 0.0, 0.0, 0.0, 0.0, 0.0, 0.0, 0.0, 0.0, 1.7297105366509287E9, 0.0, 2024-10-24 00:38:56.650
64.0, -57894.39325265805, -58617.80746195406, -59977.531132403754, -64977.19168391129, -65596.35735706775, -56230.86467157181, -14768.892797099687, 16072.670051177747, 0.066, 0.968, 0.186, 192.0, 0.0, 0.0, 0.0, 0.0, 0.0, 0.0, 0.0, 0.0, 0.0, 1.729710536655017E9, 0.0, 2024-10-24 00:38:56.655
65.0, -57875.081345448656, -58595.83569715449, -59962.711925829884, -64958.72914299121, -65586.81316218534, -56213.899697530236, -15101.978492972672, 15715.578581759763, 0.066, 0.968, 0.186, 192.0, 0.0, 0.0, 0.0, 0.0, 0.0, 0.0, 0.0, 0.0, 0.0, 1.729710536657935E9, 0.0, 2024-10-24 00:38:56.657
66.0, -57855.27769986125, -58599.52373498961, -59966.31055668719, -64973.593053053984, -65620.29607537939, -56245.05802930093, -15008.838773827407, 15837.842623930292, 0.066, 0.968, 0.186, 192.0, 0.0, 0.0, 0.0, 0.0, 0.0, 0.0, 0.0, 0.0, 0.0, 1.729710536661913E9, 0.0, 2024-10-24 00:38:56.661
67.0, -57869.40400235701, -58621.495499789184, -59992.551504677715, -64997.777640554625, -65651.23088970553, -56273.51179999254, -14653.401333499114, 16220.415082027326, 0.066, 0.968, 0.186, 192.0, 0.0, 0.0, 0.0, 0.0, 0.0, 0.0, 0.0, 0.0, 0.0, 1.7297105366679604E9, 0.0, 2024-10-24 00:38:56.667
68.0, -57903.31159869571, -58637.164072652355, -60013.71860667689, -65003.030300501625, -65643.25131693498, -56270.85194240236, -14474.72148832339, 16393.05995620012, 0.064, 0.962, 0.19, 192.0, 2.0, 0.0, 30.0, 16.0, 5.0, 240.0, 0.0, 0.0, 0.0, 1.729710536671222E9, 0.0, 2024-10-24 00:38:56.671
69.0, -57899.40004341603, -58619.72971197721, -60000.12874604807, -64978.33162287851, -65611.22126713053, -56234.865633829315, -14785.991881607997, 16037.622515871826, 0.064, 0.962, 0.19, 192.0, 0.0, 0.0, 0.0, 0.0, 0.0, 0.0, 0.0, 0.0, 0.0, 1.729710536676157E9, 0.0, 2024-10-24 00:38:56.676
70.0, -57869.64987154602, -58599.769604178626, -59976.19002773643, -64959.35499183596, -65582.58868248329, -56215.79959580894, -15113.422586133789, 15683.168552299567, 0.064, 0.962, 0.19, 192.0, 0.0, 0.0, 0.0, 0.0, 0.0, 0.0, 0.0, 0.0, 0.0, 1.7297105366800659E9, 0.0, 2024-10-24 00:38:56.680
71.0, -57840.83847294313, -58600.44015651228, -59969.708021844395, -64971.11200941945, -65603.12993563771, -56242.621689155305, -15009.77754709453, 15813.076891073812, 0.064, 0.962, 0.19, 192.0, 0.0, 0.0, 0.0, 0.0, 0.0, 0.0, 0.0, 0.0, 0.0, 1.7297105366829636E9, 0.0, 2024-10-24 00:38:56.682
72.0, -57856.3058801062, -58622.054293400564, -59995.233714012356, -64997.934102765816, -65640.16677620016, -56274.227055815114, -14660.866816147187, 16188.854418856434, 0.064, 0.962, 0.19, 192.0, 0.0, 0.0, 0.0, 0.0, 0.0, 0.0, 0.0, 0.0, 0.0, 1.7297105366859713E9, 0.0, 2024-10-24 00:38:56.685
73.0, -57891.2640084343, -58632.9395929503, -60011.79635665374, -65001.0409952451, -65640.27853492243, -56268.72852667911, -14503.242314248362, 16339.751045674211, 0.064, 0.962, 0.19, 192.0, 0.0, 0.0, 0.0, 0.0, 0.0, 0.0, 0.0, 0.0, 0.0, 1.7297105366900232E9, 0.0, 2024-10-24 00:38:56.690
74.0, -57891.84515379014, -58608.95617114975, -59996.73128089086, -64975.96233796625, -65603.91224669364, -56235.67029662971, -14819.966533180062, 15979.373869821296, 0.064, 0.962, 0.19, 192.0, 0.0, 0.0, 0.0, 0.0, 0.0, 0.0, 0.0, 0.0, 0.0, 1.729710536693984E9, 0.0, 2024-10-24 00:38:56.693
75.0, -57873.1590954255, -58588.52667671761, -59980.34745220512, -64960.29376510308, -65584.39917378416, -56221.655752856226, -15148.179548761791, 15625.90338300507, 0.064, 0.962, 0.19, 192.0, 0.0, 0.0, 0.0, 0.0, 0.0, 0.0, 0.0, 0.0, 0.0, 1.7297105366979697E9, 0.0, 2024-10-24 00:38:56.697
76.0, -57842.91718517747, -58591.566513963524, -59973.619577124075, -64971.06730593053, -65606.52740079492, -56244.722753134105, -15038.521890464055, 15759.410352636618, 0.064, 0.962, 0.19, 192.0, 0.0, 0.0, 0.0, 0.0, 0.0, 0.0, 0.0, 0.0, 0.0, 1.7297105367029777E9, 0.0, 2024-10-24 00:38:56.702
77.0, -57857.535226051245, -58619.37208406593, -59997.55829543571, -64999.454021388774, -65645.93352626963, -56282.16192509675, -14684.358499569715, 16139.412360121294, 0.064, 0.962, 0.19, 192.0, 0.0, 0.0, 0.0, 0.0, 0.0, 0.0, 0.0, 0.0, 0.0, 1.729710536707008E9, 0.0, 2024-10-24 00:38:56.707
78.0, -57899.78002307177, -58644.763665767154, -60018.83715615716, -65011.12163199444, -65641.50788086747, -56280.21732332913, -14498.034357790275, 16319.969751831264, 0.06, 0.9580000000000001, 0.186, 192.0, 1.0, 224.0, 29.0, 240.0, 5.0, 208.0, 0.0, 0.0, 0.0, 1.7297105367109766E9, 0.0, 2024-10-24 00:38:56.710
79.0, -57896.87429629258, -58627.8880987034, -59999.59230418114, -64985.4394776153, -65596.46911579002, -56238.79954085345, -14826.001504182996, 15947.567337461394, 0.06, 0.9580000000000001, 0.186, 192.0, 0.0, 0.0, 0.0, 0.0, 0.0, 0.0, 0.0, 0.0, 0.0, 1.7297105367139919E9, 0.0, 2024-10-24 00:38:56.713
80.0, -57885.25138917582, -58618.701531732266, -59987.477658686366, -64975.425896099325, -65587.5284180079, -56225.299087202446, -15163.468141969222, 15588.665376742529, 0.06, 0.9580000000000001, 0.186, 192.0, 0.0, 0.0, 0.0, 0.0, 0.0, 0.0, 0.0, 0.0, 0.0, 1.7297105367180407E9, 0.0, 2024-10-24 00:38:56.718
81.0, -57864.106638921105, -58625.071778902035, -59985.980091807854, -64987.942872994296, -65615.31163636585, -56250.48950320358, -15043.88630913333, 15737.930326215068, 0.06, 0.9580000000000001, 0.186, 192.0, 0.0, 0.0, 0.0, 0.0, 0.0, 0.0, 0.0, 0.0, 0.0, 1.7297105367220132E9, 0.0, 2024-10-24 00:38:56.722
82.0, -57876.333043138155, -58647.26706114615, -60004.73320540586, -65011.30044595009, -65640.01031398897, -56279.70323320666, -14692.628645018178, 16114.780737731546, 0.06, 0.9580000000000001, 0.186, 192.0, 0.0, 0.0, 0.0, 0.0, 0.0, 0.0, 0.0, 0.0, 0.0, 1.7297105367260668E9, 0.0, 2024-10-24 00:38:56.726
83.0, -57915.42624419049, -58664.634366587925, -60025.78854868276, -65019.23531523172, -65635.62937207572, -56275.29993954897, -14538.468663509926, 16264.64918430438, 0.06, 0.9580000000000001, 0.186, 192.0, 0.0, 0.0, 0.0, 0.0, 0.0, 0.0, 0.0, 0.0, 0.0, 1.7297105367310424E9, 0.0, 2024-10-24 00:38:56.731
84.0, -57914.867450579106, -58646.6412123014, -60007.92950486297, -64994.87191377544, -65592.40109829916, -56236.407904196734, -14860.870225533276, 15900.76278457198, 0.06, 0.9580000000000001, 0.186, 192.0, 0.0, 0.0, 0.0, 0.0, 0.0, 0.0, 0.0, 0.0, 0.0, 1.7297105367350245E9, 0.0, 2024-10-24 00:38:56.735
85.0, -57894.46030789141, -58630.70441850477, -59988.48348718685, -64979.24804440118, -65571.16694106662, -56222.72863659009, -15193.53123826161, 15544.498329698841, 0.06, 0.9580000000000001, 0.186, 192.0, 0.0, 0.0, 0.0, 0.0, 0.0, 0.0, 0.0, 0.0, 0.0, 1.7297105367380548E9, 0.0, 2024-10-24 00:38:56.738
86.0, -57868.75580176781, -58632.15728189436, -59983.409641195496, -64988.412259627854, -65595.731508223, -56244.432180456184, -15092.613112045898, 15675.188979529023, 0.06, 0.9580000000000001, 0.186, 192.0, 0.0, 0.0, 0.0, 0.0, 0.0, 0.0, 0.0, 0.0, 0.0, 1.7297105367430415E9, 0.0, 2024-10-24 00:38:56.743
87.0, -57885.921941509485, -58657.39240138441, -60009.44942348593, -65013.55797214007, -65631.58370632931, -56270.89664589127, -14742.674200853611, 16054.811007357957, 0.06, 0.9580000000000001, 0.186, 192.0, 0.0, 0.0, 0.0, 0.0, 0.0, 0.0, 0.0, 0.0, 0.0, 1.7297105367473035E9, 0.0, 2024-10-24 00:38:56.747
88.0, -57925.88686059557, -58677.218398716264, -60034.8186534427, -65021.80576584408, -65636.59049708731, -56274.361166281844, -14545.64357348008, 16249.226480630217, 0.06, 0.9580000000000001, 0.186, 192.0, 0.0, 0.0, 0.0, 0.0, 0.0, 0.0, 0.0, 0.0, 0.0, 1.7297105367510965E9, 0.0, 2024-10-24 00:38:56.751
89.0, -57919.047226792245, -58652.58677632651, -60012.623371198584, -64989.73101255072, -65589.987109898, -56236.050276285445, -14868.313356436893, 15884.468362864061, 0.056, 0.964, 0.188, 192.0, 1.0, 192.0, 30.0, 32.0, 5.0, 224.0, 0.0, 0.0, 0.0, 1.7297105367560782E9, 0.0, 2024-10-24 00:38:56.756
90.0, -57897.47779339288, -58632.80548248357, -59991.791545366235, -64968.60861404045, -65568.93176662108, -56218.81708131041, -15223.169651409347, 15505.628646091063, 0.056, 0.964, 0.188, 192.0, 0.0, 0.0, 0.0, 0.0, 0.0, 0.0, 0.0, 0.0, 0.0, 1.7297105367591121E9, 0.0, 2024-10-24 00:38:56.759
91.0, -57873.91905473698, -58634.05718017306, -59993.177353522464, -64978.421029856334, -65606.01331067244, -56245.907395590235, -15130.320504942001, 15626.059845216258, 0.056, 0.964, 0.188, 192.0, 0.0, 0.0, 0.0, 0.0, 0.0, 0.0, 0.0, 0.0, 0.0, 1.7297105367640932E9, 0.0, 2024-10-24 00:38:56.764
92.0, -57887.15128745452, -58650.306898392075, -60017.49605148984, -65000.10222197798, -65635.71877905355, -56277.08807910539, -14783.35437576227, 16000.49626833156, 0.056, 0.964, 0.188, 192.0, 0.0, 0.0, 0.0, 0.0, 0.0, 0.0, 0.0, 0.0, 0.0, 1.7297105367670827E9, 0.0, 2024-10-24 00:38:56.767
93.0, -57933.441750221464, -58671.74222132471, -60045.905118692535, -65014.76496634066, -65637.43986337661, -56284.68767222019, -14584.580312321224, 16193.145953791853, 0.056, 0.964, 0.188, 192.0, 0.0, 0.0, 0.0, 0.0, 0.0, 0.0, 0.0, 0.0, 0.0, 1.7297105367711139E9, 0.0, 2024-10-24 00:38:56.771
94.0, -57928.211442018925, -58645.25540414517, -60029.27542081779, -64983.450172358775, -65605.65568276116, -56237.41373269722, -14890.41923170319, 15843.318801321842, 0.056, 0.964, 0.188, 192.0, 0.0, 0.0, 0.0, 0.0, 0.0, 0.0, 0.0, 0.0, 0.0, 1.7297105367741995E9, 0.0, 2024-10-24 00:38:56.774
95.0, -57897.54484862624, -58616.4887090312, -60005.135536806054, -64958.080942402004, -65582.2757580609, -56208.0658922274, -15255.132645980437, 15457.795912956706, 0.056, 0.964, 0.188, 192.0, 0.0, 0.0, 0.0, 0.0, 0.0, 0.0, 0.0, 0.0, 0.0, 1.7297105367781577E9, 0.0, 2024-10-24 00:38:56.778
96.0, -57870.052202946215, -58620.40026431087, -59999.05586231421, -64971.67080303083, -65598.59253151328, -56239.53714842047, -15137.718932356709, 15603.931618205503, 0.056, 0.964, 0.188, 192.0, 0.0, 0.0, 0.0, 0.0, 0.0, 0.0, 0.0, 0.0, 0.0, 1.729710536782101E9, 0.0, 2024-10-24 00:38:56.782
97.0, -57881.60805482961, -58641.9920494547, -60021.00527536932, -64993.4414021303, -65627.2921713939, -56268.706174934654, -14785.097811829784, 15983.084259400877, 0.056, 0.964, 0.188, 192.0, 0.0, 0.0, 0.0, 0.0, 0.0, 0.0, 0.0, 0.0, 0.0, 1.7297105367860968E9, 0.0, 2024-10-24 00:38:56.786
98.0, -57917.03556979127, -58663.6955933208, -60048.36381058262, -65006.181896469825, -65640.97143900054, -56274.11529709284, -14641.532557193346, 16120.838060478934, 0.056, 0.964, 0.188, 192.0, 0.0, 0.0, 0.0, 0.0, 0.0, 0.0, 0.0, 0.0, 0.0, 1.7297105367901769E9, 0.0, 2024-10-24 00:38:56.790
99.0, -57915.15802325703, -58650.97745072573, -60041.18890061247, -64989.08281196151, -65617.4350520891, -56248.54490143596, -14932.105235112338, 15790.300463473854, 0.056, 0.9580000000000001, 0.186, 192.0, 1.0, 192.0, 29.0, 240.0, 5.0, 208.0, 0.0, 0.0, 0.0, 1.729710536798178E9, 0.0, 2024-10-24 00:38:56.798
100.0, -57883.57500834167, -58626.4352353138, -60014.07623458818, -64965.16644539434, -65585.85203717375, -56222.39336042325, -15255.937308780827, 15443.513148249764, 0.056, 0.9580000000000001, 0.186, 192.0, 0.0, 0.0, 0.0, 0.0, 0.0, 0.0, 0.0, 0.0, 0.0, 1.729710536802174E9, 0.0, 2024-10-24 00:38:56.802
101.0, -57856.350583595115, -58627.932802192314, -60006.02960658427, -64975.29178563259, -65609.32136885183, -56245.16978802321, -15166.329165259502, 15560.993917106858, 0.056, 0.9580000000000001, 0.186, 192.0, 0.0, 0.0, 0.0, 0.0, 0.0, 0.0, 0.0, 0.0, 0.0, 1.7297105368051648E9, 0.0, 2024-10-24 00:38:56.805
102.0, -57864.732487765854, -58648.049372202084, -60024.80507192673, -64999.543428366596, -65641.88786052322, -56277.736279694596, -14804.052091127884, 15950.785988662958, 0.056, 0.9580000000000001, 0.186, 192.0, 0.0, 0.0, 0.0, 0.0, 0.0, 0.0, 0.0, 0.0, 0.0, 1.7297105368081768E9, 0.0, 2024-10-24 00:38:56.808
103.0, -57898.79654631574, -58660.96868049725, -60044.87693844759, -65008.32766393753, -65639.9432587556, -56280.306730306955, -14657.558757967801, 16092.160772342775, 0.056, 0.9580000000000001, 0.186, 192.0, 0.0, 0.0, 0.0, 0.0, 0.0, 0.0, 0.0, 0.0, 0.0, 1.7297105368261864E9, 0.0, 2024-10-24 00:38:56.826
104.0, -57896.3155026812, -58639.77922675362, -60031.75646445232, -64988.36755613895, -65607.19795312858, -56252.72467764911, -14970.125552430816, 15735.941020958546, 0.056, 0.9580000000000001, 0.186, 192.0, 0.0, 0.0, 0.0, 0.0, 0.0, 0.0, 0.0, 0.0, 0.0, 1.7297105368301735E9, 0.0, 2024-10-24 00:38:56.830
105.0, -57876.5118570938, -58619.14856662138, -60017.49605148984, -64974.26360538765, -65599.84422920278, -56236.43025594119, -15307.07810009457, 15373.216911937823, 0.056, 0.9580000000000001, 0.186, 192.0, 0.0, 0.0, 0.0, 0.0, 0.0, 0.0, 0.0, 0.0, 0.0, 1.729710536835154E9, 0.0, 2024-10-24 00:38:56.835
106.0, -57854.383630083044, -58627.75398823667, -60015.12676657758, -64991.5415038516, -65617.3903486002, -56269.80141041296, -15214.474822816233, 15493.44694536292, 0.056, 0.9580000000000001, 0.186, 192.0, 0.0, 0.0, 0.0, 0.0, 0.0, 0.0, 0.0, 0.0, 0.0, 1.7297105368401797E9, 0.0, 2024-10-24 00:38:56.840
107.0, -57864.21839764338, -58653.302032149084, -60032.44936853044, -65015.72609135224, -65645.03945649142, -56299.529230538516, -14871.599062871823, 15863.725944009537, 0.056, 0.9580000000000001, 0.186, 192.0, 0.0, 0.0, 0.0, 0.0, 0.0, 0.0, 0.0, 0.0, 0.0, 1.7297105368441653E9, 0.0, 2024-10-24 00:38:56.844
108.0, -57908.98894178736, -58675.6984800933, -60056.812769986725, -65024.711492623275, -65647.45344489258, -56291.0355676455, -14713.169898172606, 16018.89175401828, 0.056, 0.9580000000000001, 0.186, 192.0, 0.0, 0.0, 0.0, 0.0, 0.0, 0.0, 0.0, 0.0, 0.0, 1.7297105368471458E9, 0.0, 2024-10-24 00:38:56.847
109.0, -57914.50982266782, -58660.40988688587, -60044.429903558485, -65003.1420592239, -65609.56723804084, -56257.35148875135, -15020.864012344362, 15669.712802137472, 0.058, 0.9520000000000001, 0.186, 192.0, 1.0, 208.0, 29.0, 192.0, 5.0, 208.0, 0.0, 0.0, 0.0, 1.729710536852224E9, 0.0, 2024-10-24 00:38:56.852
110.0, -57896.963703270405, -58643.243747144195, -60025.47562426038, -64984.56775958154, -65587.14843835216, -56237.36902920831, -15366.779609534695, 15299.970245357783, 0.058, 0.9520000000000001, 0.186, 192.0, 0.0, 0.0, 0.0, 0.0, 0.0, 0.0, 0.0, 0.0, 0.0, 1.7297105368552265E9, 0.0, 2024-10-24 00:38:56.855
111.0, -57875.282511148755, -58649.546939080596, -60023.93335389297, -64992.48027711872, -65613.45644157605, -56253.01525032702, -15282.111201537991, 15414.075900802125, 0.058, 0.9520000000000001, 0.186, 192.0, 0.0, 0.0, 0.0, 0.0, 0.0, 0.0, 0.0, 0.0, 0.0, 1.7297105368591943E9, 0.0, 2024-10-24 00:38:56.859
112.0, -57897.70131083743, -58682.80633483009, -60053.9740984409, -65022.83394608903, -65653.4437124066, -56284.86648617584, -14913.128604069783, 15812.048710828867, 0.058, 0.9520000000000001, 0.186, 192.0, 0.0, 0.0, 0.0, 0.0, 0.0, 0.0, 0.0, 0.0, 0.0, 1.729710536863269E9, 0.0, 2024-10-24 00:38:56.863
113.0, -57941.42132299201, -58704.93456184084, -60076.32584289621, -65033.361617727474, -65642.96074425707, -56286.16288735424, -14730.514851869924, 15991.30970136043, 0.058, 0.9520000000000001, 0.186, 192.0, 0.0, 0.0, 0.0, 0.0, 0.0, 0.0, 0.0, 0.0, 0.0, 1.7297105368662572E9, 0.0, 2024-10-24 00:38:56.866
114.0, -57937.710933412425, -58682.49341040772, -60055.73988625287, -65004.5949226135, -65597.67610999061, -56249.193102025165, -15058.839626173929, 15622.260048658854, 0.058, 0.9520000000000001, 0.186, 192.0, 0.0, 0.0, 0.0, 0.0, 0.0, 0.0, 0.0, 0.0, 0.0, 1.7297105368692756E9, 0.0, 2024-10-24 00:38:56.869
115.0, -57919.15898551452, -58663.293261920604, -60038.149063366545, -64984.925387492825, -65581.78401968289, -56228.69655235965, -15404.755223364262, 15252.964526768272, 0.058, 0.9520000000000001, 0.186, 192.0, 0.0, 0.0, 0.0, 0.0, 0.0, 0.0, 0.0, 0.0, 0.0, 1.7297105368733456E9, 0.0, 2024-10-24 00:38:56.873
116.0, -57890.07936597817, -58663.293261920604, -60033.00816214182, -64990.46862011774, -65602.90641819316, -56253.01525032702, -15316.890515910449, 15369.350060147055, 0.058, 0.9520000000000001, 0.186, 192.0, 0.0, 0.0, 0.0, 0.0, 0.0, 0.0, 0.0, 0.0, 0.0, 1.7297105368762667E9, 0.0, 2024-10-24 00:38:56.876
117.0, -57912.900497067036, -58691.702329123305, -60062.959499711935, -65018.92239080935, -65642.51370936797, -56291.61671300134, -14958.927328458707, 15755.252928167933, 0.058, 0.9520000000000001, 0.186, 192.0, 0.0, 0.0, 0.0, 0.0, 0.0, 0.0, 0.0, 0.0, 0.0, 1.7297105368792822E9, 0.0, 2024-10-24 00:38:56.879
118.0, -57950.87611089661, -58710.634256676945, -60088.7310610689, -65028.64539964741, -65659.05400026489, -56295.93059968121, -14780.381593749715, 15928.389540718741, 0.058, 0.9520000000000001, 0.186, 192.0, 0.0, 0.0, 0.0, 0.0, 0.0, 0.0, 0.0, 0.0, 0.0, 1.7297105368833551E9, 0.0, 2024-10-24 00:38:56.883
119.0, -57941.220157291915, -58681.95696854079, -60068.88271199259, -64996.28007367612, -65618.4855840785, -56251.83060787089, -15106.448841863734, 15560.03279209528, 0.056, 0.96, 0.18, 192.0, 1.0, 192.0, 30.0, 0.0, 5.0, 160.0, 0.0, 0.0, 0.0, 1.7297105368863285E9, 0.0, 2024-10-24 00:38:56.886
120.0, -57919.62837214809, -58661.95215725329, -60048.67673500499, -64976.72229727773, -65597.94433092407, -56231.2222994831, -15424.62592418503, 15217.53701180661, 0.056, 0.96, 0.18, 192.0, 0.0, 0.0, 0.0, 0.0, 0.0, 0.0, 0.0, 0.0, 0.0, 1.7297105368893867E9, 0.0, 2024-10-24 00:38:56.889
121.0, -57894.437956146954, -58663.76264855417, -60043.938165180465, -64987.89816950538, -65615.04341543239, -56259.65371843025, -15326.725283470785, 15343.667905767907, 0.056, 0.96, 0.18, 192.0, 0.0, 0.0, 0.0, 0.0, 0.0, 0.0, 0.0, 0.0, 0.0, 1.7297105368923428E9, 0.0, 2024-10-24 00:38:56.892
122.0, -57912.051130777734, -58690.160058755886, -60066.08874393568, -65016.843678575, -65644.10068322429, -56291.348492067875, -14985.369442149335, 15711.734081713448, 0.056, 0.96, 0.18, 192.0, 0.0, 0.0, 0.0, 0.0, 0.0, 0.0, 0.0, 0.0, 0.0, 1.729710536896387E9, 0.0, 2024-10-24 00:38:56.896
123.0, -57943.097703826155, -58705.448651963314, -60084.43952613349, -65027.10312927999, -65651.5438141279, -56294.790660713996, -14823.341646592815, 15868.017478944956, 0.056, 0.96, 0.18, 192.0, 0.0, 0.0, 0.0, 0.0, 0.0, 0.0, 0.0, 0.0, 0.0, 1.7297105368992705E9, 0.0, 2024-10-24 00:38:56.899
124.0, -57941.39897124755, -58686.33791045403, -60066.78164801379, -65006.941855781304, -65615.75867125495, -56266.51570397803, -15136.936621300772, 15512.848259550126, 0.056, 0.96, 0.18, 192.0, 0.0, 0.0, 0.0, 0.0, 0.0, 0.0, 0.0, 0.0, 0.0, 1.729710536902366E9, 0.0, 2024-10-24 00:38:56.902
125.0, -57917.929639569484, -58665.1484567104, -60048.38616232707, -64988.23344567221, -65601.29709259237, -56244.78980836747, -15467.250700861301, 15158.640165166875, 0.056, 0.96, 0.18, 192.0, 0.0, 0.0, 0.0, 0.0, 0.0, 0.0, 0.0, 0.0, 0.0, 1.729710536906283E9, 0.0, 2024-10-24 00:38:56.906
126.0, -57886.30192116522, -58662.80152354259, -60042.30648783523, -64998.02350974364, -65626.50986033796, -56272.79654416997, -15384.370432421021, 15269.124838009458, 0.056, 0.96, 0.18, 192.0, 0.0, 0.0, 0.0, 0.0, 0.0, 0.0, 0.0, 0.0, 0.0, 1.7297105369093878E9, 0.0, 2024-10-24 00:38:56.909
127.0, -57894.75088056933, -58681.8005063296, -60059.2267583879, -65023.32568446705, -65653.26489845096, -56306.97236144214, -15049.11661733587, 15632.653609830573, 0.056, 0.96, 0.18, 192.0, 0.0, 0.0, 0.0, 0.0, 0.0, 0.0, 0.0, 0.0, 0.0, 1.729710536912312E9, 0.0, 2024-10-24 00:38:56.912
128.0, -57935.676924666994, -58703.302884495606, -60080.75148829836, -65034.97094332826, -65648.12399722624, -56306.27945736402, -14863.775952312464, 15810.595847439272, 0.056, 0.96, 0.18, 192.0, 0.0, 0.0, 0.0, 0.0, 0.0, 0.0, 0.0, 0.0, 0.0, 1.729710536915344E9, 0.0, 2024-10-24 00:38:56.915
129.0, -57935.14048280007, -58684.14743949741, -60067.04986894726, -65013.49091690671, -65618.70910152305, -56279.4350122732, -15187.652729469864, 15443.669610460951, 0.06, 0.962, 0.182, 192.0, 1.0, 224.0, 30.0, 16.0, 5.0, 176.0, 0.0, 0.0, 0.0, 1.7297105369193017E9, 0.0, 2024-10-24 00:38:56.919
130.0, -57908.7207208539, -58663.47207587625, -60046.821540215205, -64995.02837598663, -65609.34372059628, -56257.41854398472, -15525.164070745, 15082.264254363092, 0.06, 0.962, 0.182, 192.0, 0.0, 0.0, 0.0, 0.0, 0.0, 0.0, 0.0, 0.0, 0.0, 1.7297105369223795E9, 0.0, 2024-10-24 00:38:56.922
131.0, -57891.19695320093, -58668.90354977889, -60046.88859544857, -65007.59005637051, -65633.26008716346, -56280.97728264061, -15409.873772844527, 15225.896564232895, 0.06, 0.962, 0.182, 192.0, 0.0, 0.0, 0.0, 0.0, 0.0, 0.0, 0.0, 0.0, 0.0, 1.729710536925312E9, 0.0, 2024-10-24 00:38:56.925
132.0, -57898.86360154911, -58683.27572146365, -60059.182054898985, -65021.15756525488, -65646.53702336992, -56300.937390439205, -15075.894007193328, 15588.84419069817, 0.06, 0.962, 0.182, 192.0, 0.0, 0.0, 0.0, 0.0, 0.0, 0.0, 0.0, 0.0, 0.0, 1.7297105369292943E9, 0.0, 2024-10-24 00:38:56.929
133.0, -57935.967497344915, -58701.76061412819, -60078.963348741934, -65028.98067581424, -65649.73332282703, -56298.545753782484, -14915.363778515313, 15743.898241984636, 0.06, 0.962, 0.182, 192.0, 0.0, 0.0, 0.0, 0.0, 0.0, 0.0, 0.0, 0.0, 0.0, 1.729710536932413E9, 0.0, 2024-10-24 00:38:56.932
134.0, -57939.34261075767, -58684.81799183107, -60066.64753754706, -65002.20328595678, -65617.68092127811, -56258.066744573924, -15216.665293772852, 15401.022482040225, 0.06, 0.962, 0.182, 192.0, 0.0, 0.0, 0.0, 0.0, 0.0, 0.0, 0.0, 0.0, 0.0, 1.7297105369354253E9, 0.0, 2024-10-24 00:38:56.935
135.0, -57918.71195062542, -58664.768477054655, -60047.78266522678, -64981.30440489107, -65598.95015942457, -56238.3748577088, -15557.529396716285, 15038.611297441877, 0.06, 0.962, 0.182, 192.0, 0.0, 0.0, 0.0, 0.0, 0.0, 0.0, 0.0, 0.0, 0.0, 1.7297105369393723E9, 0.0, 2024-10-24 00:38:56.939
136.0, -57890.816973545196, -58669.75291606819, -60045.23456635888, -64993.21788468574, -65621.01133120195, -56265.1298958218, -15453.258508832278, 15171.827694395506, 0.06, 0.962, 0.182, 192.0, 0.0, 0.0, 0.0, 0.0, 0.0, 0.0, 0.0, 0.0, 0.0, 1.7297105369423385E9, 0.0, 2024-10-24 00:38:56.942
137.0, -57896.471964892386, -58687.96958779926, -60060.45610433294, -65011.345149439, -65639.00448548848, -56287.21341934364, -15099.631559804864, 15551.65088792454, 0.06, 0.962, 0.182, 192.0, 0.0, 0.0, 0.0, 0.0, 0.0, 0.0, 0.0, 0.0, 0.0, 1.7297105369463108E9, 0.0, 2024-10-24 00:38:56.946
138.0, -57937.308602012235, -58706.0074455747, -60082.91960751052, -65018.92239080935, -65643.87716577973, -56286.1852390987, -14940.688304983176, 15704.760337443393, 0.06, 0.962, 0.182, 192.0, 0.0, 0.0, 0.0, 0.0, 0.0, 0.0, 0.0, 0.0, 0.0, 1.7297105369505281E9, 0.0, 2024-10-24 00:38:56.950
139.0, -57935.2745932668, -58686.159096498384, -60069.19563641497, -64994.93896900881, -65613.0317584314, -56253.395229982765, -15263.939233295827, 15340.091626655058, 0.066, 0.9560000000000001, 0.192, 192.0, 2.0, 16.0, 29.0, 224.0, 6.0, 0.0, 0.0, 0.0, 0.0, 1.7297105369544396E9, 0.0, 2024-10-24 00:38:56.954
140.0, -57917.70612212493, -58670.82579980204, -60052.36477284012, -64979.896244990385, -65596.5808745123, -56238.576023408896, -15593.672167500517, 14990.040956740495, 0.066, 0.9560000000000001, 0.192, 192.0, 0.0, 0.0, 0.0, 0.0, 0.0, 0.0, 0.0, 0.0, 0.0, 1.7297105369584002E9, 0.0, 2024-10-24 00:38:56.958
141.0, -57898.48362189336, -58678.13482023893, -60052.02949667329, -64992.86025677446, -65623.24650564749, -56262.55944520944, -15493.469297107375, 15120.821013548497, 0.066, 0.9560000000000001, 0.192, 192.0, 0.0, 0.0, 0.0, 0.0, 0.0, 0.0, 0.0, 0.0, 0.0, 1.729710536963328E9, 0.0, 2024-10-24 00:38:56.963
142.0, -57917.97434305839, -58707.46030896429, -60079.00805223085, -65023.102167022495, -65660.46216016557, -56300.04332066099, -15138.031856779082, 15504.77927980176, 0.066, 0.9560000000000001, 0.192, 192.0, 0.0, 0.0, 0.0, 0.0, 0.0, 0.0, 0.0, 0.0, 0.0, 1.7297105369664705E9, 0.0, 2024-10-24 00:38:56.966
143.0, -57955.01118362084, -58724.201765561316, -60099.236380962895, -65029.71828338126, -65652.9966775175, -56296.4893932926, -14993.930160275719, 15643.181281469022, 0.066, 0.9560000000000001, 0.192, 192.0, 0.0, 0.0, 0.0, 0.0, 0.0, 0.0, 0.0, 0.0, 0.0, 1.7297105369706392E9, 0.0, 2024-10-24 00:38:56.970
144.0, -57952.97717487541, -58702.63233216195, -60087.4793633794, -65005.51134413616, -65629.37088362825, -56257.48559921809, -15331.866184695506, 15262.396962928411, 0.066, 0.9560000000000001, 0.192, 192.0, 0.0, 0.0, 0.0, 0.0, 0.0, 0.0, 0.0, 0.0, 0.0, 1.7297105369743512E9, 0.0, 2024-10-24 00:38:56.974
145.0, -57933.82172987721, -58683.923922052854, -60075.431773118, -64993.173181196835, -65616.8315549888, -56244.65569790074, -15654.804188585782, 14917.129566327283, 0.066, 0.9560000000000001, 0.192, 192.0, 0.0, 0.0, 0.0, 0.0, 0.0, 0.0, 0.0, 0.0, 0.0, 1.7297105369785056E9, 0.0, 2024-10-24 00:38:56.978
146.0, -57905.211496974414, -58685.1532679979, -60070.11205793764, -65006.4948208922, -65635.87524126473, -56273.37768952581, -15548.231071022878, 15053.497559249112, 0.066, 0.9560000000000001, 0.192, 192.0, 0.0, 0.0, 0.0, 0.0, 0.0, 0.0, 0.0, 0.0, 0.0, 1.7297105369825284E9, 0.0, 2024-10-24 00:38:56.982
147.0, -57916.43207269098, -58710.567201443584, -60089.736889569394, -65034.903888094894, -65667.52531141345, -56309.36399809885, -15211.993779181694, 15417.76393863725, 0.066, 0.9560000000000001, 0.192, 192.0, 0.0, 0.0, 0.0, 0.0, 0.0, 0.0, 0.0, 0.0, 0.0, 1.7297105369866815E9, 0.0, 2024-10-24 00:38:56.986
148.0, -57958.94509064497, -58736.3164110561, -60113.295628225285, -65052.0029726032, -65670.11811377027, -56318.43880634771, -15045.205062056193, 15578.629443482096, 0.066, 0.9560000000000001, 0.192, 192.0, 0.0, 0.0, 0.0, 0.0, 0.0, 0.0, 0.0, 0.0, 0.0, 1.729710536990427E9, 0.0, 2024-10-24 00:38:56.990
149.0, -57953.312451042235, -58712.7576724002, -60093.089651237686, -65028.57834441404, -65626.35339812677, -56287.727509466116, -15373.976871249304, 15207.188154123802, 0.066, 0.9560000000000001, 0.19, 192.0, 2.0, 16.0, 29.0, 224.0, 5.0, 240.0, 0.0, 0.0, 0.0, 1.729710536993452E9, 0.0, 2024-10-24 00:38:56.993
150.0, -57927.83146236318, -58690.71885236727, -60072.816619016725, -65011.90394305038, -65611.24361887499, -56270.60607321335, -15723.44639580803, 14834.472815331557, 0.066, 0.9560000000000001, 0.19, 192.0, 0.0, 0.0, 0.0, 0.0, 0.0, 0.0, 0.0, 0.0, 0.0, 1.7297105369975576E9, 0.0, 2024-10-24 00:38:56.997
151.0, -57902.59634287314, -58693.937503568835, -60070.55909282674, -65023.504498422684, -65639.33976165531, -56290.74499496759, -15632.340685408199, 14955.507511557045, 0.066, 0.9560000000000001, 0.19, 192.0, 0.0, 0.0, 0.0, 0.0, 0.0, 0.0, 0.0, 0.0, 0.0, 1.729710537002455E9, 0.0, 2024-10-24 00:38:57.002
152.0, -57918.51078492532, -58720.80430040411, -60095.16836347203, -65051.08655108054, -65679.12586678575, -56324.31731513945, -15281.68651839334, 15335.375408574988, 0.066, 0.9560000000000001, 0.19, 192.0, 0.0, 0.0, 0.0, 0.0, 0.0, 0.0, 0.0, 0.0, 0.0, 1.7297105370064695E9, 0.0, 2024-10-24 00:38:57.006
153.0, -57950.87611089661, -58734.95295464432, -60109.20525898997, -65054.05933309309, -65670.67690738165, -56317.94706796969, -15108.79577503154, 15502.298236167222, 0.066, 0.9560000000000001, 0.19, 192.0, 0.0, 0.0, 0.0, 0.0, 0.0, 0.0, 0.0, 0.0, 0.0, 1.7297105370104282E9, 0.0, 2024-10-24 00:38:57.010
154.0, -57946.47281723891, -58715.48458522375, -60090.07216573622, -65029.98650431473, -65634.31061915286, -56287.88397167731, -15429.655066687474, 15138.23302247918, 0.066, 0.9560000000000001, 0.19, 192.0, 0.0, 0.0, 0.0, 0.0, 0.0, 0.0, 0.0, 0.0, 0.0, 1.729710537014638E9, 0.0, 2024-10-24 00:38:57.014
155.0, -57930.111340297626, -58698.22903850425, -60073.50952309484, -65012.82036457305, -65613.99288344299, -56267.27566328951, -15758.806855536326, 14786.483619986013, 0.066, 0.9560000000000001, 0.19, 192.0, 0.0, 0.0, 0.0, 0.0, 0.0, 0.0, 0.0, 0.0, 0.0, 1.72971053702343E9, 0.0, 2024-10-24 00:38:57.023
156.0, -57909.72654935438, -58704.77809962966, -60070.26852014882, -65023.370387955954, -65629.61675281725, -56288.57687575542, -15649.506825149874, 14922.203412318637, 0.066, 0.9560000000000001, 0.19, 192.0, 0.0, 0.0, 0.0, 0.0, 0.0, 0.0, 0.0, 0.0, 0.0, 1.7297105370265448E9, 0.0, 2024-10-24 00:38:57.026
157.0, -57928.837290863674, -58729.63323946396, -60094.09547973818, -65045.051580077605, -65662.02678227745, -56313.11909116735, -15293.68940516584, 15302.69715818133, 0.066, 0.9560000000000001, 0.19, 192.0, 0.0, 0.0, 0.0, 0.0, 0.0, 0.0, 0.0, 0.0, 0.0, 1.7297105370305426E9, 0.0, 2024-10-24 00:38:57.030
158.0, -57968.48928552739, -58748.028725150674, -60112.42391019153, -65050.147777813414, -65656.52825314144, -56307.48645156461, -15136.333124200479, 15455.091351877612, 0.066, 0.9560000000000001, 0.19, 192.0, 0.0, 0.0, 0.0, 0.0, 0.0, 0.0, 0.0, 0.0, 0.0, 1.7297105370334291E9, 0.0, 2024-10-24 00:38:57.033
159.0, -57958.2298348224, -58726.14636732893, -60092.41909890403, -65020.12938500993, -65624.96758997055, -56264.41463999923, -15479.342994611621, 15071.691879235732, 0.068, 0.9580000000000001, 0.188, 192.0, 2.0, 32.0, 29.0, 240.0, 5.0, 224.0, 0.0, 0.0, 0.0, 1.7297105370365736E9, 0.0, 2024-10-24 00:38:57.036
160.0, -57945.71285792743, -58715.037550334644, -60081.064412720734, -65006.76304182566, -65617.47975557801, -56246.1756165237, -15799.956417078545, 14731.00659024794, 0.068, 0.9580000000000001, 0.188, 192.0, 0.0, 0.0, 0.0, 0.0, 0.0, 0.0, 0.0, 0.0, 0.0, 1.7297105370405362E9, 0.0, 2024-10-24 00:38:57.040
161.0, -57926.71387514042, -58721.43014924886, -60079.20921793094, -65019.034149531624, -65634.2435639195, -56272.46126800314, -15696.110212339188, 14864.401801157213, 0.068, 0.9580000000000001, 0.188, 192.0, 0.0, 0.0, 0.0, 0.0, 0.0, 0.0, 0.0, 0.0, 0.0, 1.7297105370435464E9, 0.0, 2024-10-24 00:38:57.043
162.0, -57933.97819208839, -58737.970440145786, -60091.614436103635, -65035.57444042855, -65644.34655241329, -56293.740128724596, -15350.775760504695, 15237.273602160645, 0.068, 0.9580000000000001, 0.188, 192.0, 0.0, 0.0, 0.0, 0.0, 0.0, 0.0, 0.0, 0.0, 0.0, 1.7297105370465677E9, 0.0, 2024-10-24 00:38:57.046
163.0, -57976.29004434229, -58756.500036299236, -60116.46957593794, -65045.29744926661, -65654.56129962936, -56296.310579336954, -15198.470973786232, 15383.208141709345, 0.068, 0.9580000000000001, 0.188, 192.0, 0.0, 0.0, 0.0, 0.0, 0.0, 0.0, 0.0, 0.0, 0.0, 1.7297105370505884E9, 0.0, 2024-10-24 00:38:57.050
164.0, -57972.3337855737, -58737.63516397896, -60105.22664847692, -65024.711492623275, -65627.0910056938, -56270.20374181316, -15503.818154790182, 15036.420826485257, 0.068, 0.9580000000000001, 0.188, 192.0, 0.0, 0.0, 0.0, 0.0, 0.0, 0.0, 0.0, 0.0, 0.0, 1.7297105370535085E9, 0.0, 2024-10-24 00:38:57.053
165.0, -57944.639974193575, -58716.60217244652, -60081.51144760984, -65006.248951703186, -65600.02304315842, -56251.920014848714, -15845.263403089453, 14673.003813386418, 0.068, 0.9580000000000001, 0.188, 192.0, 0.0, 0.0, 0.0, 0.0, 0.0, 0.0, 0.0, 0.0, 0.0, 1.729710537058875E9, 0.0, 2024-10-24 00:38:57.058
166.0, -57925.28336349528, -58721.273687037676, -60084.52893311131, -65022.76689085566, -65635.15998544217, -56284.79943094247, -15741.573660561284, 14806.086099873317, 0.068, 0.9580000000000001, 0.188, 192.0, 0.0, 0.0, 0.0, 0.0, 0.0, 0.0, 0.0, 0.0, 0.0, 1.7297105370624957E9, 0.0, 2024-10-24 00:38:57.062
167.0, -57939.20850029094, -58742.48549252576, -60105.539572899295, -65047.152644056405, -65663.65845962267, -56313.18614640071, -15396.485077915799, 15179.941377632784, 0.068, 0.9580000000000001, 0.188, 192.0, 0.0, 0.0, 0.0, 0.0, 0.0, 0.0, 0.0, 0.0, 0.0, 1.7297105370665176E9, 0.0, 2024-10-24 00:38:57.066
168.0, -57977.13941063159, -58758.0199549222, -60120.80581436227, -65052.56176621459, -65656.97528803055, -56301.965570684144, -15248.270660432658, 15321.383216545966, 0.068, 0.9580000000000001, 0.188, 192.0, 0.0, 0.0, 0.0, 0.0, 0.0, 0.0, 0.0, 0.0, 0.0, 1.7297105370706491E9, 0.0, 2024-10-24 00:38:57.070
169.0, -57975.86536119764, -58740.47383552478, -60111.619247391136, -65036.46851020677, -65636.1434621982, -56280.597302984876, -15557.082361827179, 14970.147904175272, 0.066, 0.962, 0.19, 192.0, 2.0, 16.0, 30.0, 16.0, 5.0, 240.0, 0.0, 0.0, 0.0, 1.7297105370745203E9, 0.0, 2024-10-24 00:38:57.074
170.0, -57952.28427079729, -58718.256201536205, -60092.79907855977, -65020.799937343596, -65617.99384570049, -56268.12502957881, -15873.337194125319, 14633.32946697825, 0.066, 0.962, 0.19, 192.0, 0.0, 0.0, 0.0, 0.0, 0.0, 0.0, 0.0, 0.0, 0.0, 1.7297105370775054E9, 0.0, 2024-10-24 00:38:57.077
171.0, -57926.75857862933, -58717.71975966928, -60089.31220642474, -65032.55695492709, -65646.13469196972, -56298.61280901585, -15757.21988168, 14780.381593749715, 0.066, 0.962, 0.19, 192.0, 0.0, 0.0, 0.0, 0.0, 0.0, 0.0, 0.0, 0.0, 0.0, 1.72971053708153E9, 0.0, 2024-10-24 00:38:57.081
172.0, -57928.59142167466, -58726.54869872912, -60101.51625889734, -65047.577327201056, -65682.2998144984, -56324.31731513945, -15422.90483986197, 15143.351571959445, 0.066, 0.962, 0.19, 192.0, 0.0, 0.0, 0.0, 0.0, 0.0, 0.0, 0.0, 0.0, 0.0, 1.7297105370865188E9, 0.0, 2024-10-24 00:38:57.086
173.0, -57958.85568366715, -58730.12497784197, -60115.84372709319, -65049.097245824014, -65684.1550092882, -56323.378541872335, -15300.864315135994, 15260.139436738426, 0.066, 0.962, 0.19, 192.0, 0.0, 0.0, 0.0, 0.0, 0.0, 0.0, 0.0, 0.0, 0.0, 1.7297105370905337E9, 0.0, 2024-10-24 00:38:57.090
174.0, -57956.106419099146, -58709.69548340982, -60104.66785486554, -65032.333437482535, -65656.95293628609, -56305.31833235244, -15613.52051657683, 14906.780708644475, 0.066, 0.962, 0.19, 192.0, 0.0, 0.0, 0.0, 0.0, 0.0, 0.0, 0.0, 0.0, 0.0, 1.7297105370945227E9, 0.0, 2024-10-24 00:38:57.094
175.0, -57939.99081134687, -58695.36801521397, -60092.597912859674, -65021.001103043694, -65648.8392530488, -56297.24935260408, -15932.815186120892, 14565.98366093441, 0.066, 0.962, 0.19, 192.0, 0.0, 0.0, 0.0, 0.0, 0.0, 0.0, 0.0, 0.0, 0.0, 1.7297105370986488E9, 0.0, 2024-10-24 00:38:57.098
176.0, -57917.97434305839, -58699.23486700474, -60093.5366861268, -65033.47337644975, -65676.82363710686, -56325.747826784595, -15828.790167425892, 14698.015415431908, 0.066, 0.962, 0.19, 192.0, 0.0, 0.0, 0.0, 0.0, 0.0, 0.0, 0.0, 0.0, 0.0, 1.7297105371015527E9, 0.0, 2024-10-24 00:38:57.101
177.0, -57932.01123857633, -58721.02781784866, -60116.26841023784, -65055.48984473823, -65704.94213163163, -56353.30752769799, -15476.25845387679, 15074.93288218175, 0.066, 0.962, 0.19, 192.0, 0.0, 0.0, 0.0, 0.0, 0.0, 0.0, 0.0, 0.0, 0.0, 1.7297105371055791E9, 0.0, 2024-10-24 00:38:57.105
178.0, -57965.71766921493, -58732.87424240998, -60127.80191037678, -65054.46166449329, -65692.82748613686, -56338.28715542402, -15318.41043453341, 15225.315418877057, 0.066, 0.962, 0.19, 192.0, 0.0, 0.0, 0.0, 0.0, 0.0, 0.0, 0.0, 0.0, 0.0, 1.7297105371095355E9, 0.0, 2024-10-24 00:38:57.109
179.0, -57957.55928248874, -58703.079367051054, -60102.14210774209, -65018.85533557598, -65637.32810465433, -56290.61088450085, -15653.865415318658, 14849.381428883247, 0.064, 0.962, 0.188, 192.0, 2.0, 0.0, 30.0, 16.0, 5.0, 224.0, 0.0, 0.0, 0.0, 1.7297105371135635E9, 0.0, 2024-10-24 00:38:57.113
180.0, -57938.0238578348, -58682.91809355237, -60080.304453409255, -64995.60952134246, -65608.91903745163, -56260.54778820846, -15991.108535660333, 14492.625235632091, 0.064, 0.962, 0.188, 192.0, 0.0, 0.0, 0.0, 0.0, 0.0, 0.0, 0.0, 0.0, 0.0, 1.7297105371195998E9, 0.0, 2024-10-24 00:38:57.119
181.0, -57924.67986639498, -58692.462288434785, -60084.841857533684, -65007.858277303974, -65639.00448548848, -56283.301864063964, -15885.697708809104, 14631.317809977272, 0.064, 0.962, 0.188, 192.0, 0.0, 0.0, 0.0, 0.0, 0.0, 0.0, 0.0, 0.0, 0.0, 1.729710537122576E9, 0.0, 2024-10-24 00:38:57.122
182.0, -57937.442712478965, -58716.13278581295, -60109.093500267685, -65030.05355954809, -65671.25805273748, -56308.291114365, -15539.089207540657, 15006.693006359697, 0.064, 0.962, 0.188, 192.0, 0.0, 0.0, 0.0, 0.0, 0.0, 0.0, 0.0, 0.0, 0.0, 1.729710537126591E9, 0.0, 2024-10-24 00:38:57.126
183.0, -57979.97808217741, -58740.563242502605, -60133.65806742407, -65043.933992854836, -65673.13559927173, -56308.15700389827, -15394.026386025715, 15144.29034522657, 0.064, 0.962, 0.188, 192.0, 0.0, 0.0, 0.0, 0.0, 0.0, 0.0, 0.0, 0.0, 0.0, 1.729710537130663E9, 0.0, 2024-10-24 00:38:57.130
184.0, -57975.03834665279, -58722.592439960536, -60115.70961662646, -65022.677483877844, -65633.12597669673, -56275.85873316035, -15712.806965447304, 14783.130858317716, 0.064, 0.962, 0.188, 192.0, 0.0, 0.0, 0.0, 0.0, 0.0, 0.0, 0.0, 0.0, 0.0, 1.7297105371346655E9, 0.0, 2024-10-24 00:38:57.134
185.0, -57958.8780354116, -58713.025893333666, -60102.47738390892, -65012.48508840622, -65624.25233414797, -56262.1794655537, -16036.974315282621, 14437.751702994312, 0.064, 0.962, 0.188, 192.0, 0.0, 0.0, 0.0, 0.0, 0.0, 0.0, 0.0, 0.0, 0.0, 1.7297105371387584E9, 0.0, 2024-10-24 00:38:57.138
186.0, -57934.648744422055, -58716.17748930187, -60099.05756700726, -65022.118690266456, -65642.58076460133, -56281.93840765219, -15939.565412946395, 14567.011841179354, 0.064, 0.962, 0.188, 192.0, 0.0, 0.0, 0.0, 0.0, 0.0, 0.0, 0.0, 0.0, 0.0, 1.7297105371416967E9, 0.0, 2024-10-24 00:38:57.141
187.0, -57944.70702942694, -58737.277536067675, -60118.32477072773, -65044.15751029939, -65665.87128232376, -56307.17352714224, -15616.448595100475, 14920.057644850927, 0.064, 0.962, 0.188, 192.0, 0.0, 0.0, 0.0, 0.0, 0.0, 0.0, 0.0, 0.0, 0.0, 1.7297105371466916E9, 0.0, 2024-10-24 00:38:57.146
188.0, -57983.71082350145, -58761.6185857795, -60143.11285532867, -65058.59673721752, -65672.42034344916, -56313.588477800906, -15477.621910288563, 15052.6034894709, 0.064, 0.962, 0.188, 192.0, 0.0, 0.0, 0.0, 0.0, 0.0, 0.0, 0.0, 0.0, 0.0, 1.729710537150632E9, 0.0, 2024-10-24 00:38:57.150
189.0, -57979.50869554385, -58746.73232397227, -60124.89618359759, -65039.21777477477, -65638.66920932164, -56282.117221607834, -15800.112879289733, 14688.650034505134, 0.066, 0.968, 0.19, 192.0, 2.0, 16.0, 30.0, 64.0, 5.0, 240.0, 0.0, 0.0, 0.0, 1.7297105371546395E9, 0.0, 2024-10-24 00:38:57.154
190.0, -57954.87707315411, -58730.61671621999, -60102.05270076427, -65026.186707757326, -65624.85583124826, -56267.25331154506, -16133.019761207077, 14335.939507000388, 0.066, 0.968, 0.19, 192.0, 0.0, 0.0, 0.0, 0.0, 0.0, 0.0, 0.0, 0.0, 0.0, 1.7297105371576228E9, 0.0, 2024-10-24 00:38:57.157
191.0, -57934.60404093314, -58738.6633442239, -60100.0857472522, -65047.68908592333, -65654.58365137383, -56306.52532655303, -16028.771225067525, 14472.57572085568, 0.066, 0.968, 0.19, 192.0, 0.0, 0.0, 0.0, 0.0, 0.0, 0.0, 0.0, 0.0, 0.0, 1.729710537161598E9, 0.0, 2024-10-24 00:38:57.161
192.0, -57952.41838126402, -58764.34549860305, -60123.46567195245, -65080.36733631699, -65690.79347739142, -56344.970327016155, -15697.71953793997, 14834.383408353737, 0.066, 0.968, 0.19, 192.0, 0.0, 0.0, 0.0, 0.0, 0.0, 0.0, 0.0, 0.0, 0.0, 1.7297105371656451E9, 0.0, 2024-10-24 00:38:57.165
193.0, -57994.93139921802, -58790.184115193384, -60147.22557630844, -65097.064089425105, -65693.43098323715, -56344.2997746825, -15540.385608719065, 14985.525904360522, 0.066, 0.968, 0.19, 192.0, 0.0, 0.0, 0.0, 0.0, 0.0, 0.0, 0.0, 0.0, 0.0, 1.7297105371696165E9, 0.0, 2024-10-24 00:38:57.169
194.0, -57984.60489327966, -58770.603987050534, -60130.75234064488, -65076.14285661493, -65660.50686365449, -56313.20849814517, -15860.172016641143, 14624.545231407314, 0.066, 0.968, 0.19, 192.0, 0.0, 0.0, 0.0, 0.0, 0.0, 0.0, 0.0, 0.0, 0.0, 1.7297105371746397E9, 0.0, 2024-10-24 00:38:57.174
195.0, -57966.47762852641, -58750.57682401858, -60118.391825961095, -65061.614222718985, -65650.96266877206, -56301.78675672851, -16197.750413149646, 14265.330346266073, 0.066, 0.968, 0.19, 192.0, 0.0, 0.0, 0.0, 0.0, 0.0, 0.0, 0.0, 0.0, 0.0, 1.72971053717877E9, 0.0, 2024-10-24 00:38:57.178
196.0, -57949.06561959573, -58752.34261183055, -60124.56090743076, -65074.131199613956, -65685.38435523324, -56330.978134987134, -16085.030565861533, 14408.582676480137, 0.066, 0.968, 0.19, 192.0, 0.0, 0.0, 0.0, 0.0, 0.0, 0.0, 0.0, 0.0, 0.0, 1.7297105371826823E9, 0.0, 2024-10-24 00:38:57.182
197.0, -57956.93343364399, -58769.66521378341, -60140.14007331611, -65089.28568235465, -65698.30366352841, -56353.352231186895, -15736.477462825475, 14786.21539905255, 0.066, 0.968, 0.19, 192.0, 0.0, 0.0, 0.0, 0.0, 0.0, 0.0, 0.0, 0.0, 0.0, 1.7297105371856542E9, 0.0, 2024-10-24 00:38:57.185
198.0, -57988.896428215085, -58786.272559913705, -60153.93109964504, -65088.4139643209, -65698.34836701732, -56339.15887345778, -15577.757725448339, 14938.833110193385, 0.066, 0.968, 0.19, 192.0, 0.0, 0.0, 0.0, 0.0, 0.0, 0.0, 0.0, 0.0, 0.0, 1.729710537189692E9, 0.0, 2024-10-24 00:38:57.189
199.0, -57978.48051529891, -58762.847931724544, -60130.17119528904, -65057.8591296505, -65659.72455259855, -56303.19491662919, -15904.696691596115, 14571.526893559325, 0.066, 0.966, 0.194, 192.0, 2.0, 16.0, 30.0, 48.0, 6.0, 16.0, 0.0, 0.0, 0.0, 1.729710537193745E9, 0.0, 2024-10-24 00:38:57.193
200.0, -57957.42517202201, -58741.323201814084, -60111.86511658015, -65038.25664976319, -65645.77706405843, -56290.320311822936, -16228.484061775693, 14229.142871992932, 0.066, 0.966, 0.194, 192.0, 0.0, 0.0, 0.0, 0.0, 0.0, 0.0, 0.0, 0.0, 0.0, 1.7297105371976695E9, 0.0, 2024-10-24 00:38:57.197
201.0, -57933.46410196592, -58733.4106842769, -60105.85249732167, -65041.140024797925, -65657.4446746641, -56308.134652153814, -16143.614488078892, 14346.668344338936, 0.066, 0.966, 0.194, 192.0, 0.0, 0.0, 0.0, 0.0, 0.0, 0.0, 0.0, 0.0, 0.0, 1.7297105372017992E9, 0.0, 2024-10-24 00:38:57.201
202.0, -57944.3270497712, -58748.22989085077, -60122.01280856285, -65058.23910930623, -65679.46114295258, -56332.028666976534, -15805.387890981185, 14715.136851684672, 0.066, 0.966, 0.194, 192.0, 0.0, 0.0, 0.0, 0.0, 0.0, 0.0, 0.0, 0.0, 0.0, 1.729710537206704E9, 0.0, 2024-10-24 00:38:57.206
203.0, -57989.76814624884, -58766.80419049313, -60145.83976815221, -65065.97281288777, -65679.88582609723, -56328.31827739695, -15640.744941323394, 14872.403725672213, 0.066, 0.966, 0.194, 192.0, 0.0, 0.0, 0.0, 0.0, 0.0, 0.0, 0.0, 0.0, 0.0, 1.7297105372108428E9, 0.0, 2024-10-24 00:38:57.210
204.0, -57984.00139617937, -58741.189091347354, -60127.39957897658, -65036.446158462306, -65647.78872105942, -56287.48164027711, -15963.191206835654, 14506.751538127844, 0.066, 0.966, 0.194, 192.0, 0.0, 0.0, 0.0, 0.0, 0.0, 0.0, 0.0, 0.0, 0.0, 1.7297105372138195E9, 0.0, 2024-10-24 00:38:57.213
205.0, -57964.68948896998, -58718.63618119195, -60109.42877643452, -65016.01666403016, -65632.61188657426, -56268.482657490094, -16282.240007190707, 14163.384039805418, 0.066, 0.966, 0.194, 192.0, 0.0, 0.0, 0.0, 0.0, 0.0, 0.0, 0.0, 0.0, 0.0, 1.7297105372189684E9, 0.0, 2024-10-24 00:38:57.218
206.0, -57944.930546871496, -58723.88884113894, -60110.926343313025, -65028.37717871394, -65664.86545382327, -56295.260047347554, -16167.933186046266, 14309.229172376297, 0.066, 0.966, 0.194, 192.0, 0.0, 0.0, 0.0, 0.0, 0.0, 0.0, 0.0, 0.0, 0.0, 1.7297105372238092E9, 0.0, 2024-10-24 00:38:57.223
207.0, -57963.12486685811, -58750.82269320759, -60133.61336393516, -65053.83581564854, -65683.66327091018, -56324.42907386173, -15815.222658541521, 14692.427479318081, 0.066, 0.966, 0.194, 192.0, 0.0, 0.0, 0.0, 0.0, 0.0, 0.0, 0.0, 0.0, 0.0, 1.729710537227919E9, 0.0, 2024-10-24 00:38:57.227
208.0, -58003.358006877665, -58772.41447835141, -60150.980669376935, -65061.86009190799, -65672.82267484936, -56319.69050403721, -15682.855627877192, 14818.401911068191, 0.066, 0.966, 0.194, 192.0, 0.0, 0.0, 0.0, 0.0, 0.0, 0.0, 0.0, 0.0, 0.0, 1.7297105372307253E9, 0.0, 2024-10-24 00:38:57.230
209.0, -58007.627190068626, -58765.172513147896, -60145.92917513003, -65047.845548134515, -65651.18618621663, -56288.57687575542, -16009.50402134705, 14450.827473500667, 0.066, 0.966, 0.194, 192.0, 0.0, 0.0, 0.0, 0.0, 0.0, 0.0, 0.0, 0.0, 0.0, 1.7297105372348425E9, 0.0, 2024-10-24 00:38:57.234
210.0, -57989.70109101547, -58752.61083276401, -60133.88158486862, -65035.753254384195, -65638.93743025512, -56269.42143075722, -16344.534318987648, 14096.30645469504, 0.064, 0.968, 0.19, 192.0, 2.0, 0.0, 30.0, 64.0, 5.0, 240.0, 0.0, 0.0, 0.0, 1.7297105372387376E9, 0.0, 2024-10-24 00:38:57.238
211.0, -57970.41153555054, -58760.99273693476, -60137.077884325736, -65054.17109181537, -65664.99956429, -56300.89268695029, -16232.797948455567, 14241.749255865725, 0.064, 0.968, 0.19, 192.0, 0.0, 0.0, 0.0, 0.0, 0.0, 0.0, 0.0, 0.0, 0.0, 1.729710537241753E9, 0.0, 2024-10-24 00:38:57.241
212.0, -57980.7380414889, -58782.51746684522, -60157.1497508466, -65078.75801071621, -65691.21816053607, -56329.547623342, -15885.027156475444, 14621.572449394758, 0.064, 0.968, 0.19, 192.0, 0.0, 0.0, 0.0, 0.0, 0.0, 0.0, 0.0, 0.0, 0.0, 1.7297105372458153E9, 0.0, 2024-10-24 00:38:57.245
213.0, -58019.11598671866, -58803.99749326676, -60177.24396911192, -65092.34787134503, -65680.51167494198, -56332.4980536101, -15738.10914017071, 14762.634308652201, 0.064, 0.968, 0.19, 192.0, 0.0, 0.0, 0.0, 0.0, 0.0, 0.0, 0.0, 0.0, 0.0, 1.7297105372498689E9, 0.0, 2024-10-24 00:38:57.249
214.0, -58008.543611591296, -58782.651577311946, -60159.58609099223, -65071.404286790406, -65649.35334317129, -56304.916000952246, -16078.772077414045, 14378.854856354577, 0.064, 0.968, 0.19, 192.0, 0.0, 0.0, 0.0, 0.0, 0.0, 0.0, 0.0, 0.0, 0.0, 1.7297105372538936E9, 0.0, 2024-10-24 00:38:57.253
215.0, -57988.538800303795, -58765.35132710354, -60147.47144549745, -65059.04377210663, -65650.47093039405, -56291.30378857897, -16407.566238351614, 14029.362980051397, 0.064, 0.968, 0.19, 192.0, 0.0, 0.0, 0.0, 0.0, 0.0, 0.0, 0.0, 0.0, 0.0, 1.729710537257836E9, 0.0, 2024-10-24 00:38:57.257
216.0, -57960.59911973467, -58763.74200150276, -60143.87281464015, -65068.07387686657, -65676.77893361794, -56315.48837607961, -16297.70741435378, 14171.542426531605, 0.064, 0.968, 0.19, 192.0, 0.0, 0.0, 0.0, 0.0, 0.0, 0.0, 0.0, 0.0, 0.0, 1.7297105372628655E9, 0.0, 2024-10-24 00:38:57.262
217.0, -57970.81386695074, -58781.4222313669, -60163.87762592765, -65089.710365499304, -65708.47370725557, -56346.11026598338, -15948.461407239605, 14550.493902026881, 0.064, 0.968, 0.19, 192.0, 0.0, 0.0, 0.0, 0.0, 0.0, 0.0, 0.0, 0.0, 0.0, 1.729710537266908E9, 0.0, 2024-10-24 00:38:57.266
218.0, -58011.33757964821, -58798.856592042044, -60181.53550404734, -65099.07574642608, -65698.30366352841, -56341.550510114495, -15778.990480779468, 14713.304008639338, 0.064, 0.968, 0.19, 192.0, 0.0, 0.0, 0.0, 0.0, 0.0, 0.0, 0.0, 0.0, 0.0, 1.7297105372698197E9, 0.0, 2024-10-24 00:38:57.269
219.0, -58004.78851852281, -58774.336728374576, -60156.97093689095, -65072.655984479905, -65652.32612518384, -56310.794509743995, -16092.56310374297, 14359.162969489453, 0.064, 0.968, 0.19, 192.0, 0.0, 0.0, 0.0, 0.0, 0.0, 0.0, 0.0, 0.0, 0.0, 1.729710537273844E9, 0.0, 2024-10-24 00:38:57.273
220.0, -57979.06166065475, -58749.70510598482, -60136.67555292554, -65056.13804532743, -65650.56033737188, -56304.75953874106, -16412.036587242674, 14021.338703791942, 0.062, 0.968, 0.19, 192.0, 1.0, 240.0, 30.0, 64.0, 5.0, 240.0, 0.0, 0.0, 0.0, 1.7297105372778747E9, 0.0, 2024-10-24 00:38:57.277
221.0, -57952.530139986295, -58746.15117861643, -60133.16632904606, -65066.844530921524, -65689.22885527955, -56335.82846353394, -16304.725862112746, 14164.635737494915, 0.062, 0.968, 0.19, 192.0, 0.0, 0.0, 0.0, 0.0, 0.0, 0.0, 0.0, 0.0, 0.0, 1.72971053728179E9, 0.0, 2024-10-24 00:38:57.281
222.0, -57954.69825919846, -58756.67885025488, -60143.55989021777, -65080.81437120609, -65701.96934961907, -56354.49217015412, -15985.766468735514, 14516.698064410457, 0.062, 0.968, 0.19, 192.0, 0.0, 0.0, 0.0, 0.0, 0.0, 0.0, 0.0, 0.0, 0.0, 1.7297105372857854E9, 0.0, 2024-10-24 00:38:57.285
223.0, -57989.3881665931, -58772.34742311805, -60156.16627409057, -65086.35760383101, -65685.67492791115, -56350.67002185226, -15848.035019401912, 14649.914461364087, 0.062, 0.968, 0.19, 192.0, 0.0, 0.0, 0.0, 0.0, 0.0, 0.0, 0.0, 0.0, 0.0, 1.7297105372928252E9, 0.0, 2024-10-24 00:38:57.292
224.0, -57974.92658793052, -58747.15700711692, -60128.695980155, -65056.0039348607, -65642.80428204588, -56308.984018443116, -16167.39674417934, 14288.196180843852, 0.062, 0.968, 0.19, 192.0, 0.0, 0.0, 0.0, 0.0, 0.0, 0.0, 0.0, 0.0, 0.0, 1.729710537295431E9, 0.0, 2024-10-24 00:38:57.295
225.0, -57950.67494519651, -58726.995733618234, -60112.02157879133, -65042.72699865425, -65637.70808431007, -56302.50201255108, -16501.085937152617, 13931.75291201507, 0.062, 0.968, 0.19, 192.0, 0.0, 0.0, 0.0, 0.0, 0.0, 0.0, 0.0, 0.0, 0.0, 1.7297105372978132E9, 0.0, 2024-10-24 00:38:57.297
226.0, -57915.87327907959, -58724.827614406066, -60105.807793832755, -65051.354772014, -65655.83534906332, -56323.95968722817, -16399.497258603245, 14063.315279879009, 0.062, 0.968, 0.19, 192.0, 0.0, 0.0, 0.0, 0.0, 0.0, 0.0, 0.0, 0.0, 0.0, 1.7297105373081093E9, 0.0, 2024-10-24 00:38:57.308
227.0, -57926.80328211824, -58744.72066697129, -60125.76790163135, -65072.90185366892, -65681.94218658713, -56348.21132996218, -16044.059818274955, 14450.38043861156, 0.062, 0.968, 0.19, 192.0, 0.0, 0.0, 0.0, 0.0, 0.0, 0.0, 0.0, 0.0, 0.0, 1.72971053730818E9, 0.0, 2024-10-24 00:38:57.308
228.0, -57970.34448031718, -58760.32218460109, -60151.33829728822, -65080.47909503926, -65689.11709655728, -56343.6962775822, -15901.18746771663, 14590.83880076871, 0.062, 0.968, 0.19, 192.0, 0.0, 0.0, 0.0, 0.0, 0.0, 0.0, 0.0, 0.0, 0.0, 1.729710537310822E9, 0.0, 2024-10-24 00:38:57.310
229.0, -57966.99171864888, -58734.95295464432, -60137.88254712612, -65053.098208081516, -65663.0996660113, -56305.29598060799, -16244.040875916586, 14207.819307782569, 0.062, 0.968, 0.19, 192.0, 0.0, 0.0, 0.0, 0.0, 0.0, 0.0, 0.0, 0.0, 0.0, 1.7297105373138542E9, 0.0, 2024-10-24 00:38:57.313
230.0, -57949.42324750701, -58715.328123012565, -60120.425834706526, -65035.5520886841, -65639.83150003332, -56287.503992021564, -16577.953586334417, 13851.51014942052, 0.068, 0.9580000000000001, 0.192, 192.0, 2.0, 32.0, 29.0, 240.0, 6.0, 0.0, 0.0, 0.0, 0.0, 1.7297105373188207E9, 0.0, 2024-10-24 00:38:57.318
231.0, -57929.99958157535, -58716.91509686889, -60118.28006723882, -65046.3032777671, -65658.83048282034, -56314.5943063014, -16465.233739046304, 13997.332930246941, 0.068, 0.9580000000000001, 0.192, 192.0, 0.0, 0.0, 0.0, 0.0, 0.0, 0.0, 0.0, 0.0, 0.0, 1.72971053732293E9, 0.0, 2024-10-24 00:38:57.322
232.0, -57945.198767804955, -58743.51367277071, -60139.98361110492, -65069.77260944517, -65692.17928554765, -56341.259937436575, -16117.284133110541, 14378.474876698838, 0.068, 0.9580000000000001, 0.192, 192.0, 0.0, 0.0, 0.0, 0.0, 0.0, 0.0, 0.0, 0.0, 0.0, 1.7297105373268068E9, 0.0, 2024-10-24 00:38:57.326
233.0, -57990.86338172715, -58769.46404808332, -60165.66576548407, -65080.85907469501, -65692.93924485914, -56340.41057114727, -15961.894805657246, 14527.337494771184, 0.068, 0.9580000000000001, 0.192, 192.0, 0.0, 0.0, 0.0, 0.0, 0.0, 0.0, 0.0, 0.0, 0.0, 1.7297105373298244E9, 0.0, 2024-10-24 00:38:57.329
234.0, -57992.316245116745, -58758.84696946704, -60152.657050211084, -65061.055429107604, -65651.5438141279, -56310.32512311043, -16267.286690150106, 14180.304310358086, 0.068, 0.9580000000000001, 0.192, 192.0, 0.0, 0.0, 0.0, 0.0, 0.0, 0.0, 0.0, 0.0, 0.0, 1.729710537334892E9, 0.0, 2024-10-24 00:38:57.334
235.0, -57970.74681171737, -58740.987925647256, -60130.46176796696, -65040.983562586734, -65624.20763065906, -56285.22411408712, -16598.964226122407, 13828.890184031749, 0.068, 0.9580000000000001, 0.192, 192.0, 0.0, 0.0, 0.0, 0.0, 0.0, 0.0, 0.0, 0.0, 0.0, 1.7297105373389375E9, 0.0, 2024-10-24 00:38:57.338
236.0, -57940.1249218136, -58741.99375414774, -60124.11387254165, -65050.32659176906, -65650.6944478386, -56312.2920766225, -16494.291006838204, 13967.895682799302, 0.068, 0.9580000000000001, 0.192, 192.0, 0.0, 0.0, 0.0, 0.0, 0.0, 0.0, 0.0, 0.0, 0.0, 1.7297105373418417E9, 0.0, 2024-10-24 00:38:57.341
237.0, -57952.84306440867, -58768.83819923857, -60146.37621001914, -65076.0087461482, -65681.27163425347, -56337.773065301546, -16148.822444536978, 14345.595460605082, 0.068, 0.9580000000000001, 0.192, 192.0, 0.0, 0.0, 0.0, 0.0, 0.0, 0.0, 0.0, 0.0, 0.0, 1.7297105373469532E9, 0.0, 2024-10-24 00:38:57.346
238.0, -57998.19475390849, -58793.38041465049, -60173.824152210254, -65087.631653264965, -65697.52135247247, -56330.66521056476, -16008.49819284656, 14481.047032004242, 0.068, 0.9580000000000001, 0.192, 192.0, 0.0, 0.0, 0.0, 0.0, 0.0, 0.0, 0.0, 0.0, 0.0, 1.7297105373508883E9, 0.0, 2024-10-24 00:38:57.350
239.0, -58000.631094054115, -58780.416402866416, -60161.48598927093, -65068.051525122115, -65664.37371544525, -56304.0889864074, -16317.04167330762, 14132.449225479273, 0.068, 0.9580000000000001, 0.192, 192.0, 0.0, 0.0, 0.0, 0.0, 0.0, 0.0, 0.0, 0.0, 0.0, 1.7297105373539088E9, 0.0, 2024-10-24 00:38:57.353
240.0, -57966.70114597096, -58752.20850136382, -60125.83495686472, -65039.933030597334, -65606.86267696174, -56278.764459939535, -16670.869788035132, 13758.124561086246, 0.066, 0.96, 0.194, 192.0, 2.0, 16.0, 30.0, 0.0, 6.0, 16.0, 0.0, 0.0, 0.0, 1.729710537357886E9, 0.0, 2024-10-24 00:38:57.357
241.0, -57933.12882579909, -58753.281385097675, -60119.50941318386, -65051.44417899182, -65635.22704067553, -56305.49714630809, -16582.17806603647, 13879.203960800643, 0.066, 0.96, 0.194, 192.0, 0.0, 0.0, 0.0, 0.0, 0.0, 0.0, 0.0, 0.0, 0.0, 1.7297105373618598E9, 0.0, 2024-10-24 00:38:57.361
242.0, -57948.08214283969, -58773.95674871883, -60147.560852475275, -65077.03692639315, -65681.6516139092, -56337.75071355709, -16228.953448409255, 14263.385744498462, 0.066, 0.96, 0.194, 192.0, 0.0, 0.0, 0.0, 0.0, 0.0, 0.0, 0.0, 0.0, 0.0, 1.7297105373659353E9, 0.0, 2024-10-24 00:38:57.365
243.0, -57994.59612305118, -58794.78857455118, -60172.72891673195, -65087.31872884259, -65676.26484349548, -56340.14235021381, -16055.839187602902, 14433.437816314437, 0.066, 0.96, 0.194, 192.0, 0.0, 0.0, 0.0, 0.0, 0.0, 0.0, 0.0, 0.0, 0.0, 1.7297105373701055E9, 0.0, 2024-10-24 00:38:57.370
244.0, -57984.71665200194, -58770.134600416975, -60150.51128274337, -65060.54133898513, -65642.87133727924, -56305.65360851927, -16371.334060589561, 14078.536817853072, 0.066, 0.96, 0.194, 192.0, 0.0, 0.0, 0.0, 0.0, 0.0, 0.0, 0.0, 0.0, 0.0, 1.729710537373917E9, 0.0, 2024-10-24 00:38:57.373
245.0, -57956.82167492172, -58742.641954736944, -60128.15953828806, -65040.4024172309, -65626.33104638231, -56290.14149786729, -16707.16902103055, 13721.154775757168, 0.066, 0.96, 0.194, 192.0, 0.0, 0.0, 0.0, 0.0, 0.0, 0.0, 0.0, 0.0, 0.0, 1.7297105373789296E9, 0.0, 2024-10-24 00:38:57.378
246.0, -57930.245450764356, -58739.84798668003, -60130.1935470335, -65052.15943481439, -65658.8528345648, -56324.87610875084, -16597.71252843291, 13861.188454769666, 0.066, 0.96, 0.194, 192.0, 0.0, 0.0, 0.0, 0.0, 0.0, 0.0, 0.0, 0.0, 0.0, 1.7297105373818998E9, 0.0, 2024-10-24 00:38:57.381
247.0, -57943.41062824853, -58760.03161192317, -60157.686192713525, -65079.67443223888, -65698.61658795078, -56361.465914424174, -16224.505451262648, 14264.592738699048, 0.066, 0.96, 0.194, 192.0, 0.0, 0.0, 0.0, 0.0, 0.0, 0.0, 0.0, 0.0, 0.0, 1.7297105373861284E9, 0.0, 2024-10-24 00:38:57.386
248.0, -57974.59131176369, -58769.75462076123, -60174.248835354905, -65081.753144473216, -65691.57578844736, -56352.927548042244, -16067.79737088649, 14416.182269594941, 0.066, 0.96, 0.194, 192.0, 0.0, 0.0, 0.0, 0.0, 0.0, 0.0, 0.0, 0.0, 0.0, 1.7297105373899515E9, 0.0, 2024-10-24 00:38:57.389
249.0, -57962.387259291085, -58739.0656756241, -60153.03702986682, -65053.00880110369, -65653.08608449533, -56317.18710865821, -16409.28732267467, 14034.72739872067, 0.066, 0.96, 0.194, 192.0, 0.0, 0.0, 0.0, 0.0, 0.0, 0.0, 0.0, 0.0, 0.0, 1.7297105373941212E9, 0.0, 2024-10-24 00:38:57.394
250.0, -57939.99081134687, -58716.37865500196, -60133.009866834866, -65036.937896840325, -65633.12597669673, -56300.80327997247, -16741.143672602615, 13682.598016571763, 0.062, 0.962, 0.194, 192.0, 1.0, 240.0, 30.0, 16.0, 6.0, 16.0, 0.0, 0.0, 0.0, 1.729710537399918E9, 0.0, 2024-10-24 00:38:57.399
251.0, -57911.49233716635, -58715.57399220157, -60127.556041187774, -65046.526795211656, -65652.05790425038, -56322.64093430531, -16629.85433695964, 13828.666666587194, 0.062, 0.962, 0.194, 192.0, 0.0, 0.0, 0.0, 0.0, 0.0, 0.0, 0.0, 0.0, 0.0, 1.7297105374029312E9, 0.0, 2024-10-24 00:38:57.402
252.0, -57933.575860688194, -58744.02776289317, -60156.926233402046, -65078.75801071621, -65692.82748613686, -56361.28710046853, -16286.688004337313, 14206.38879613743, 0.062, 0.962, 0.194, 192.0, 0.0, 0.0, 0.0, 0.0, 0.0, 0.0, 0.0, 0.0, 0.0, 1.7297105374069912E9, 0.0, 2024-10-24 00:38:57.406
253.0, -57974.36779431913, -58758.57874853358, -60177.93687319003, -65085.30707184161, -65693.56509370389, -56352.63697536433, -16142.519252600581, 14347.383600161505, 0.062, 0.962, 0.194, 192.0, 0.0, 0.0, 0.0, 0.0, 0.0, 0.0, 0.0, 0.0, 0.0, 1.7297105374100068E9, 0.0, 2024-10-24 00:38:57.410
254.0, -57972.19967510697, -58734.37180928848, -60155.451018267995, -65055.3557342715, -65641.55258435638, -56306.65943701976, -16467.670079191932, 13984.145401018312, 0.062, 0.962, 0.194, 192.0, 0.0, 0.0, 0.0, 0.0, 0.0, 0.0, 0.0, 0.0, 0.0, 1.7297105374139795E9, 0.0, 2024-10-24 00:38:57.413
255.0, -57950.63024170759, -58710.90247761041, -60134.14980580209, -65032.42284446036, -65620.72075852404, -56285.35822455386, -16807.640112357156, 13625.846937399738, 0.062, 0.962, 0.194, 192.0, 0.0, 0.0, 0.0, 0.0, 0.0, 0.0, 0.0, 0.0, 0.0, 1.7297105374182239E9, 0.0, 2024-10-24 00:38:57.418
0.0, -57927.719703640905, -58717.29507652463, -60133.83688137971, -65044.49278646622, -65649.26393619346, -56314.01316094556, -16684.459648663957, 13783.516142787474, 0.062, 0.962, 0.194, 192.0, 0.0, 0.0, 0.0, 0.0, 0.0, 0.0, 0.0, 0.0, 0.0, 1.7297105374221075E9, 0.0, 2024-10-24 00:38:57.422
1.0, -57941.75659915884, -58749.05690539562, -60158.62496598065, -65071.3595833015, -65682.59038717633, -56347.0490392505, -16307.720995869757, 14192.240141897219, 0.062, 0.962, 0.194, 192.0, 0.0, 0.0, 0.0, 0.0, 0.0, 0.0, 0.0, 0.0, 0.0, 1.7297105374262116E9, 0.0, 2024-10-24 00:38:57.426
2.0, -57972.62435825162, -58763.74200150276, -60167.85623644069, -65068.87853966696, -65663.92668055615, -56330.62050707585, -16164.692183100247, 14331.603268576058, 0.062, 0.962, 0.194, 192.0, 0.0, 0.0, 0.0, 0.0, 0.0, 0.0, 0.0, 0.0, 0.0, 1.729710537433107E9, 0.0, 2024-10-24 00:38:57.433
3.0, -57963.90717791405, -58740.36207680251, -60142.196433806, -65035.5520886841, -65624.744072526, -56282.07251811893, -16486.669061978944, 13969.639118866817, 0.062, 0.962, 0.194, 192.0, 0.0, 0.0, 0.0, 0.0, 0.0, 0.0, 0.0, 0.0, 0.0, 1.729710537437112E9, 0.0, 2024-10-24 00:38:57.437
4.0, -57945.51169222733, -58726.32518128457, -60123.39861671909, -65018.2965419646, -65601.1853338701, -56263.744087665575, -16803.482687888467, 13633.044199114347, 0.07, 0.96, 0.194, 192.0, 2.0, 48.0, 30.0, 0.0, 6.0, 16.0, 0.0, 0.0, 0.0, 1.7297105374399805E9, 0.0, 2024-10-24 00:38:57.439
5.0, -57919.15898551452, -58734.30475405512, -60121.63282890712, -65031.9981613157, -65625.6381423042, -56297.38346307081, -16686.44895392048, 13786.421869566664, 0.07, 0.96, 0.194, 192.0, 0.0, 0.0, 0.0, 0.0, 0.0, 0.0, 0.0, 0.0, 0.0, 1.729710537443034E9, 0.0, 2024-10-24 00:38:57.443
6.0, -57931.38538973158, -58757.52821654418, -60141.883509383624, -65056.13804532743, -65654.91892754065, -56323.19972791669, -16342.410903264394, 14164.836903195013, 0.07, 0.96, 0.194, 192.0, 0.0, 0.0, 0.0, 0.0, 0.0, 0.0, 0.0, 0.0, 0.0, 1.7297105374470603E9, 0.0, 2024-10-24 00:38:57.447
7.0, -57973.96546291894, -58775.27550164169, -60164.21290209448, -65063.223548319766, -65655.72359034105, -56316.56125981346, -16208.278084788095, 14297.069823392609, 0.07, 0.96, 0.194, 192.0, 0.0, 0.0, 0.0, 0.0, 0.0, 0.0, 0.0, 0.0, 0.0, 1.729710537450416E9, 0.0, 2024-10-24 00:38:57.450
8.0, -57971.50677102885, -58752.70023974183, -60147.47144549745, -65036.06617880657, -65617.52445906693, -56280.26202681805, -16546.28116444125, 13922.074606665923, 0.07, 0.96, 0.194, 192.0, 0.0, 0.0, 0.0, 0.0, 0.0, 0.0, 0.0, 0.0, 0.0, 1.7297105374540176E9, 0.0, 2024-10-24 00:38:57.454
9.0, -57943.00829684833, -58734.50591975522, -60123.778596374825, -65020.26349547667, -65598.77134546892, -56266.76157316704, -16868.749781697963, 13582.037518267336, 0.07, 0.96, 0.194, 192.0, 0.0, 0.0, 0.0, 0.0, 0.0, 0.0, 0.0, 0.0, 0.0, 1.7297105374580932E9, 0.0, 2024-10-24 00:38:57.458
10.0, -57920.83536634867, -58741.79258844764, -60125.47732895343, -65040.290658508624, -65630.46611910655, -56302.50201255108, -16742.395370292114, 13743.506520212475, 0.07, 0.96, 0.194, 192.0, 0.0, 0.0, 0.0, 0.0, 0.0, 0.0, 0.0, 0.0, 0.0, 1.7297105374630542E9, 0.0, 2024-10-24 00:38:57.463
11.0, -57928.144386785556, -58764.39020209196, -60144.72218092945, -65067.358621044, -65659.52338689845, -56331.58163208743, -16382.95696770632, 14136.494891225684, 0.07, 0.96, 0.194, 192.0, 0.0, 0.0, 0.0, 0.0, 0.0, 0.0, 0.0, 0.0, 0.0, 1.7297105374670403E9, 0.0, 2024-10-24 00:38:57.467
12.0, -57967.66227098254, -58778.47180109881, -60162.313003815776, -65074.28766182515, -65661.66915436616, -56325.09962619539, -16235.346047323472, 14280.484829006771, 0.07, 0.96, 0.194, 192.0, 0.0, 0.0, 0.0, 0.0, 0.0, 0.0, 0.0, 0.0, 0.0, 1.7297105374711125E9, 0.0, 2024-10-24 00:38:57.471
13.0, -57961.64965172406, -58756.94707118834, -60146.219747807954, -65052.517062725674, -65640.18912794461, -56293.248390346576, -16569.19170250794, 13906.808365202949, 0.07, 0.96, 0.194, 192.0, 0.0, 0.0, 0.0, 0.0, 0.0, 0.0, 0.0, 0.0, 0.0, 1.7297105374741063E9, 0.0, 2024-10-24 00:38:57.474
14.0, -57933.88878511057, -58737.121073856484, -60125.43262546452, -65038.904850352395, -65620.96662771305, -56283.27951231951, -16893.716680254543, 13563.507922113888, 0.07, 0.962, 0.194, 192.0, 2.0, 48.0, 30.0, 16.0, 6.0, 16.0, 0.0, 0.0, 0.0, 1.7297105374782681E9, 0.0, 2024-10-24 00:38:57.478
15.0, -57910.106529010125, -58734.90825115541, -60117.38599746061, -65048.02436209016, -65629.50499409497, -56307.59821028689, -16775.252434641414, 13718.360807700254, 0.07, 0.962, 0.194, 192.0, 0.0, 0.0, 0.0, 0.0, 0.0, 0.0, 0.0, 0.0, 0.0, 1.7297105374821873E9, 0.0, 2024-10-24 00:38:57.482
16.0, -57926.57976467368, -58757.39410607745, -60140.52005297185, -65074.7123449698, -65666.09479976831, -56341.32699266994, -16419.859697802032, 14109.27046647912, 0.07, 0.962, 0.194, 192.0, 0.0, 0.0, 0.0, 0.0, 0.0, 0.0, 0.0, 0.0, 0.0, 1.7297105374881947E9, 0.0, 2024-10-24 00:38:57.488
17.0, -57967.68462272699, -58776.30368188664, -60163.497646271906, -65083.921263685384, -65670.18516900363, -56342.26576593707, -16286.79976305959, 14240.609316898504, 0.07, 0.962, 0.194, 192.0, 0.0, 0.0, 0.0, 0.0, 0.0, 0.0, 0.0, 0.0, 0.0, 1.7297105374921975E9, 0.0, 2024-10-24 00:38:57.492
18.0, -57960.37560229011, -58751.0685623966, -60145.41508500756, -65057.81442616158, -65640.47970062253, -56309.27459112103, -16633.788243983774, 13856.762809367516, 0.07, 0.962, 0.194, 192.0, 0.0, 0.0, 0.0, 0.0, 0.0, 0.0, 0.0, 0.0, 0.0, 1.7297105374950695E9, 0.0, 2024-10-24 00:38:57.495
19.0, -57930.29015425326, -58726.12401558447, -60119.06237829476, -65034.143928783415, -65610.99774968598, -56285.29116932049, -16946.109169257783, 13529.309753097266, 0.07, 0.962, 0.194, 192.0, 0.0, 0.0, 0.0, 0.0, 0.0, 0.0, 0.0, 0.0, 0.0, 1.7297105374990792E9, 0.0, 2024-10-24 00:38:57.499
20.0, -57898.46127014891, -58723.75473067221, -60105.807793832755, -65039.731864897236, -65620.89957247968, -56311.2415446331, -16828.829566100787, 13685.771964284417, 0.07, 0.962, 0.194, 192.0, 0.0, 0.0, 0.0, 0.0, 0.0, 0.0, 0.0, 0.0, 0.0, 1.729710537502126E9, 0.0, 2024-10-24 00:38:57.502
21.0, -57913.61575288961, -58744.00541114872, -60124.695017897495, -65059.40140001791, -65646.46996813655, -56335.71670481166, -16476.834294418608, 14071.943053238756, 0.07, 0.962, 0.194, 192.0, 0.0, 0.0, 0.0, 0.0, 0.0, 0.0, 0.0, 0.0, 0.0, 1.7297105375062125E9, 0.0, 2024-10-24 00:38:57.506
22.0, -57953.80418942025, -58755.42715256538, -60142.77757916183, -65058.261461050686, -65643.31837216835, -56320.69633253769, -16333.872536882465, 14210.076833972555, 0.07, 0.962, 0.194, 192.0, 0.0, 0.0, 0.0, 0.0, 0.0, 0.0, 0.0, 0.0, 0.0, 1.7297105375102768E9, 0.0, 2024-10-24 00:38:57.510
23.0, -57950.585538218686, -58732.024876120675, -60128.673628410535, -65032.71341713827, -65619.82668874583, -56289.06861413344, -16664.16426469854, 13840.244870215043, 0.07, 0.962, 0.194, 192.0, 0.0, 0.0, 0.0, 0.0, 0.0, 0.0, 0.0, 0.0, 0.0, 1.729710537514234E9, 0.0, 2024-10-24 00:38:57.514
24.0, -57931.40774147603, -58707.907343853396, -60111.14986075758, -65009.80287907158, -65606.05801416136, -56263.85584638785, -16976.26167252799, 13510.95897089946, 0.07, 0.962, 0.196, 192.0, 2.0, 48.0, 30.0, 16.0, 6.0, 32.0, 0.0, 0.0, 0.0, 1.7297105375192175E9, 0.0, 2024-10-24 00:38:57.519
25.0, -57911.157060999525, -58707.773233386666, -60109.47347992343, -65018.22948673124, -65628.05213070537, -56290.34266356739, -16840.653638917644, 13683.827362516806, 0.07, 0.962, 0.196, 192.0, 0.0, 0.0, 0.0, 0.0, 0.0, 0.0, 0.0, 0.0, 0.0, 1.7297105375222688E9, 0.0, 2024-10-24 00:38:57.522
26.0, -57921.438863448966, -58726.6604574514, -60125.23145976442, -65037.697856151804, -65647.20757570358, -56316.024817946534, -16505.243361621306, 14055.223948386187, 0.07, 0.962, 0.196, 192.0, 0.0, 0.0, 0.0, 0.0, 0.0, 0.0, 0.0, 0.0, 0.0, 1.7297105375251613E9, 0.0, 2024-10-24 00:38:57.525
27.0, -57964.37656454761, -58748.07342863959, -60143.51518672886, -65045.118635310966, -65631.42724411812, -56310.45923357717, -16357.8112551941, 14201.180839679342, 0.07, 0.962, 0.196, 192.0, 0.0, 0.0, 0.0, 0.0, 0.0, 0.0, 0.0, 0.0, 0.0, 1.7297105375301416E9, 0.0, 2024-10-24 00:38:57.530
28.0, -57962.811942435736, -58727.95685862981, -60131.02056157834, -65022.096338522, -65604.31457809384, -56275.12112559332, -16703.43627970651, 13818.45191937112, 0.07, 0.962, 0.196, 192.0, 0.0, 0.0, 0.0, 0.0, 0.0, 0.0, 0.0, 0.0, 0.0, 1.7297105375342047E9, 0.0, 2024-10-24 00:38:57.534
29.0, -57935.65457292254, -58705.1580792854, -60112.02157879133, -65004.639626102406, -65596.91615067913, -56258.75964865204, -17024.340274851354, 13480.80646762925, 0.07, 0.962, 0.196, 192.0, 0.0, 0.0, 0.0, 0.0, 0.0, 0.0, 0.0, 0.0, 0.0, 1.729710537538268E9, 0.0, 2024-10-24 00:38:57.538
30.0, -57913.05695927823, -58701.8053176171, -60104.60079963217, -65012.44038491731, -65614.73049101, -56280.55259949596, -16915.174354931638, 13625.869289144193, 0.07, 0.962, 0.196, 192.0, 0.0, 0.0, 0.0, 0.0, 0.0, 0.0, 0.0, 0.0, 0.0, 1.729710537542166E9, 0.0, 2024-10-24 00:38:57.542
31.0, -57920.07540703719, -58723.37475101647, -60118.70475038347, -65038.03313231863, -65637.30575290987, -56308.04524517599, -16555.378324434558, 14019.259991557597, 0.07, 0.962, 0.196, 192.0, 0.0, 0.0, 0.0, 0.0, 0.0, 0.0, 0.0, 0.0, 0.0, 1.7297105375464172E9, 0.0, 2024-10-24 00:38:57.546
32.0, -57964.220102336425, -58745.05594313812, -60140.18477680502, -65052.69587668132, -65635.91994475365, -56311.6438760333, -16399.609017325525, 14170.84952245349, 0.07, 0.962, 0.196, 192.0, 0.0, 0.0, 0.0, 0.0, 0.0, 0.0, 0.0, 0.0, 0.0, 1.7297105375513463E9, 0.0, 2024-10-24 00:38:57.551
33.0, -57958.38629703359, -58723.37475101647, -60116.46957593794, -65030.00885605918, -65597.87727569071, -56279.32325355092, -16727.50910848488, 13804.415023853187, 0.07, 0.962, 0.196, 192.0, 0.0, 0.0, 0.0, 0.0, 0.0, 0.0, 0.0, 0.0, 0.0, 1.729710537555216E9, 0.0, 2024-10-24 00:38:57.555
34.0, -57933.84408162166, -58703.19112577333, -60093.69314833798, -65012.82036457305, -65577.91716789213, -56262.29122427598, -17055.364496155322, 13459.23703422988, 0.062, 0.96, 0.19, 192.0, 1.0, 240.0, 30.0, 0.0, 5.0, 240.0, 0.0, 0.0, 0.0, 1.729710537559182E9, 0.0, 2024-10-24 00:38:57.559
35.0, -57910.71002611042, -58704.979265329755, -60088.619302346626, -65023.83977458951, -65605.76744148343, -56286.78873619899, -16942.644648867208, 13609.55251569182, 0.062, 0.96, 0.19, 192.0, 0.0, 0.0, 0.0, 0.0, 0.0, 0.0, 0.0, 0.0, 0.0, 1.7297105375621705E9, 0.0, 2024-10-24 00:38:57.562
36.0, -57929.261974008325, -58728.42624526337, -60114.92730557053, -65052.09237958102, -65642.87133727924, -56321.23277440462, -16580.09935380213, 14009.335817019442, 0.062, 0.96, 0.19, 192.0, 0.0, 0.0, 0.0, 0.0, 0.0, 0.0, 0.0, 0.0, 0.0, 1.7297105375672002E9, 0.0, 2024-10-24 00:38:57.567
37.0, -57967.774029704815, -58744.81007394911, -60130.75234064488, -65057.903833139404, -65636.63520057622, -56313.81199524546, -16442.43495970189, 14147.134321586409, 0.062, 0.96, 0.19, 192.0, 0.0, 0.0, 0.0, 0.0, 0.0, 0.0, 0.0, 0.0, 0.0, 1.7297105375711732E9, 0.0, 2024-10-24 00:38:57.571
38.0, -57954.631203965095, -58720.67018993738, -60104.42198567653, -65031.21585025977, -65601.63236875921, -56280.39613728478, -16761.59551877922, 13790.713404502083, 0.062, 0.96, 0.19, 192.0, 0.0, 0.0, 0.0, 0.0, 0.0, 0.0, 0.0, 0.0, 0.0, 1.72971053757422E9, 0.0, 2024-10-24 00:38:57.574
39.0, -57929.73136064188, -58699.23486700474, -60083.00901448834, -65011.59101862801, -65590.79177269839, -56261.3300992644, -17093.317758240435, 13441.959135765926, 0.062, 0.96, 0.19, 192.0, 0.0, 0.0, 0.0, 0.0, 0.0, 0.0, 0.0, 0.0, 0.0, 1.7297105375783515E9, 0.0, 2024-10-24 00:38:57.578
40.0, -57898.72949108238, -58696.53030592565, -60074.24713066187, -65017.80480358659, -65610.39425258568, -56281.93840765219, -16969.22087302457, 13606.110347045702, 0.062, 0.96, 0.19, 192.0, 0.0, 0.0, 0.0, 0.0, 0.0, 0.0, 0.0, 0.0, 0.0, 1.7297105375812309E9, 0.0, 2024-10-24 00:38:57.581
41.0, -57908.20663073142, -58714.88108812345, -60092.4861541374, -65039.530699197145, -65641.26201167847, -56314.41549234575, -16600.730013934375, 14010.453404242207, 0.062, 0.96, 0.19, 192.0, 0.0, 0.0, 0.0, 0.0, 0.0, 0.0, 0.0, 0.0, 0.0, 1.729710537586259E9, 0.0, 2024-10-24 00:38:57.586
42.0, -57947.635107950584, -58728.672114452376, -60112.69213112499, -65047.10794056749, -65637.57397384333, -56317.5447365695, -16448.380523727003, 14158.354897302974, 0.062, 0.96, 0.19, 192.0, 0.0, 0.0, 0.0, 0.0, 0.0, 0.0, 0.0, 0.0, 0.0, 1.7297105375904496E9, 0.0, 2024-10-24 00:38:57.590
43.0, -57933.240584521365, -58697.6031896595, -60090.005110502854, -65013.33445469552, -65601.90058969267, -56272.0812883474, -16780.348632377223, 13789.77463123496, 0.062, 0.96, 0.19, 192.0, 0.0, 0.0, 0.0, 0.0, 0.0, 0.0, 0.0, 0.0, 0.0, 1.7297105375942795E9, 0.0, 2024-10-24 00:38:57.594
44.0, -57908.09487200915, -58671.630462602436, -60070.76025852684, -64992.14500095189, -65586.65669997415, -56254.40105848325, -17112.85318289437, 13442.696743332952, 0.066, 0.962, 0.192, 192.0, 2.0, 16.0, 30.0, 16.0, 6.0, 0.0, 0.0, 0.0, 0.0, 1.7297105375982099E9, 0.0, 2024-10-24 00:38:57.598
45.0, -57885.899589765024, -58672.90451203639, -60068.88271199259, -65006.36071042546, -65606.86267696174, -56287.928675166215, -16994.657158214708, 13599.605989409209, 0.066, 0.962, 0.192, 192.0, 0.0, 0.0, 0.0, 0.0, 0.0, 0.0, 0.0, 0.0, 0.0, 1.7297105376023264E9, 0.0, 2024-10-24 00:38:57.602
46.0, -57891.152249712024, -58686.82964883205, -60079.097459208664, -65022.02928328863, -65621.97245621354, -56307.084120164414, -16655.067104705227, 13970.980223534134, 0.066, 0.962, 0.192, 192.0, 0.0, 0.0, 0.0, 0.0, 0.0, 0.0, 0.0, 0.0, 0.0, 1.7297105376063092E9, 0.0, 2024-10-24 00:38:57.606
47.0, -57934.358171744134, -58705.314541496584, -60099.95163678547, -65030.74646362621, -65620.29607537939, -56305.94418119719, -16510.294855868204, 14112.310303725042, 0.066, 0.962, 0.192, 192.0, 0.0, 0.0, 0.0, 0.0, 0.0, 0.0, 0.0, 0.0, 0.0, 1.7297105376093912E9, 0.0, 2024-10-24 00:38:57.609
48.0, -57935.967497344915, -58689.176581999855, -60087.70288082396, -65011.81453607256, -65596.80439195686, -56276.730451194104, -16833.925763836596, 13752.514273227964, 0.066, 0.962, 0.192, 192.0, 0.0, 0.0, 0.0, 0.0, 0.0, 0.0, 0.0, 0.0, 0.0, 1.7297105376142948E9, 0.0, 2024-10-24 00:38:57.614
49.0, -57919.047226792245, -58674.200913214794, -60075.38706962908, -65001.62214060094, -65589.16009535315, -56266.51570397803, -17132.992104648605, 13438.718132819908, 0.066, 0.962, 0.192, 192.0, 0.0, 0.0, 0.0, 0.0, 0.0, 0.0, 0.0, 0.0, 0.0, 1.7297105376183484E9, 0.0, 2024-10-24 00:38:57.618
50.0, -57892.471002634884, -58669.90937827938, -60065.99933695786, -65006.83009705903, -65594.92684542261, -56285.693500720685, -17015.89131544725, 13595.06858528478, 0.066, 0.962, 0.192, 192.0, 0.0, 0.0, 0.0, 0.0, 0.0, 0.0, 0.0, 0.0, 0.0, 1.7297105376223192E9, 0.0, 2024-10-24 00:38:57.622
51.0, -57904.36213068511, -58691.121183767464, -60083.07606972171, -65030.25472524819, -65625.10170043727, -56314.281381879024, -16683.051488763274, 13963.402982163785, 0.066, 0.962, 0.192, 192.0, 0.0, 0.0, 0.0, 0.0, 0.0, 0.0, 0.0, 0.0, 0.0, 1.7297105376263022E9, 0.0, 2024-10-24 00:38:57.626
52.0, -57946.65163119455, -58712.19887878882, -60104.779613587816, -65038.16724278537, -65624.02881670342, -56303.48548930711, -16552.651411611012, 14092.976044771201, 0.066, 0.962, 0.192, 192.0, 0.0, 0.0, 0.0, 0.0, 0.0, 0.0, 0.0, 0.0, 0.0, 1.7297105376303442E9, 0.0, 2024-10-24 00:38:57.630
53.0, -57942.44950323695, -58693.62457914646, -60086.67470057902, -65013.49091690671, -65581.20287432705, -56266.80627665595, -16866.693421208074, 13742.321877756343, 0.066, 0.962, 0.192, 192.0, 0.0, 0.0, 0.0, 0.0, 0.0, 0.0, 0.0, 0.0, 0.0, 1.7297105376433208E9, 0.0, 2024-10-24 00:38:57.643
54.0, -57917.66141863602, -58673.50800913668, -60067.005165458344, -64996.14596320939, -65570.29522303287, -56249.26015725853, -17180.578968593953, 13413.08068192967, 0.066, 0.96, 0.188, 192.0, 2.0, 16.0, 30.0, 0.0, 5.0, 224.0, 0.0, 0.0, 0.0, 1.7297105376463027E9, 0.0, 2024-10-24 00:38:57.646
55.0, -57892.560409612706, -58674.04445100361, -60065.52995032429, -65005.17606796933, -65595.19506635607, -56270.89664589127, -17054.85040603285, 13577.768335076373, 0.066, 0.96, 0.188, 192.0, 0.0, 0.0, 0.0, 0.0, 0.0, 0.0, 0.0, 0.0, 0.0, 1.7297105376492853E9, 0.0, 2024-10-24 00:38:57.649
56.0, -57899.98118877187, -58689.53420991114, -60075.8788080071, -65021.60460014398, -65604.73926123849, -56293.36014906885, -16722.055282837784, 13947.063856966955, 0.066, 0.96, 0.188, 192.0, 0.0, 0.0, 0.0, 0.0, 0.0, 0.0, 0.0, 0.0, 0.0, 1.7297105376533043E9, 0.0, 2024-10-24 00:38:57.653
57.0, -57945.66815443852, -58710.634256676945, -60100.06339550774, -65032.892231093916, -65612.07063341983, -56294.16481186925, -16583.653281170522, 14083.029518488589, 0.066, 0.96, 0.188, 192.0, 0.0, 0.0, 0.0, 0.0, 0.0, 0.0, 0.0, 0.0, 0.0, 1.729710537656288E9, 0.0, 2024-10-24 00:38:57.656
58.0, -57940.437846235975, -58688.394270943914, -60086.54059011229, -65010.786355827615, -65585.226188329, -56265.532227222, -16905.786622260406, 13725.736883370506, 0.066, 0.96, 0.188, 192.0, 0.0, 0.0, 0.0, 0.0, 0.0, 0.0, 0.0, 0.0, 0.0, 1.7297105376593328E9, 0.0, 2024-10-24 00:38:57.659
59.0, -57921.1706425155, -58669.28352943463, -60070.179113171, -64995.78833529811, -65567.23303404248, -56254.736334650086, -17222.51084119211, 13393.277036342268, 0.066, 0.96, 0.188, 192.0, 0.0, 0.0, 0.0, 0.0, 0.0, 0.0, 0.0, 0.0, 0.0, 1.729710537663314E9, 0.0, 2024-10-24 00:38:57.663
60.0, -57891.711043323405, -58671.29518643561, -60067.67571779201, -65004.997254013695, -65600.26891234743, -56274.8305529154, -17086.723993626118, 13568.87234078316, 0.066, 0.96, 0.188, 192.0, 0.0, 0.0, 0.0, 0.0, 0.0, 0.0, 0.0, 0.0, 0.0, 1.7297105376662972E9, 0.0, 2024-10-24 00:38:57.666
61.0, -57898.48362189336, -58686.13674475393, -60081.04206097628, -65018.63181813143, -65622.55360156937, -56287.39223329929, -16735.913364400072, 13956.473941382641, 0.066, 0.96, 0.188, 192.0, 0.0, 0.0, 0.0, 0.0, 0.0, 0.0, 0.0, 0.0, 0.0, 1.729710537669314E9, 0.0, 2024-10-24 00:38:57.669
62.0, -57932.681790909985, -58699.63719840493, -60095.79421231678, -65019.615294887466, -65611.57889504182, -56283.592436741885, -16584.770868393287, 14105.515373410628, 0.066, 0.96, 0.188, 192.0, 0.0, 0.0, 0.0, 0.0, 0.0, 0.0, 0.0, 0.0, 0.0, 1.729710537673504E9, 0.0, 2024-10-24 00:38:57.673
63.0, -57919.069578536706, -58678.29128245012, -60073.68833705048, -64993.28493991911, -65560.88513861717, -56254.55752069444, -16910.122860684736, 13743.305354512377, 0.066, 0.96, 0.188, 192.0, 0.0, 0.0, 0.0, 0.0, 0.0, 0.0, 0.0, 0.0, 0.0, 1.7297105376763673E9, 0.0, 2024-10-24 00:38:57.676
64.0, -57894.728528824875, -58662.37684039794, -60057.729191509396, -64981.86319850245, -65556.79476938186, -56244.18631126718, -17226.534155194066, 13411.180783650969, 0.068, 0.96, 0.186, 192.0, 2.0, 32.0, 30.0, 0.0, 5.0, 208.0, 0.0, 0.0, 0.0, 1.7297105376793349E9, 0.0, 2024-10-24 00:38:57.679
65.0, -57867.191179655936, -58665.03669798812, -60054.3764298411, -64996.66005333186, -65587.6848802191, -56273.780020926, -17090.90376983926, 13583.266864212379, 0.068, 0.96, 0.186, 192.0, 0.0, 0.0, 0.0, 0.0, 0.0, 0.0, 0.0, 0.0, 0.0, 1.7297105376824555E9, 0.0, 2024-10-24 00:38:57.682
66.0, -57874.47784834837, -58684.70623310879, -60069.06152594824, -65020.26349547667, -65616.49627882199, -56303.440785818195, -16746.753960460897, 13962.106580985377, 0.068, 0.96, 0.186, 192.0, 0.0, 0.0, 0.0, 0.0, 0.0, 0.0, 0.0, 0.0, 0.0, 1.729710537686401E9, 0.0, 2024-10-24 00:38:57.686
67.0, -57914.710988367915, -58702.18529727284, -60086.07120347872, -65031.59582991551, -65617.77032825594, -56303.08315790691, -16617.784394953775, 14088.103364479945, 0.068, 0.96, 0.186, 192.0, 0.0, 0.0, 0.0, 0.0, 0.0, 0.0, 0.0, 0.0, 0.0, 1.729710537689412E9, 0.0, 2024-10-24 00:38:57.689
68.0, -57911.849965077636, -58680.68291910684, -60068.88271199259, -65012.52979189513, -65586.09790636276, -56273.71296569264, -16934.150985974193, 13736.510424197964, 0.068, 0.96, 0.186, 192.0, 0.0, 0.0, 0.0, 0.0, 0.0, 0.0, 0.0, 0.0, 0.0, 1.72971053769344E9, 0.0, 2024-10-24 00:38:57.693
69.0, -57887.2630461768, -58658.487636862716, -60050.55428153924, -64995.117782964444, -65569.49056023247, -56253.37287823831, -17259.70414396574, 13397.054481155215, 0.068, 0.96, 0.186, 192.0, 0.0, 0.0, 0.0, 0.0, 0.0, 0.0, 0.0, 0.0, 0.0, 1.7297105376974165E9, 0.0, 2024-10-24 00:38:57.697
70.0, -57869.24754014582, -58658.26411941816, -60055.29285136377, -65007.03126275913, -65601.34179608128, -56280.61965472933, -17140.703456485684, 13554.410762120577, 0.068, 0.96, 0.186, 192.0, 0.0, 0.0, 0.0, 0.0, 0.0, 0.0, 0.0, 0.0, 0.0, 1.7297105377024906E9, 0.0, 2024-10-24 00:38:57.702
71.0, -57885.139630453545, -58677.75484058319, -60075.99056672938, -65032.86987934946, -65621.97245621354, -56314.370788856846, -16765.08239091425, 13962.352450174387, 0.068, 0.96, 0.186, 192.0, 0.0, 0.0, 0.0, 0.0, 0.0, 0.0, 0.0, 0.0, 0.0, 1.7297105377094715E9, 0.0, 2024-10-24 00:38:57.709
72.0, -57926.2221367624, -58692.104660523495, -60092.62026460413, -65038.413111974376, -65607.53322929541, -56309.319294609944, -16625.741615979867, 14097.088765750977, 0.068, 0.96, 0.186, 192.0, 0.0, 0.0, 0.0, 0.0, 0.0, 0.0, 0.0, 0.0, 0.0, 1.7297105377123961E9, 0.0, 2024-10-24 00:38:57.712
73.0, -57921.908250082524, -58672.43512540283, -60077.577540585706, -65017.4471756753, -65583.75097319495, -56278.54094249498, -16940.25301221049, 13744.981735346526, 0.068, 0.96, 0.186, 192.0, 0.0, 0.0, 0.0, 0.0, 0.0, 0.0, 0.0, 0.0, 0.0, 1.7297105377155013E9, 0.0, 2024-10-24 00:38:57.715
74.0, -57897.00840675931, -58649.21166291376, -60060.41140084403, -64998.001157999184, -65569.55761546583, -56258.8267038854, -17259.726495710194, 13409.102071416626, 0.068, 0.96, 0.186, 192.0, 0.0, 0.0, 0.0, 0.0, 0.0, 0.0, 0.0, 0.0, 0.0, 1.729710537719472E9, 0.0, 2024-10-24 00:38:57.719
75.0, -57877.74120303884, -58653.92788099383, -60063.56299681223, -65010.38402442742, -65605.78979322789, -56286.609922243355, -17139.094130884903, 13566.145427959613, 0.062, 0.96, 0.184, 192.0, 1.0, 240.0, 30.0, 0.0, 5.0, 192.0, 0.0, 0.0, 0.0, 1.7297105377223983E9, 0.0, 2024-10-24 00:38:57.722
76.0, -57889.65468283352, -58675.98905277122, -60080.81854353173, -65032.22167876026, -65615.89278172169, -56313.11909116735, -16776.884111986652, 13961.816008307458, 0.062, 0.96, 0.184, 192.0, 0.0, 0.0, 0.0, 0.0, 0.0, 0.0, 0.0, 0.0, 0.0, 1.7297105377274032E9, 0.0, 2024-10-24 00:38:57.727
77.0, -57932.01123857633, -58695.256256491695, -60096.42006116153, -65036.177937528846, -65597.22907510151, -56303.50784105156, -16641.991334198872, 14093.288969193574, 0.062, 0.96, 0.184, 192.0, 0.0, 0.0, 0.0, 0.0, 0.0, 0.0, 0.0, 0.0, 0.0, 1.7297105377314343E9, 0.0, 2024-10-24 00:38:57.731
78.0, -57920.388331459566, -58670.22230270175, -60072.23547366089, -65004.48316389122, -65561.42158048411, -56262.335927764885, -16964.437599711135, 13734.521118941442, 0.062, 0.96, 0.184, 192.0, 0.0, 0.0, 0.0, 0.0, 0.0, 0.0, 0.0, 0.0, 0.0, 1.7297105377356308E9, 0.0, 2024-10-24 00:38:57.735
79.0, -57895.64495034754, -58646.08241869002, -60051.2248338729, -64980.36563162394, -65543.29431573085, -56233.949212306645, -17288.694356524273, 13394.50638228731, 0.062, 0.96, 0.184, 192.0, 0.0, 0.0, 0.0, 0.0, 0.0, 0.0, 0.0, 0.0, 0.0, 1.729710537748989E9, 0.0, 2024-10-24 00:38:57.748
80.0, -57880.98220598486, -58654.911357749865, -60060.9254909665, -64997.777640554625, -65592.35639481025, -56262.67120393172, -17157.802540993995, 13565.564282603775, 0.062, 0.96, 0.184, 192.0, 0.0, 0.0, 0.0, 0.0, 0.0, 0.0, 0.0, 0.0, 0.0, 1.7297105377514553E9, 0.0, 2024-10-24 00:38:57.751
81.0, -57891.55458111222, -58675.65377660439, -60080.34915689816, -65018.85533557598, -65614.59638054328, -56288.621579244325, -16807.818926312797, 13951.08717096891, 0.062, 0.96, 0.184, 192.0, 0.0, 0.0, 0.0, 0.0, 0.0, 0.0, 0.0, 0.0, 0.0, 1.7297105377554457E9, 0.0, 2024-10-24 00:38:57.755
82.0, -57929.5748984307, -58693.356358212994, -60094.31899718273, -65025.22558274575, -65595.10565937826, -56288.062785632945, -16675.608357859655, 14080.906102765335, 0.062, 0.96, 0.184, 192.0, 0.0, 0.0, 0.0, 0.0, 0.0, 0.0, 0.0, 0.0, 0.0, 1.7297105377591724E9, 0.0, 2024-10-24 00:38:57.759
83.0, -57923.62933440559, -58673.46330564777, -60072.66015680554, -65001.0409952451, -65555.90069960365, -56256.85975037334, -16998.59106523884, 13720.685389123606, 0.062, 0.96, 0.184, 192.0, 0.0, 0.0, 0.0, 0.0, 0.0, 0.0, 0.0, 0.0, 0.0, 1.7297105377617247E9, 0.0, 2024-10-24 00:38:57.761
84.0, -57902.2163632174, -58651.13391293692, -60055.762237997325, -64983.76309678115, -65547.40703671063, -56236.27379373, -17305.301702654568, 13396.249818354825, 0.062, 0.96, 0.184, 192.0, 0.0, 0.0, 0.0, 0.0, 0.0, 0.0, 0.0, 0.0, 0.0, 1.7297105377654767E9, 0.0, 2024-10-24 00:38:57.765
85.0, -57881.853924018615, -58651.424485614836, -60056.58925254217, -64994.76015505316, -65574.29618529037, -56262.335927764885, -17186.770401808073, 13551.058000452282, 0.058, 0.9560000000000001, 0.182, 192.0, 1.0, 208.0, 29.0, 224.0, 5.0, 176.0, 0.0, 0.0, 0.0, 1.729710537770594E9, 0.0, 2024-10-24 00:38:57.770
86.0, -57891.17460145648, -58665.7966572996, -60075.99056672938, -65013.379158184434, -65599.82187745832, -56291.12497462332, -16835.445682459555, 13936.558537072962, 0.058, 0.9560000000000001, 0.182, 192.0, 0.0, 0.0, 0.0, 0.0, 0.0, 0.0, 0.0, 0.0, 0.0, 1.7297105377714891E9, 0.0, 2024-10-24 00:38:57.771
87.0, -57928.74788388585, -58679.67709060635, -60097.18002047301, -65019.10120476499, -65600.00069141397, -56289.71681472264, -16702.38574771711, 14066.578634569483, 0.058, 0.9560000000000001, 0.182, 192.0, 0.0, 0.0, 0.0, 0.0, 0.0, 0.0, 0.0, 0.0, 0.0, 1.7297105377755475E9, 0.0, 2024-10-24 00:38:57.775
88.0, -57918.19786050294, -58656.811256028566, -60084.97596800041, -64996.48123937622, -65570.71990617752, -56260.0784015749, -17012.382091567768, 13722.540583913396, 0.058, 0.9560000000000001, 0.182, 192.0, 0.0, 0.0, 0.0, 0.0, 0.0, 0.0, 0.0, 0.0, 0.0, 1.729710537778594E9, 0.0, 2024-10-24 00:38:57.778
89.0, -57884.64789207553, -58630.14562489338, -60068.99447071487, -64977.10227693347, -65544.52366167589, -56242.8228548554, -17331.363836689456, 13390.84069619664, 0.058, 0.9560000000000001, 0.182, 192.0, 0.0, 0.0, 0.0, 0.0, 0.0, 0.0, 0.0, 0.0, 0.0, 1.729710537781476E9, 0.0, 2024-10-24 00:38:57.781
90.0, -57862.698479020415, -58634.21364238425, -60082.98666274389, -64995.698928320286, -65592.04347038787, -56278.51859075053, -17209.658588130307, 13551.616794063664, 0.058, 0.9560000000000001, 0.182, 192.0, 0.0, 0.0, 0.0, 0.0, 0.0, 0.0, 0.0, 0.0, 0.0, 1.7297105377844808E9, 0.0, 2024-10-24 00:38:57.784
91.0, -57873.11439193659, -58653.70436354928, -60104.75726184336, -65018.85533557598, -65615.64691253268, -56308.17935564272, -16865.352316540757, 13929.741255014093, 0.058, 0.9560000000000001, 0.182, 192.0, 0.0, 0.0, 0.0, 0.0, 0.0, 0.0, 0.0, 0.0, 0.0, 1.7297105377886927E9, 0.0, 2024-10-24 00:38:57.788
92.0, -57913.05695927823, -58666.89189277791, -60120.13526202861, -65023.504498422684, -65613.85877297625, -56304.11133815186, -16751.716047729977, 14039.913003434302, 0.058, 0.9560000000000001, 0.182, 192.0, 0.0, 0.0, 0.0, 0.0, 0.0, 0.0, 0.0, 0.0, 0.0, 1.729710537792403E9, 0.0, 2024-10-24 00:38:57.792
93.0, -57917.594363402655, -58647.93761347981, -60108.9370380565, -65006.62893135893, -65586.0308511294, -56280.597302984876, -17065.355725926845, 13690.75640329795, 0.058, 0.9560000000000001, 0.182, 192.0, 0.0, 0.0, 0.0, 0.0, 0.0, 0.0, 0.0, 0.0, 0.0, 1.729710537795503E9, 0.0, 2024-10-24 00:38:57.795
94.0, -57896.36020617011, -58623.238935856694, -60086.02649998981, -64988.501666605676, -65554.06785655831, -56263.78879115448, -17378.48131400124, 13361.895187127016, 0.058, 0.9560000000000001, 0.182, 192.0, 0.0, 0.0, 0.0, 0.0, 0.0, 0.0, 0.0, 0.0, 0.0, 1.7297105377987175E9, 0.0, 2024-10-24 00:38:57.798
95.0, -57867.526455822765, -58614.588810752495, -60077.89046500808, -64990.178047439826, -65571.18929281108, -56273.57885522591, -17242.962687368716, 13535.277668866835, 0.066, 0.9560000000000001, 0.188, 192.0, 2.0, 16.0, 29.0, 224.0, 5.0, 224.0, 0.0, 0.0, 0.0, 1.7297105378027172E9, 0.0, 2024-10-24 00:38:57.802
96.0, -57877.540037338746, -58629.87740395992, -60093.581389615705, -65006.38306216992, -65594.61392100024, -56294.67890199172, -16904.378462359724, 13908.84237394838, 0.066, 0.9560000000000001, 0.188, 192.0, 0.0, 0.0, 0.0, 0.0, 0.0, 0.0, 0.0, 0.0, 0.0, 1.7297105378069558E9, 0.0, 2024-10-24 00:38:57.806
97.0, -57921.88589833807, -58649.30106989158, -60115.84372709319, -65014.094414007, -65589.87535117571, -56292.66724499074, -16771.117361917182, 14038.415436555797, 0.066, 0.9560000000000001, 0.188, 192.0, 0.0, 0.0, 0.0, 0.0, 0.0, 0.0, 0.0, 0.0, 0.0, 1.7297105378115265E9, 0.0, 2024-10-24 00:38:57.811
98.0, -57919.829537848185, -58628.67040975934, -60101.538610641794, -64991.76502129615, -65561.6227461842, -56262.626500442806, -17084.846447091873, 13690.152906197656, 0.066, 0.9560000000000001, 0.188, 192.0, 0.0, 0.0, 0.0, 0.0, 0.0, 0.0, 0.0, 0.0, 0.0, 1.7297105378150353E9, 0.0, 2024-10-24 00:38:57.815
99.0, -57895.30967418071, -58607.01156938214, -60080.147991198064, -64971.96137570875, -65536.52173716089, -56244.20866301163, -17380.850598913505, 13379.687175713441, 0.066, 0.9560000000000001, 0.188, 192.0, 0.0, 0.0, 0.0, 0.0, 0.0, 0.0, 0.0, 0.0, 0.0, 1.729710537819638E9, 0.0, 2024-10-24 00:38:57.819
100.0, -57871.862694247095, -58610.811365939546, -60076.50465685185, -64983.20430316977, -65561.10865606173, -56271.65660520275, -17246.404856014833, 13550.007468462882, 0.066, 0.9560000000000001, 0.188, 192.0, 0.0, 0.0, 0.0, 0.0, 0.0, 0.0, 0.0, 0.0, 0.0, 1.7297105378239827E9, 0.0, 2024-10-24 00:38:57.823
101.0, -57886.14545895404, -58631.79965398308, -60097.51529663984, -65005.46664064725, -65593.51868552192, -56297.94225668219, -16897.96351170105, 13932.021132948536, 0.066, 0.9560000000000001, 0.188, 192.0, 0.0, 0.0, 0.0, 0.0, 0.0, 0.0, 0.0, 0.0, 0.0, 1.7297105378287168E9, 0.0, 2024-10-24 00:38:57.828
102.0, -57929.060808308226, -58649.21166291376, -60113.452090436476, -65009.4452511603, -65576.75487718044, -56282.273683819025, -16757.84042571073, 14068.791457270558, 0.066, 0.9560000000000001, 0.188, 192.0, 0.0, 0.0, 0.0, 0.0, 0.0, 0.0, 0.0, 0.0, 0.0, 1.7297105378316352E9, 0.0, 2024-10-24 00:38:57.831
103.0, -57924.70221813944, -58629.475072559726, -60094.766032071835, -64985.215960170746, -65536.90171681663, -56244.14160777827, -17069.28963295098, 13721.601810646274, 0.066, 0.9560000000000001, 0.188, 192.0, 0.0, 0.0, 0.0, 0.0, 0.0, 0.0, 0.0, 0.0, 0.0, 1.7297105378413124E9, 0.0, 2024-10-24 00:38:57.841
104.0, -57902.23871496186, -58608.26326707164, -60075.409421373544, -64965.09939016097, -65516.33811191775, -56221.92397378969, -17402.710604990792, 13372.087582598637, 0.066, 0.9560000000000001, 0.188, 192.0, 0.0, 0.0, 0.0, 0.0, 0.0, 0.0, 0.0, 0.0, 0.0, 1.729710537844585E9, 0.0, 2024-10-24 00:38:57.844
105.0, -57876.22128441588, -58612.353636306965, -60073.308357394744, -64977.77282926713, -65545.19421400955, -56247.96375608013, -17288.761411757638, 13523.051264649781, 0.068, 0.964, 0.19, 192.0, 2.0, 32.0, 30.0, 32.0, 5.0, 240.0, 0.0, 0.0, 0.0, 1.729710537847602E9, 0.0, 2024-10-24 00:38:57.847
106.0, -57888.98413049986, -58638.773398253135, -60094.207238460454, -65003.589094113006, -65575.03379285739, -56278.42918377271, -16927.579573104333, 13916.509022296552, 0.068, 0.964, 0.19, 192.0, 0.0, 0.0, 0.0, 0.0, 0.0, 0.0, 0.0, 0.0, 0.0, 1.7297105378506224E9, 0.0, 2024-10-24 00:38:57.850
107.0, -57930.75954088683, -58662.71211656477, -60116.290761982294, -65013.20034422879, -65566.07074333081, -56277.62452097232, -16794.966673250994, 14044.87509070338, 0.068, 0.964, 0.19, 192.0, 0.0, 0.0, 0.0, 0.0, 0.0, 0.0, 0.0, 0.0, 0.0, 1.729710537854588E9, 0.0, 2024-10-24 00:38:57.854
108.0, -57925.23866000637, -58641.32149712104, -60099.035215262804, -64987.495838105184, -65529.74915859094, -56245.19213976767, -17121.637418465307, 13683.223865416512, 0.068, 0.964, 0.19, 192.0, 0.0, 0.0, 0.0, 0.0, 0.0, 0.0, 0.0, 0.0, 0.0, 1.7297105378576808E9, 0.0, 2024-10-24 00:38:57.857
109.0, -57898.79654631574, -58616.89104043139, -60079.16451444203, -64966.753419250665, -65516.40516715112, -56224.98616278007, -17424.54825932363, 13367.036088351739, 0.068, 0.964, 0.19, 192.0, 0.0, 0.0, 0.0, 0.0, 0.0, 0.0, 0.0, 0.0, 0.0, 1.7297105378606255E9, 0.0, 2024-10-24 00:38:57.860
110.0, -57873.27085414778, -58617.11455787594, -60076.97404348541, -64977.929291478315, -65541.50617617443, -56248.18727352468, -17292.069469937025, 13537.91517471256, 0.068, 0.964, 0.19, 192.0, 0.0, 0.0, 0.0, 0.0, 0.0, 0.0, 0.0, 0.0, 0.0, 1.729710537864968E9, 0.0, 2024-10-24 00:38:57.864
111.0, -57878.925845494974, -58633.27486911713, -60093.17905821551, -64997.2411986877, -65564.70728691903, -56273.534151736996, -16939.291887198913, 13923.840394477893, 0.068, 0.964, 0.19, 192.0, 0.0, 0.0, 0.0, 0.0, 0.0, 0.0, 0.0, 0.0, 0.0, 1.7297105378675992E9, 0.0, 2024-10-24 00:38:57.867
112.0, -57920.94712507095, -58647.311764635066, -60118.41417770555, -65007.12066973695, -65569.49056023247, -56276.01519537153, -16804.17559196658, 14054.888672219358, 0.068, 0.964, 0.19, 192.0, 0.0, 0.0, 0.0, 0.0, 0.0, 0.0, 0.0, 0.0, 0.0, 1.7297105378705833E9, 0.0, 2024-10-24 00:38:57.870
113.0, -57909.07834876518, -58617.76275846515, -60098.52112514033, -64980.924425235324, -65531.73846384746, -56244.83451185638, -17126.375988289834, 13695.763194055939, 0.068, 0.964, 0.19, 192.0, 0.0, 0.0, 0.0, 0.0, 0.0, 0.0, 0.0, 0.0, 0.0, 1.7297105378736336E9, 0.0, 2024-10-24 00:38:57.873
114.0, -57880.825743773676, -58594.74046167618, -60074.04596496177, -64965.72523900572, -65511.37602464867, -56234.53035766249, -17433.466605361296, 13370.92529188696, 0.068, 0.964, 0.19, 192.0, 0.0, 0.0, 0.0, 0.0, 0.0, 0.0, 0.0, 0.0, 0.0, 1.7297105378786483E9, 0.0, 2024-10-24 00:38:57.878
115.0, -57856.46234231739, -58597.176801821806, -60072.16841842752, -64979.471561845734, -65539.20394649553, -56260.458381230645, -17287.085030923492, 13552.53321558633, 0.062, 0.962, 0.19, 192.0, 1.0, 240.0, 30.0, 16.0, 5.0, 240.0, 0.0, 0.0, 0.0, 1.7297105378825867E9, 0.0, 2024-10-24 00:38:57.882
116.0, -57867.97349071187, -58615.12525261942, -60091.636787848096, -64999.58813185551, -65573.67033644562, -56283.79360244198, -16929.68063708313, 13941.028885964024, 0.062, 0.962, 0.19, 192.0, 0.0, 0.0, 0.0, 0.0, 0.0, 0.0, 0.0, 0.0, 0.0, 1.7297105378856072E9, 0.0, 2024-10-24 00:38:57.885
117.0, -57905.345607441144, -58633.1407586504, -60111.194564246485, -65007.67946334833, -65585.53911275139, -56286.252294332066, -16791.23393192696, 14073.775896284093, 0.062, 0.962, 0.19, 192.0, 0.0, 0.0, 0.0, 0.0, 0.0, 0.0, 0.0, 0.0, 0.0, 1.7297105378896294E9, 0.0, 2024-10-24 00:38:57.889
118.0, -57901.54581088374, -58608.30797056055, -60092.15087797057, -64981.68438454681, -65550.82685361229, -56252.836436371384, -17112.875534638828, 13716.013874532448, 0.062, 0.962, 0.19, 192.0, 0.0, 0.0, 0.0, 0.0, 0.0, 0.0, 0.0, 0.0, 0.0, 1.7297105378936143E9, 0.0, 2024-10-24 00:38:57.893
119.0, -57871.393307613536, -58579.78714463558, -60057.95270895395, -64955.1305121339, -65497.6073500642, -56227.869537814804, -17419.697930776827, 13393.344091575635, 0.062, 0.962, 0.19, 192.0, 0.0, 0.0, 0.0, 0.0, 0.0, 0.0, 0.0, 0.0, 0.0, 1.7297105378976657E9, 0.0, 2024-10-24 00:38:57.897
120.0, -57842.984240410835, -58573.72982188819, -60049.01201117182, -64959.51145404714, -65518.34976891873, -56247.80729386894, -17279.99952793116, 13567.665346582575, 0.062, 0.962, 0.19, 192.0, 0.0, 0.0, 0.0, 0.0, 0.0, 0.0, 0.0, 0.0, 0.0, 1.7297105379016595E9, 0.0, 2024-10-24 00:38:57.901
121.0, -57856.5070458063, -58595.6792349433, -60071.341403882674, -64983.00313746967, -65550.60333616774, -56277.46805876113, -16930.038264994415, 13951.042467480002, 0.062, 0.962, 0.19, 192.0, 0.0, 0.0, 0.0, 0.0, 0.0, 0.0, 0.0, 0.0, 0.0, 1.7297105379066849E9, 0.0, 2024-10-24 00:38:57.906
122.0, -57900.45057540543, -58616.9357439203, -60094.56486637174, -64990.33450965101, -65554.13491179168, -56271.72366043612, -16814.03271127137, 14064.522274079594, 0.062, 0.962, 0.19, 192.0, 0.0, 0.0, 0.0, 0.0, 0.0, 0.0, 0.0, 0.0, 0.0, 1.7297105379106529E9, 0.0, 2024-10-24 00:38:57.910
123.0, -57901.143479483544, -58603.949380391765, -60082.91960751052, -64969.90501521886, -65524.49649864394, -56240.878253087794, -17126.152470845278, 13718.517269911441, 0.062, 0.962, 0.19, 192.0, 0.0, 0.0, 0.0, 0.0, 0.0, 0.0, 0.0, 0.0, 0.0, 1.7297105379136417E9, 0.0, 2024-10-24 00:38:57.913
124.0, -57873.3602611256, -58575.719127144715, -60057.50567406484, -64942.79234919457, -65491.79589650583, -56215.39726440874, -17441.31206766511, 13386.88443742805, 0.062, 0.962, 0.19, 192.0, 0.0, 0.0, 0.0, 0.0, 0.0, 0.0, 0.0, 0.0, 0.0, 1.7297105379176495E9, 0.0, 2024-10-24 00:38:57.917
125.0, -57839.96675490937, -58568.58892066347, -60045.36867682561, -64945.072227129014, -65509.00673973641, -56232.09401751686, -17332.593182634497, 13531.3437618427, 0.066, 0.96, 0.184, 192.0, 2.0, 16.0, 30.0, 0.0, 5.0, 192.0, 0.0, 0.0, 0.0, 1.7297105379236908E9, 0.0, 2024-10-24 00:38:57.923
126.0, -57855.724734750365, -58591.231237796695, -60069.955595726446, -64970.19558789678, -65542.40024595264, -56263.60997719884, -16976.328727761356, 13919.95119094267, 0.066, 0.96, 0.184, 192.0, 0.0, 0.0, 0.0, 0.0, 0.0, 0.0, 0.0, 0.0, 0.0, 1.729710537926678E9, 0.0, 2024-10-24 00:38:57.926
127.0, -57901.03172076127, -58616.37695030892, -60092.9331890265, -64982.01966071364, -65543.94251632005, -56267.34271852288, -16828.337827722768, 14062.912948478814, 0.066, 0.96, 0.184, 192.0, 0.0, 0.0, 0.0, 0.0, 0.0, 0.0, 0.0, 0.0, 0.0, 1.7297105379296596E9, 0.0, 2024-10-24 00:38:57.929
128.0, -57896.471964892386, -58599.188458822784, -60077.66694756353, -64959.42204706932, -65522.26132419841, -56233.43512218418, -17155.857939226382, 13700.747633069472, 0.066, 0.96, 0.184, 192.0, 0.0, 0.0, 0.0, 0.0, 0.0, 0.0, 0.0, 0.0, 0.0, 1.7297105379346747E9, 0.0, 2024-10-24 00:38:57.934
129.0, -57875.573083826675, -58583.09520281496, -60066.44637184696, -64944.80400619555, -65510.30314091482, -56216.067816742405, -17453.717285837804, 13387.197361850425, 0.066, 0.96, 0.184, 192.0, 0.0, 0.0, 0.0, 0.0, 0.0, 0.0, 0.0, 0.0, 0.0, 1.7297105379377227E9, 0.0, 2024-10-24 00:38:57.937
130.0, -57850.44972305891, -58585.24097028268, -60058.556206054236, -64956.15869237885, -65507.39741413563, -56242.88991008877, -17337.77878734813, 13539.971535202449, 0.066, 0.96, 0.184, 192.0, 0.0, 0.0, 0.0, 0.0, 0.0, 0.0, 0.0, 0.0, 0.0, 1.7297105379417052E9, 0.0, 2024-10-24 00:38:57.941
131.0, -57863.905473221006, -58608.37502579392, -60076.88463650759, -64975.67176528833, -65531.000856280436, -56260.41367774173, -16986.65523369971, 13924.130967155812, 0.066, 0.96, 0.184, 192.0, 0.0, 0.0, 0.0, 0.0, 0.0, 0.0, 0.0, 0.0, 0.0, 1.729710537945662E9, 0.0, 2024-10-24 00:38:57.945
132.0, -57911.000598788334, -58630.50325280467, -60104.89137231009, -64985.551236337575, -65544.34484772025, -56256.41271548423, -16858.333868781792, 14046.797340726536, 0.066, 0.96, 0.184, 192.0, 0.0, 0.0, 0.0, 0.0, 0.0, 0.0, 0.0, 0.0, 0.0, 1.729710537949675E9, 0.0, 2024-10-24 00:38:57.949
133.0, -57908.921886553995, -58612.80067119607, -60098.45406990696, -64969.79325649658, -65525.97171377799, -56233.72569486209, -17173.381706879343, 13695.383214400199, 0.066, 0.96, 0.184, 192.0, 0.0, 0.0, 0.0, 0.0, 0.0, 0.0, 0.0, 0.0, 0.0, 1.729710537953673E9, 0.0, 2024-10-24 00:38:57.953
134.0, -57879.283473406256, -58590.00189185166, -60077.577540585706, -64952.582413266, -65506.27982691286, -56213.475014385585, -17489.88240836649, 13361.31404177118, 0.066, 0.96, 0.184, 192.0, 0.0, 0.0, 0.0, 0.0, 0.0, 0.0, 0.0, 0.0, 0.0, 1.7297105379577067E9, 0.0, 2024-10-24 00:38:57.957
135.0, -57852.26021435979, -58589.7783744071, -60071.69903179396, -64966.2840326171, -65519.243838696944, -56241.83937809937, -17358.185930035823, 13527.231040862924, 0.066, 0.962, 0.188, 192.0, 2.0, 16.0, 30.0, 16.0, 5.0, 224.0, 0.0, 0.0, 0.0, 1.7297105379627664E9, 0.0, 2024-10-24 00:38:57.962
136.0, -57855.434162072444, -58607.95034264927, -60087.72523256842, -64989.753364295175, -65544.09897853124, -56271.164866824736, -16997.98756813855, 13917.224278119122, 0.066, 0.962, 0.188, 192.0, 0.0, 0.0, 0.0, 0.0, 0.0, 0.0, 0.0, 0.0, 0.0, 1.7297105379657383E9, 0.0, 2024-10-24 00:38:57.965
137.0, -57885.38549964256, -58618.567421265536, -60102.16445948654, -64991.206227684765, -65537.63932438366, -56265.1298958218, -16870.828493932306, 14037.856642944413, 0.066, 0.962, 0.188, 192.0, 0.0, 0.0, 0.0, 0.0, 0.0, 0.0, 0.0, 0.0, 0.0, 1.729710537968689E9, 0.0, 2024-10-24 00:38:57.968
138.0, -57882.81504903019, -58598.67436870031, -60087.12173546812, -64970.35205010797, -65508.000911235926, -56233.77039835101, -17186.233959941146, 13686.3307578958, 0.066, 0.962, 0.188, 192.0, 0.0, 0.0, 0.0, 0.0, 0.0, 0.0, 0.0, 0.0, 0.0, 1.729710537974743E9, 0.0, 2024-10-24 00:38:57.974
139.0, -57854.74125799433, -58573.886284099375, -60062.64657528956, -64950.391942309376, -65492.82407675077, -56214.54789811944, -17490.26238802223, 13368.041916852228, 0.066, 0.962, 0.188, 192.0, 0.0, 0.0, 0.0, 0.0, 0.0, 0.0, 0.0, 0.0, 0.0, 1.7297105379777727E9, 0.0, 2024-10-24 00:38:57.977
140.0, -57830.757836193785, -58572.16519977632, -60055.78458974178, -64957.00805866815, -65518.14860321863, -56237.79371235296, -17360.91284285937, 13532.930735699027, 0.066, 0.962, 0.188, 192.0, 0.0, 0.0, 0.0, 0.0, 0.0, 0.0, 0.0, 0.0, 0.0, 1.7297105379817588E9, 0.0, 2024-10-24 00:38:57.981
141.0, -57835.63051648504, -58586.98440635019, -60068.7262497814, -64973.77186700963, -65539.38276045118, -56261.777134153504, -16994.053661114416, 13930.501214325574, 0.066, 0.962, 0.188, 192.0, 0.0, 0.0, 0.0, 0.0, 0.0, 0.0, 0.0, 0.0, 0.0, 1.7297105379857645E9, 0.0, 2024-10-24 00:38:57.985
142.0, -57870.99097621334, -58597.31091228854, -60085.44535463397, -64975.984689710705, -65535.09122551575, -56261.59832019786, -16859.540862982376, 14057.928509465279, 0.066, 0.962, 0.188, 192.0, 0.0, 0.0, 0.0, 0.0, 0.0, 0.0, 0.0, 0.0, 0.0, 1.7297105379907515E9, 0.0, 2024-10-24 00:38:57.990
143.0, -57856.88702546204, -58563.73859211667, -60062.11013342263, -64941.11596836043, -65499.462544853995, -56218.32534293239, -17198.77328858057, 13682.262740404933, 0.066, 0.962, 0.188, 192.0, 0.0, 0.0, 0.0, 0.0, 0.0, 0.0, 0.0, 0.0, 0.0, 1.7297105379937418E9, 0.0, 2024-10-24 00:38:57.993
144.0, -57832.27775481674, -58540.828054049976, -60042.909984935526, -64920.99939835065, -65488.33137611525, -56202.12032820229, -17515.98924589029, 13348.30532649819, 0.066, 0.962, 0.188, 192.0, 0.0, 0.0, 0.0, 0.0, 0.0, 0.0, 0.0, 0.0, 0.0, 1.7297105379967873E9, 0.0, 2024-10-24 00:38:57.996
145.0, -57808.67431267194, -58543.80083606253, -60043.69229599146, -64932.95758163424, -65519.08737648575, -56237.79371235296, -17370.032354597137, 13529.577974030732, 0.058, 0.9560000000000001, 0.184, 192.0, 1.0, 208.0, 29.0, 224.0, 5.0, 192.0, 0.0, 0.0, 0.0, 1.7297105380018332E9, 0.0, 2024-10-24 00:38:58.001
146.0, -57825.77339718025, -58565.705545628734, -60070.31322363773, -64955.75636097865, -65553.39730422465, -56269.01909935702, -16997.22760882707, 13931.954077715169, 0.058, 0.9560000000000001, 0.184, 192.0, 0.0, 0.0, 0.0, 0.0, 0.0, 0.0, 0.0, 0.0, 0.0, 1.729710538005931E9, 0.0, 2024-10-24 00:38:58.005
