%OpenBCI Raw EXG Data
%Number of channels = 8
%Sample Rate = 250 Hz
%Board = OpenBCI_GUI$BoardCytonSerial
Sample Index, EXG Channel 0, EXG Channel 1, EXG Channel 2, EXG Channel 3, EXG Channel 4, EXG Channel 5, EXG Channel 6, EXG Channel 7, Accel Channel 0, Accel Channel 1, Accel Channel 2, Other, Other, Other, Other, Other, Other, Other, Analog Channel 0, Analog Channel 1, Analog Channel 2, Timestamp, Other, Timestamp (Formatted)
0.0, 0.0, 0.0, 0.0, 0.0, 0.0, 0.0, 0.0, 0.0, 0.0, 0.0, 0.0, 192.0, 0.0, 0.0, 0.0, 0.0, 0.0, 0.0, 0.0, 0.0, 0.0, 1.7297046452519794E9, 0.0, 2024-10-23 23:00:45.251
1.0, -47672.649940568204, -55979.921636572086, -30818.562903232923, -19946.495586215926, -17856.20514824452, -15674.473723706453, -187500.02235174447, -187500.02235174447, -0.092, 0.836, 0.484, 192.0, 253.0, 32.0, 26.0, 32.0, 15.0, 32.0, 0.0, 0.0, 0.0, 1.7297046452689347E9, 0.0, 2024-10-23 23:00:45.268
2.0, -47644.73261174353, -55915.05687416278, -30813.75727817503, -19885.631786064125, -17849.38786618565, -15669.824560859748, -187500.02235174447, -187500.02235174447, -0.092, 0.836, 0.484, 192.0, 0.0, 0.0, 0.0, 0.0, 0.0, 0.0, 0.0, 0.0, 0.0, 1.7297046452720275E9, 0.0, 2024-10-23 23:00:45.272
3.0, -47613.440169506095, -55827.66155334253, -30997.175693175283, -19768.687459073957, -17843.934040538556, -15638.66622908905, -187500.02235174447, -187500.02235174447, -0.092, 0.836, 0.484, 192.0, 0.0, 0.0, 0.0, 0.0, 0.0, 0.0, 0.0, 0.0, 0.0, 1.7297046452759736E9, 0.0, 2024-10-23 23:00:45.275
4.0, -47589.21087851654, -55761.05335486572, -31255.4277486119, -19684.935472599922, -17853.47823542097, -15635.447577887486, -187500.02235174447, -187500.02235174447, -0.092, 0.836, 0.484, 192.0, 0.0, 0.0, 0.0, 0.0, 0.0, 0.0, 0.0, 0.0, 0.0, 1.7297046452799792E9, 0.0, 2024-10-23 23:00:45.279
5.0, -47613.8872043952, -55857.992870568385, -31156.700093352807, -19807.668901404013, -17863.49181693695, -15680.084011564733, -187500.02235174447, -187500.02235174447, -0.092, 0.836, 0.484, 192.0, 0.0, 0.0, 0.0, 0.0, 0.0, 0.0, 0.0, 0.0, 0.0, 1.7297046452840407E9, 0.0, 2024-10-23 23:00:45.284
6.0, -47661.49642008501, -55964.16365673109, -30825.760164947533, -19963.393505024138, -17888.369308515707, -15726.441529565041, -187500.02235174447, -187500.02235174447, -0.092, 0.836, 0.484, 192.0, 0.0, 0.0, 0.0, 0.0, 0.0, 0.0, 0.0, 0.0, 0.0, 1.7297046452870488E9, 0.0, 2024-10-23 23:00:45.287
7.0, -47629.37696330273, -55890.11232735066, -30813.824333408396, -19889.722155299445, -17869.415029217605, -15700.133526341144, -187500.02235174447, -187500.02235174447, -0.092, 0.836, 0.484, 192.0, 0.0, 0.0, 0.0, 0.0, 0.0, 0.0, 0.0, 0.0, 0.0, 1.7297046452909796E9, 0.0, 2024-10-23 23:00:45.290
8.0, -47602.97955310101, -55808.66257055552, -30999.94730948774, -19772.934290520465, -17860.29551747984, -15659.922738066047, -187500.02235174447, -187500.02235174447, -0.098, 0.842, 0.484, 192.0, 252.0, 240.0, 26.0, 80.0, 15.0, 32.0, 0.0, 0.0, 0.0, 1.7297046452960188E9, 0.0, 2024-10-23 23:00:45.296
9.0, -47576.85036383276, -55744.51306396879, -31253.28198114419, -19685.203693533385, -17862.329526225272, -15646.757560581871, -187500.02235174447, -187500.02235174447, -0.098, 0.842, 0.484, 192.0, 0.0, 0.0, 0.0, 0.0, 0.0, 0.0, 0.0, 0.0, 0.0, 1.7297046453001795E9, 0.0, 2024-10-23 23:00:45.300
10.0, -47604.767692657435, -55854.416591455534, -31156.767148586176, -19813.79327938477, -17872.857197863723, -15689.829372147247, -187500.02235174447, -187500.02235174447, -0.098, 0.842, 0.484, 192.0, 0.0, 0.0, 0.0, 0.0, 0.0, 0.0, 0.0, 0.0, 0.0, 1.7297046453039932E9, 0.0, 2024-10-23 23:00:45.303
11.0, -47648.28653911192, -55959.760363073394, -30818.71936544411, -19963.81818816879, -17881.48497122347, -15719.624247506172, -187500.02235174447, -187500.02235174447, -0.098, 0.842, 0.484, 192.0, 0.0, 0.0, 0.0, 0.0, 0.0, 0.0, 0.0, 0.0, 0.0, 1.7297046453080423E9, 0.0, 2024-10-23 23:00:45.308
12.0, -47617.843463163794, -55894.38151054162, -30808.839894394863, -19892.31495765626, -17859.468502934993, -15687.549494212806, -187500.02235174447, -187500.02235174447, -0.098, 0.842, 0.484, 192.0, 0.0, 0.0, 0.0, 0.0, 0.0, 0.0, 0.0, 0.0, 0.0, 1.7297046453110673E9, 0.0, 2024-10-23 23:00:45.311
13.0, -47589.546154683376, -55816.3739223926, -30991.297184383537, -19769.045086985243, -17843.174081227076, -15634.687618576005, -187500.02235174447, -187500.02235174447, -0.098, 0.842, 0.484, 192.0, 0.0, 0.0, 0.0, 0.0, 0.0, 0.0, 0.0, 0.0, 0.0, 1.7297046453150268E9, 0.0, 2024-10-23 23:00:45.315
14.0, -47568.1778869841, -55760.13693334305, -31249.772757264705, -19685.606024933582, -17841.452996904016, -15619.868412002137, -187500.02235174447, -187500.02235174447, -0.098, 0.842, 0.484, 192.0, 0.0, 0.0, 0.0, 0.0, 0.0, 0.0, 0.0, 0.0, 0.0, 1.729704645319059E9, 0.0, 2024-10-23 23:00:45.319
15.0, -47586.483965693, -55860.853893858664, -31143.937247268826, -19803.06444204622, -17837.67555209107, -15645.863490803658, -187500.02235174447, -187500.02235174447, -0.098, 0.842, 0.484, 192.0, 0.0, 0.0, 0.0, 0.0, 0.0, 0.0, 0.0, 0.0, 0.0, 1.729704645323114E9, 0.0, 2024-10-23 23:00:45.323
16.0, -47635.546044772396, -55971.13740100115, -30819.34521428886, -19950.250679284418, -17852.785331342857, -15674.160799284078, -187500.02235174447, -187500.02235174447, -0.098, 0.842, 0.484, 192.0, 0.0, 0.0, 0.0, 0.0, 0.0, 0.0, 0.0, 0.0, 0.0, 1.72970464532811E9, 0.0, 2024-10-23 23:00:45.328
17.0, -47616.61411721875, -55913.46990030645, -30831.10223187235, -19883.731887785423, -17847.309153951308, -15656.502921164385, -187500.02235174447, -187500.02235174447, -0.098, 0.842, 0.484, 192.0, 0.0, 0.0, 0.0, 0.0, 0.0, 0.0, 0.0, 0.0, 0.0, 1.7297046453321855E9, 0.0, 2024-10-23 23:00:45.332
18.0, -47590.75314888396, -55835.30584994625, -31025.964740033716, -19768.10631371812, -17833.96516251149, -15609.921885719525, -187500.02235174447, -187500.02235174447, -0.098, 0.854, 0.48, 192.0, 252.0, 240.0, 26.0, 176.0, 15.0, 0.0, 0.0, 0.0, 0.0, 1.729704645336373E9, 0.0, 2024-10-23 23:00:45.336
19.0, -47574.03404403139, -55779.42648880798, -31296.219682242834, -19686.76831564526, -17837.586145113248, -15593.225132611411, -187500.02235174447, -187500.02235174447, -0.098, 0.854, 0.48, 192.0, 0.0, 0.0, 0.0, 0.0, 0.0, 0.0, 0.0, 0.0, 0.0, 1.7297046453391442E9, 0.0, 2024-10-23 23:00:45.339
20.0, -47621.218576576546, -55902.450490289986, -31218.301501071634, -19826.91375338003, -17859.379095957174, -15642.421322157541, -187500.02235174447, -187500.02235174447, -0.098, 0.854, 0.48, 192.0, 0.0, 0.0, 0.0, 0.0, 0.0, 0.0, 0.0, 0.0, 0.0, 1.729704645343053E9, 0.0, 2024-10-23 23:00:45.343
21.0, -47667.7996120214, -56007.526040974386, -30888.501511633578, -19975.731667963468, -17866.10697103822, -15665.711839879972, -187500.02235174447, -187500.02235174447, -0.098, 0.854, 0.48, 192.0, 0.0, 0.0, 0.0, 0.0, 0.0, 0.0, 0.0, 0.0, 0.0, 1.7297046453471231E9, 0.0, 2024-10-23 23:00:45.347
22.0, -47638.89880644069, -55934.92757498355, -30892.43541865771, -19899.579274604235, -17846.213918472997, -15627.244487672388, -187500.02235174447, -187500.02235174447, -0.098, 0.854, 0.48, 192.0, 0.0, 0.0, 0.0, 0.0, 0.0, 0.0, 0.0, 0.0, 0.0, 1.729704645351165E9, 0.0, 2024-10-23 23:00:45.351
23.0, -47625.06307662286, -55858.4846089464, -31098.071467646536, -19788.15582849453, -17847.0632847623, -15588.285397086787, -187500.02235174447, -187500.02235174447, -0.098, 0.854, 0.48, 192.0, 0.0, 0.0, 0.0, 0.0, 0.0, 0.0, 0.0, 0.0, 0.0, 1.7297046453561184E9, 0.0, 2024-10-23 23:00:45.356
24.0, -47607.82988164781, -55794.96095120442, -31365.331276098645, -19706.884885655032, -17857.926232567577, -15586.921940675014, -187500.02235174447, -187500.02235174447, -0.098, 0.854, 0.48, 192.0, 0.0, 0.0, 0.0, 0.0, 0.0, 0.0, 0.0, 0.0, 0.0, 1.7297046453601353E9, 0.0, 2024-10-23 23:00:45.360
25.0, -47619.63160272022, -55883.697376691984, -31247.85050724155, -19821.77285215531, -17856.987459300453, -15627.624467328129, -187500.02235174447, -187500.02235174447, -0.098, 0.854, 0.48, 192.0, 0.0, 0.0, 0.0, 0.0, 0.0, 0.0, 0.0, 0.0, 0.0, 1.7297046453641152E9, 0.0, 2024-10-23 23:00:45.364
26.0, -47660.13296367323, -55979.51930517189, -30909.53450316602, -19965.606327725214, -17874.48887520896, -15677.401802230097, -187500.02235174447, -187500.02235174447, -0.098, 0.854, 0.48, 192.0, 0.0, 0.0, 0.0, 0.0, 0.0, 0.0, 0.0, 0.0, 0.0, 1.7297046453671248E9, 0.0, 2024-10-23 23:00:45.367
27.0, -47632.260338337466, -55910.005379915885, -30914.720107879653, -19899.13223971513, -17874.734744397967, -15675.636014418127, -187500.02235174447, -187500.02235174447, -0.098, 0.854, 0.48, 192.0, 0.0, 0.0, 0.0, 0.0, 0.0, 0.0, 0.0, 0.0, 0.0, 1.7297046453711257E9, 0.0, 2024-10-23 23:00:45.371
28.0, -47601.37022750023, -55823.95116376295, -31103.63705201591, -19780.10920049062, -17866.10697103822, -15645.796435570293, -187500.02235174447, -187500.02235174447, -0.1, 0.856, 0.482, 192.0, 252.0, 224.0, 26.0, 192.0, 15.0, 16.0, 0.0, 0.0, 0.0, 1.7297046453751595E9, 0.0, 2024-10-23 23:00:45.375
29.0, -47570.45776491854, -55755.17484607397, -31358.290476595223, -19690.456353480382, -17866.665764649602, -15636.833386043714, -187500.02235174447, -187500.02235174447, -0.1, 0.856, 0.482, 192.0, 0.0, 0.0, 0.0, 0.0, 0.0, 0.0, 0.0, 0.0, 0.0, 1.72970464537914E9, 0.0, 2024-10-23 23:00:45.379
30.0, -47599.984419344, -55867.939396851, -31259.33930389158, -19825.192669056974, -17885.128305569688, -15693.539761726828, -187500.02235174447, -187500.02235174447, -0.1, 0.856, 0.482, 192.0, 0.0, 0.0, 0.0, 0.0, 0.0, 0.0, 0.0, 0.0, 0.0, 1.7297046453841562E9, 0.0, 2024-10-23 23:00:45.384
31.0, -47647.1466001447, -55973.17140974658, -30923.437288217225, -19978.033897642363, -17903.322625556306, -15736.656276781116, -187500.02235174447, -187500.02235174447, -0.1, 0.856, 0.482, 192.0, 0.0, 0.0, 0.0, 0.0, 0.0, 0.0, 0.0, 0.0, 0.0, 1.7297046453881896E9, 0.0, 2024-10-23 23:00:45.388
32.0, -47615.56358522935, -55901.91404842306, -30911.59086365591, -19900.339233915714, -17883.943663113554, -15707.82252643377, -187500.02235174447, -187500.02235174447, -0.1, 0.856, 0.482, 192.0, 0.0, 0.0, 0.0, 0.0, 0.0, 0.0, 0.0, 0.0, 0.0, 1.729704645392228E9, 0.0, 2024-10-23 23:00:45.392
33.0, -47589.92613433911, -55822.967687006916, -31098.786723469108, -19781.606767369125, -17879.96505260051, -15669.62339515965, -187500.02235174447, -187500.02235174447, -0.1, 0.856, 0.482, 192.0, 0.0, 0.0, 0.0, 0.0, 0.0, 0.0, 0.0, 0.0, 0.0, 1.7297046453951397E9, 0.0, 2024-10-23 23:00:45.395
34.0, -47572.93880855308, -55764.27200606728, -31360.749168485305, -19695.55255121619, -17882.759020657424, -15658.894557821102, -187500.02235174447, -187500.02235174447, -0.1, 0.856, 0.482, 192.0, 0.0, 0.0, 0.0, 0.0, 0.0, 0.0, 0.0, 0.0, 0.0, 1.7297046453991575E9, 0.0, 2024-10-23 23:00:45.399
35.0, -47596.02816057541, -55870.219274785435, -31244.698911273354, -19822.555163211247, -17872.320755996796, -15690.678738436549, -187500.02235174447, -187500.02235174447, -0.1, 0.856, 0.482, 192.0, 0.0, 0.0, 0.0, 0.0, 0.0, 0.0, 0.0, 0.0, 0.0, 1.7297046454041524E9, 0.0, 2024-10-23 23:00:45.404
36.0, -47635.27782383893, -55972.03147077936, -30901.890206562308, -19963.773484679878, -17878.288671766364, -15718.797232961326, -187500.02235174447, -187500.02235174447, -0.1, 0.856, 0.482, 192.0, 0.0, 0.0, 0.0, 0.0, 0.0, 0.0, 0.0, 0.0, 0.0, 1.7297046454092455E9, 0.0, 2024-10-23 23:00:45.409
37.0, -47610.33327702681, -55907.412577559066, -30905.06415427496, -19886.7940767758, -17860.809607602314, -15691.036366347835, -187500.02235174447, -187500.02235174447, -0.1, 0.856, 0.482, 192.0, 0.0, 0.0, 0.0, 0.0, 0.0, 0.0, 0.0, 0.0, 0.0, 1.7297046454121716E9, 0.0, 2024-10-23 23:00:45.412
38.0, -47591.69192215108, -55832.24366095587, -31102.184188626314, -19770.989688752852, -17853.09825576523, -15648.121016993646, -187500.02235174447, -187500.02235174447, -0.098, 0.854, 0.488, 192.0, 252.0, 240.0, 26.0, 176.0, 15.0, 64.0, 0.0, 0.0, 0.0, 1.7297046454161832E9, 0.0, 2024-10-23 23:00:45.416
39.0, -47574.145802753665, -55771.67043348199, -31367.58880228863, -19683.03557432122, -17852.651220876127, -15627.982095239413, -187500.02235174447, -187500.02235174447, -0.098, 0.854, 0.488, 192.0, 0.0, 0.0, 0.0, 0.0, 0.0, 0.0, 0.0, 0.0, 0.0, 1.7297046454202044E9, 0.0, 2024-10-23 23:00:45.420
40.0, -47606.46642523604, -55880.81400165725, -31265.173109194413, -19812.183953783984, -17860.42962794657, -15661.86733983366, -187500.02235174447, -187500.02235174447, -0.098, 0.854, 0.488, 192.0, 0.0, 0.0, 0.0, 0.0, 0.0, 0.0, 0.0, 0.0, 0.0, 1.729704645423202E9, 0.0, 2024-10-23 23:00:45.423
41.0, -47654.43326883713, -55986.29188374185, -30934.434346489234, -19958.744342177433, -17870.06322980681, -15687.52714246835, -187500.02235174447, -187500.02235174447, -0.098, 0.854, 0.488, 192.0, 0.0, 0.0, 0.0, 0.0, 0.0, 0.0, 0.0, 0.0, 0.0, 1.7297046454272165E9, 0.0, 2024-10-23 23:00:45.427
42.0, -47639.23408260752, -55929.11612142517, -30950.482899008144, -19893.477248367937, -17861.077828535777, -15663.789589856815, -187500.02235174447, -187500.02235174447, -0.098, 0.854, 0.488, 192.0, 0.0, 0.0, 0.0, 0.0, 0.0, 0.0, 0.0, 0.0, 0.0, 1.729704645431232E9, 0.0, 2024-10-23 23:00:45.431
43.0, -47622.82790217733, -55853.790742610785, -31152.006227017195, -19777.650508600535, -17846.28097370636, -15613.162888665545, -187500.02235174447, -187500.02235174447, -0.098, 0.854, 0.488, 192.0, 0.0, 0.0, 0.0, 0.0, 0.0, 0.0, 0.0, 0.0, 0.0, 1.7297046454352803E9, 0.0, 2024-10-23 23:00:45.435
44.0, -47602.2866490229, -55787.69663425644, -31416.919102301494, -19686.56714994516, -17842.43647366005, -15588.285397086787, -187500.02235174447, -187500.02235174447, -0.098, 0.854, 0.488, 192.0, 0.0, 0.0, 0.0, 0.0, 0.0, 0.0, 0.0, 0.0, 0.0, 1.7297046454393685E9, 0.0, 2024-10-23 23:00:45.439
45.0, -47639.591710518805, -55898.605990243675, -31310.368336483043, -19817.43661373098, -17850.237232474952, -15623.243525414888, -187500.02235174447, -187500.02235174447, -0.098, 0.854, 0.488, 192.0, 0.0, 0.0, 0.0, 0.0, 0.0, 0.0, 0.0, 0.0, 0.0, 1.72970464544432E9, 0.0, 2024-10-23 23:00:45.444
46.0, -47685.77041456347, -56000.597000193244, -30972.052332407515, -19961.247737556427, -17862.798912858834, -15648.612755371661, -187500.02235174447, -187500.02235174447, -0.098, 0.854, 0.488, 192.0, 0.0, 0.0, 0.0, 0.0, 0.0, 0.0, 0.0, 0.0, 0.0, 1.729704645449263E9, 0.0, 2024-10-23 23:00:45.449
47.0, -47651.92987345814, -55924.24344113391, -30965.145643370826, -19878.680393538525, -17842.10119749322, -15616.180374167012, -187500.02235174447, -187500.02235174447, -0.098, 0.854, 0.488, 192.0, 0.0, 0.0, 0.0, 0.0, 0.0, 0.0, 0.0, 0.0, 0.0, 1.7297046454533825E9, 0.0, 2024-10-23 23:00:45.453
48.0, -47625.57716674533, -55844.73828610639, -31162.422139933366, -19762.7642467933, -17839.933078281054, -15582.69746097296, -187500.02235174447, -187500.02235174447, -0.094, 0.842, 0.492, 192.0, 253.0, 16.0, 26.0, 80.0, 15.0, 96.0, 0.0, 0.0, 0.0, 1.7297046454563017E9, 0.0, 2024-10-23 23:00:45.456
49.0, -47595.11173905274, -55775.9619684174, -31423.691680871452, -19676.8441411071, -17843.039970760343, -15575.902530658548, -187500.02235174447, -187500.02235174447, -0.094, 0.842, 0.492, 192.0, 0.0, 0.0, 0.0, 0.0, 0.0, 0.0, 0.0, 0.0, 0.0, 1.7297046454602609E9, 0.0, 2024-10-23 23:00:45.460
50.0, -47619.81041667586, -55874.264940531844, -31305.853284103072, -19807.35597698164, -17852.964145298498, -15623.020007970335, -187500.02235174447, -187500.02235174447, -0.094, 0.842, 0.492, 192.0, 0.0, 0.0, 0.0, 0.0, 0.0, 0.0, 0.0, 0.0, 0.0, 1.7297046454642568E9, 0.0, 2024-10-23 23:00:45.464
51.0, -47665.49738234251, -55973.327871957765, -30968.49840503912, -19952.195281052027, -17875.002965331434, -15669.377525970642, -187500.02235174447, -187500.02235174447, -0.094, 0.842, 0.492, 192.0, 0.0, 0.0, 0.0, 0.0, 0.0, 0.0, 0.0, 0.0, 0.0, 1.7297046454672592E9, 0.0, 2024-10-23 23:00:45.467
52.0, -47635.94837617259, -55903.992760657406, -30968.856032950407, -19878.345117371693, -17870.800837373834, -15661.509711922374, -187500.02235174447, -187500.02235174447, -0.094, 0.842, 0.492, 192.0, 0.0, 0.0, 0.0, 0.0, 0.0, 0.0, 0.0, 0.0, 0.0, 1.7297046454722507E9, 0.0, 2024-10-23 23:00:45.472
53.0, -47607.74047466999, -55822.85592828464, -31158.085901509035, -19761.557252592713, -17866.844578605243, -15630.843118529692, -187500.02235174447, -187500.02235174447, -0.094, 0.842, 0.492, 192.0, 0.0, 0.0, 0.0, 0.0, 0.0, 0.0, 0.0, 0.0, 0.0, 1.7297046454763153E9, 0.0, 2024-10-23 23:00:45.476
54.0, -47576.71625336603, -55754.41488676249, -31413.32047144419, -19669.803341603678, -17869.86206410671, -15621.94712423648, -187500.02235174447, -187500.02235174447, -0.094, 0.842, 0.492, 192.0, 0.0, 0.0, 0.0, 0.0, 0.0, 0.0, 0.0, 0.0, 0.0, 1.7297046454792955E9, 0.0, 2024-10-23 23:00:45.479
55.0, -47601.25846877795, -55859.26692000234, -31290.117656006536, -19800.672805389502, -17874.667689164602, -15667.790552114315, -187500.02235174447, -187500.02235174447, -0.094, 0.842, 0.492, 192.0, 0.0, 0.0, 0.0, 0.0, 0.0, 0.0, 0.0, 0.0, 0.0, 1.7297046454832952E9, 0.0, 2024-10-23 23:00:45.483
56.0, -47645.02318442144, -55958.28514793934, -30945.677273950256, -19945.668571671078, -17890.49272423896, -15707.621360733672, -187500.02235174447, -187500.02235174447, -0.094, 0.842, 0.492, 192.0, 0.0, 0.0, 0.0, 0.0, 0.0, 0.0, 0.0, 0.0, 0.0, 1.7297046454873123E9, 0.0, 2024-10-23 23:00:45.487
57.0, -47624.772503944936, -55895.744966953396, -30948.203021073703, -19877.49575108239, -17880.076811322786, -15690.499924480908, -187500.02235174447, -187500.02235174447, -0.094, 0.842, 0.492, 192.0, 0.0, 0.0, 0.0, 0.0, 0.0, 0.0, 0.0, 0.0, 0.0, 1.729704645491327E9, 0.0, 2024-10-23 23:00:45.491
58.0, -47610.75796017146, -55823.99586725186, -31141.903238523395, -19766.698153817433, -17870.890244351656, -15649.842101316704, -187500.02235174447, -187500.02235174447, -0.096, 0.838, 0.488, 192.0, 253.0, 0.0, 26.0, 48.0, 15.0, 64.0, 0.0, 0.0, 0.0, 1.7297046454953127E9, 0.0, 2024-10-23 23:00:45.495
59.0, -47591.15548028416, -55763.5120467558, -31397.987174747846, -19680.308661497675, -17874.555930442326, -15638.576822111228, -187500.02235174447, -187500.02235174447, -0.096, 0.838, 0.488, 192.0, 0.0, 0.0, 0.0, 0.0, 0.0, 0.0, 0.0, 0.0, 0.0, 1.7297046455003116E9, 0.0, 2024-10-23 23:00:45.500
60.0, -47622.604384732775, -55875.471934732435, -31266.894193517473, -19811.088718305673, -17864.095314037244, -15673.199674272499, -187500.02235174447, -187500.02235174447, -0.096, 0.838, 0.488, 192.0, 0.0, 0.0, 0.0, 0.0, 0.0, 0.0, 0.0, 0.0, 0.0, 1.7297046455043368E9, 0.0, 2024-10-23 23:00:45.504
61.0, -47668.6489783107, -55978.088793526746, -30913.513113679066, -19950.541251962335, -17862.888319836657, -15699.217104818477, -187500.02235174447, -187500.02235174447, -0.096, 0.838, 0.488, 192.0, 0.0, 0.0, 0.0, 0.0, 0.0, 0.0, 0.0, 0.0, 0.0, 1.7297046455073717E9, 0.0, 2024-10-23 23:00:45.507
62.0, -47647.079544911336, -55914.609839273675, -30910.808552599974, -19877.808675504766, -17851.9136133091, -15673.57965392824, -187500.02235174447, -187500.02235174447, -0.096, 0.838, 0.488, 192.0, 0.0, 0.0, 0.0, 0.0, 0.0, 0.0, 0.0, 0.0, 0.0, 1.7297046455113196E9, 0.0, 2024-10-23 23:00:45.511
63.0, -47633.95907091607, -55844.559472150744, -31114.321185865545, -19767.52516836228, -17849.857252819213, -15636.028723243324, -187500.02235174447, -187500.02235174447, -0.096, 0.838, 0.488, 192.0, 0.0, 0.0, 0.0, 0.0, 0.0, 0.0, 0.0, 0.0, 0.0, 1.7297046455153117E9, 0.0, 2024-10-23 23:00:45.515
64.0, -47612.27787879442, -55781.37109057559, -31378.764674516282, -19678.341707985604, -17843.352895182717, -15614.526345077318, -187500.02235174447, -187500.02235174447, -0.096, 0.838, 0.488, 192.0, 0.0, 0.0, 0.0, 0.0, 0.0, 0.0, 0.0, 0.0, 0.0, 1.7297046455193515E9, 0.0, 2024-10-23 23:00:45.519
65.0, -47644.33028034333, -55896.77314719834, -31267.60944934004, -19815.223791029908, -17851.220709230987, -15656.659383375572, -187500.02235174447, -187500.02235174447, -0.096, 0.838, 0.488, 192.0, 0.0, 0.0, 0.0, 0.0, 0.0, 0.0, 0.0, 0.0, 0.0, 1.729704645523373E9, 0.0, 2024-10-23 23:00:45.523
66.0, -47692.43123441115, -56001.53577346037, -30937.40712850179, -19964.891071902643, -17871.314927496307, -15691.05871809229, -187500.02235174447, -187500.02235174447, -0.096, 0.838, 0.488, 192.0, 0.0, 0.0, 0.0, 0.0, 0.0, 0.0, 0.0, 0.0, 0.0, 1.7297046455273552E9, 0.0, 2024-10-23 23:00:45.527
67.0, -47671.66646381217, -55938.63796456313, -30953.410977531792, -19896.718251313956, -17875.762924642913, -15672.52912193884, -187500.02235174447, -187500.02235174447, -0.096, 0.838, 0.488, 192.0, 0.0, 0.0, 0.0, 0.0, 0.0, 0.0, 0.0, 0.0, 0.0, 1.7297046455324028E9, 0.0, 2024-10-23 23:00:45.532
68.0, -47645.96195768857, -55858.66342290204, -31150.03927350513, -19784.847770315144, -17866.39754371614, -15633.033589486313, -187500.02235174447, -187500.02235174447, -0.1, 0.838, 0.49, 192.0, 252.0, 224.0, 26.0, 48.0, 15.0, 80.0, 0.0, 0.0, 0.0, 1.7297046455354373E9, 0.0, 2024-10-23 23:00:45.535
69.0, -47625.107780111764, -55795.00565469333, -31410.750020831827, -19698.83825765112, -17865.548177426837, -15612.961722965447, -187500.02235174447, -187500.02235174447, -0.1, 0.838, 0.49, 192.0, 0.0, 0.0, 0.0, 0.0, 0.0, 0.0, 0.0, 0.0, 0.0, 1.7297046455393689E9, 0.0, 2024-10-23 23:00:45.539
70.0, -47654.16504790367, -55904.03746414631, -31286.09434200458, -19832.725206938412, -17868.990346072955, -15647.025781515335, -187500.02235174447, -187500.02235174447, -0.1, 0.838, 0.49, 192.0, 0.0, 0.0, 0.0, 0.0, 0.0, 0.0, 0.0, 0.0, 0.0, 1.729704645543402E9, 0.0, 2024-10-23 23:00:45.543
71.0, -47692.073606499864, -55997.244238524945, -30933.517924966567, -19961.292441045338, -17868.85623560622, -15666.628261402639, -187500.02235174447, -187500.02235174447, -0.1, 0.838, 0.49, 192.0, 0.0, 0.0, 0.0, 0.0, 0.0, 0.0, 0.0, 0.0, 0.0, 1.7297046455478728E9, 0.0, 2024-10-23 23:00:45.547
72.0, -47662.18932416312, -55928.13264466914, -30933.517924966567, -19882.390783118106, -17857.076866278276, -15635.514633120853, -187500.02235174447, -187500.02235174447, -0.1, 0.838, 0.49, 192.0, 0.0, 0.0, 0.0, 0.0, 0.0, 0.0, 0.0, 0.0, 0.0, 1.7297046455514095E9, 0.0, 2024-10-23 23:00:45.551
73.0, -47631.43332379262, -55845.20767273995, -31122.144296424904, -19759.702057802922, -17845.8115870728, -15584.396193551565, -187500.02235174447, -187500.02235174447, -0.1, 0.838, 0.49, 192.0, 0.0, 0.0, 0.0, 0.0, 0.0, 0.0, 0.0, 0.0, 0.0, 1.729704645555414E9, 0.0, 2024-10-23 23:00:45.555
74.0, -47607.09227408079, -55784.34387258815, -31385.090218197136, -19670.56330091516, -17849.745494096936, -15572.661527712527, -187500.02235174447, -187500.02235174447, -0.1, 0.838, 0.49, 192.0, 0.0, 0.0, 0.0, 0.0, 0.0, 0.0, 0.0, 0.0, 0.0, 1.729704645560452E9, 0.0, 2024-10-23 23:00:45.560
75.0, -47630.04751563639, -55891.22991457342, -31258.646399813464, -19801.83509610118, -17856.38396220016, -15619.399025368575, -187500.02235174447, -187500.02235174447, -0.1, 0.838, 0.49, 192.0, 0.0, 0.0, 0.0, 0.0, 0.0, 0.0, 0.0, 0.0, 0.0, 1.7297046455634444E9, 0.0, 2024-10-23 23:00:45.563
76.0, -47665.96676897607, -55984.50374418542, -30913.669575890253, -19935.61028666619, -17866.509302438415, -15655.608851386172, -187500.02235174447, -187500.02235174447, -0.1, 0.838, 0.49, 192.0, 0.0, 0.0, 0.0, 0.0, 0.0, 0.0, 0.0, 0.0, 0.0, 1.7297046455674074E9, 0.0, 2024-10-23 23:00:45.567
77.0, -47634.629623249726, -55913.983990428926, -30918.318738736958, -19861.581309030214, -17859.87083433519, -15644.18710996951, -187500.02235174447, -187500.02235174447, -0.1, 0.838, 0.49, 192.0, 0.0, 0.0, 0.0, 0.0, 0.0, 0.0, 0.0, 0.0, 0.0, 1.7297046455714896E9, 0.0, 2024-10-23 23:00:45.571
78.0, -47607.27108803643, -55834.635297612585, -31111.571921297542, -19747.363894863593, -17856.808645344812, -15614.124013677123, -187500.02235174447, -187500.02235174447, -0.1, 0.834, 0.488, 192.0, 252.0, 224.0, 26.0, 16.0, 15.0, 64.0, 0.0, 0.0, 0.0, 1.7297046455754304E9, 0.0, 2024-10-23 23:00:45.575
79.0, -47573.0282155309, -55766.551884001725, -31365.912421454483, -19658.113379253555, -17859.53555816836, -15609.676016530517, -187500.02235174447, -187500.02235174447, -0.1, 0.834, 0.488, 192.0, 0.0, 0.0, 0.0, 0.0, 0.0, 0.0, 0.0, 0.0, 0.0, 1.7297046455794125E9, 0.0, 2024-10-23 23:00:45.579
80.0, -47600.40910248865, -55875.71780392144, -31239.759175748728, -19794.548427408747, -17865.34701172674, -15658.425171187542, -187500.02235174447, -187500.02235174447, -0.1, 0.834, 0.488, 192.0, 0.0, 0.0, 0.0, 0.0, 0.0, 0.0, 0.0, 0.0, 0.0, 1.7297046455834663E9, 0.0, 2024-10-23 23:00:45.583
81.0, -47645.91725419966, -55972.88083706866, -30902.203130984683, -19935.498527943913, -17877.461657221516, -15698.121869340166, -187500.02235174447, -187500.02235174447, -0.1, 0.834, 0.488, 192.0, 0.0, 0.0, 0.0, 0.0, 0.0, 0.0, 0.0, 0.0, 0.0, 1.7297046455886106E9, 0.0, 2024-10-23 23:00:45.588
82.0, -47620.302155053876, -55899.45535653298, -30907.12051476485, -19856.529814783313, -17866.218729760498, -15674.853703362192, -187500.02235174447, -187500.02235174447, -0.1, 0.834, 0.488, 192.0, 0.0, 0.0, 0.0, 0.0, 0.0, 0.0, 0.0, 0.0, 0.0, 1.7297046455914552E9, 0.0, 2024-10-23 23:00:45.591
83.0, -47603.49364322348, -55821.96185850643, -31103.257072360168, -19741.775958749768, -17860.67549713558, -15636.028723243324, -187500.02235174447, -187500.02235174447, -0.1, 0.834, 0.488, 192.0, 0.0, 0.0, 0.0, 0.0, 0.0, 0.0, 0.0, 0.0, 0.0, 1.729704645595505E9, 0.0, 2024-10-23 23:00:45.595
84.0, -47593.70357915206, -55765.72486945688, -31371.16508140148, -19659.521539154237, -17868.789180372856, -15625.23283067141, -187500.02235174447, -187500.02235174447, -0.1, 0.834, 0.488, 192.0, 0.0, 0.0, 0.0, 0.0, 0.0, 0.0, 0.0, 0.0, 0.0, 1.7297046455994666E9, 0.0, 2024-10-23 23:00:45.599
85.0, -47641.17868437513, -55893.152164596584, -31252.18674566588, -19810.552276438746, -17874.667689164602, -15669.936319582024, -187500.02235174447, -187500.02235174447, -0.1, 0.834, 0.488, 192.0, 0.0, 0.0, 0.0, 0.0, 0.0, 0.0, 0.0, 0.0, 0.0, 1.729704645603572E9, 0.0, 2024-10-23 23:00:45.603
86.0, -47685.83746979684, -55988.571761676285, -30909.378040954834, -19946.51793796038, -17880.43443923407, -15694.031500104846, -187500.02235174447, -187500.02235174447, -0.1, 0.834, 0.488, 192.0, 0.0, 0.0, 0.0, 0.0, 0.0, 0.0, 0.0, 0.0, 0.0, 1.729704645607588E9, 0.0, 2024-10-23 23:00:45.607
87.0, -47670.32535914485, -55927.5514993133, -30927.862933619374, -19877.540454571303, -17880.233273533973, -15676.463028962975, -187500.02235174447, -187500.02235174447, -0.1, 0.834, 0.488, 192.0, 0.0, 0.0, 0.0, 0.0, 0.0, 0.0, 0.0, 0.0, 0.0, 1.7297046456116068E9, 0.0, 2024-10-23 23:00:45.611
88.0, -47655.43909733762, -55855.93651007849, -31135.510639609176, -19771.05674398622, -17877.953395599532, -15637.973325010935, -187500.02235174447, -187500.02235174447, -0.092, 0.842, 0.48, 192.0, 253.0, 32.0, 26.0, 80.0, 15.0, 0.0, 0.0, 0.0, 0.0, 1.7297046456181395E9, 0.0, 2024-10-23 23:00:45.618
89.0, -47618.58107073082, -55779.80646846372, -31394.902634013015, -19675.324222484138, -17869.571491428793, -15613.542868321285, -187500.02235174447, -187500.02235174447, -0.092, 0.842, 0.48, 192.0, 0.0, 0.0, 0.0, 0.0, 0.0, 0.0, 0.0, 0.0, 0.0, 1.7297046456204836E9, 0.0, 2024-10-23 23:00:45.620
90.0, -47653.4497920811, -55894.44856577499, -31277.757141322752, -19816.8778201196, -17881.127343312186, -15656.234700230922, -187500.02235174447, -187500.02235174447, -0.092, 0.842, 0.48, 192.0, 0.0, 0.0, 0.0, 0.0, 0.0, 0.0, 0.0, 0.0, 0.0, 1.729704645624529E9, 0.0, 2024-10-23 23:00:45.624
91.0, -47694.956981534604, -55992.59507567824, -30946.727805939652, -19961.47125500098, -17896.68415745308, -15688.264750035376, -187500.02235174447, -187500.02235174447, -0.092, 0.842, 0.48, 192.0, 0.0, 0.0, 0.0, 0.0, 0.0, 0.0, 0.0, 0.0, 0.0, 1.729704645627502E9, 0.0, 2024-10-23 23:00:45.627
92.0, -47665.743251531516, -55927.52914756884, -30966.822024204976, -19892.203198933985, -17894.426631263093, -15670.33865098222, -187500.02235174447, -187500.02235174447, -0.092, 0.842, 0.48, 192.0, 0.0, 0.0, 0.0, 0.0, 0.0, 0.0, 0.0, 0.0, 0.0, 1.7297046456315212E9, 0.0, 2024-10-23 23:00:45.631
93.0, -47645.85019896629, -55853.81309435524, -31175.11793078398, -19781.942043535953, -17895.16423883012, -15633.592383097695, -187500.02235174447, -187500.02235174447, -0.092, 0.842, 0.48, 192.0, 0.0, 0.0, 0.0, 0.0, 0.0, 0.0, 0.0, 0.0, 0.0, 1.729704645635553E9, 0.0, 2024-10-23 23:00:45.635
94.0, -47621.15152134318, -55788.59070403466, -31439.114384545614, -19694.211446548874, -17894.11370684072, -15616.359188122653, -187500.02235174447, -187500.02235174447, -0.092, 0.842, 0.48, 192.0, 0.0, 0.0, 0.0, 0.0, 0.0, 0.0, 0.0, 0.0, 0.0, 1.7297046456427763E9, 0.0, 2024-10-23 23:00:45.642
95.0, -47642.56449253136, -55893.979179141425, -31299.751257866774, -19824.812689401235, -17888.30225328234, -15648.456293160474, -187500.02235174447, -187500.02235174447, -0.092, 0.842, 0.48, 192.0, 0.0, 0.0, 0.0, 0.0, 0.0, 0.0, 0.0, 0.0, 0.0, 1.7297046456445105E9, 0.0, 2024-10-23 23:00:45.644
96.0, -47686.19509770812, -55991.857468111215, -30962.59754450292, -19964.153464335617, -17900.34984354375, -15682.408592988086, -187500.02235174447, -187500.02235174447, -0.092, 0.842, 0.48, 192.0, 0.0, 0.0, 0.0, 0.0, 0.0, 0.0, 0.0, 0.0, 0.0, 1.7297046456488373E9, 0.0, 2024-10-23 23:00:45.648
97.0, -47657.85308573879, -55920.53305155433, -30970.89004169584, -19886.995242475896, -17888.168142815608, -15661.442656689009, -187500.02235174447, -187500.02235174447, -0.092, 0.842, 0.48, 192.0, 0.0, 0.0, 0.0, 0.0, 0.0, 0.0, 0.0, 0.0, 0.0, 1.7297046456515324E9, 0.0, 2024-10-23 23:00:45.651
98.0, -47624.81720743385, -55830.656687099545, -31159.002323031706, -19760.81964502569, -17872.097238552244, -15618.750824779372, -187500.02235174447, -187500.02235174447, -0.092, 0.842, 0.48, 192.0, 0.0, 0.0, 0.0, 0.0, 0.0, 0.0, 0.0, 0.0, 0.0, 1.7297046456555433E9, 0.0, 2024-10-23 23:00:45.655
99.0, -47589.546154683376, -55757.14179958604, -31407.68783184145, -19664.483626423316, -17855.624002888682, -15596.264969857333, -187500.02235174447, -187500.02235174447, -0.08600000000000001, 0.848, 0.48, 192.0, 253.0, 80.0, 26.0, 128.0, 15.0, 0.0, 0.0, 0.0, 0.0, 1.7297046456595464E9, 0.0, 2024-10-23 23:00:45.659
100.0, -47616.77057942994, -55869.05698407376, -31263.921411504914, -19802.48329669038, -17855.422837188584, -15637.81686279975, -187500.02235174447, -187500.02235174447, -0.08600000000000001, 0.848, 0.48, 192.0, 0.0, 0.0, 0.0, 0.0, 0.0, 0.0, 0.0, 0.0, 0.0, 1.7297046456635575E9, 0.0, 2024-10-23 23:00:45.663
101.0, -47656.55668456038, -55965.34829918722, -30919.16810502626, -19943.209879780996, -17875.20413103153, -15680.24047377592, -187500.02235174447, -187500.02235174447, -0.08600000000000001, 0.848, 0.48, 192.0, 0.0, 0.0, 0.0, 0.0, 0.0, 0.0, 0.0, 0.0, 0.0, 1.7297046456695778E9, 0.0, 2024-10-23 23:00:45.669
102.0, -47633.512036026965, -55900.23766758891, -30939.999930858605, -19871.639594035103, -17881.48497122347, -15669.064601548267, -187500.02235174447, -187500.02235174447, -0.08600000000000001, 0.848, 0.48, 192.0, 0.0, 0.0, 0.0, 0.0, 0.0, 0.0, 0.0, 0.0, 0.0, 1.729704645672578E9, 0.0, 2024-10-23 23:00:45.672
103.0, -47614.51305323995, -55826.43220739749, -31140.763299556173, -19759.14326419154, -17863.760037870412, -15635.022894742835, -187500.02235174447, -187500.02235174447, -0.08600000000000001, 0.848, 0.48, 192.0, 0.0, 0.0, 0.0, 0.0, 0.0, 0.0, 0.0, 0.0, 0.0, 1.729704645675586E9, 0.0, 2024-10-23 23:00:45.675
104.0, -47592.02719831791, -55764.85315142312, -31404.960919017904, -19672.70906838287, -17854.037029032355, -15622.304752147766, -187500.02235174447, -187500.02235174447, -0.08600000000000001, 0.848, 0.48, 192.0, 0.0, 0.0, 0.0, 0.0, 0.0, 0.0, 0.0, 0.0, 0.0, 1.7297046456797023E9, 0.0, 2024-10-23 23:00:45.679
105.0, -47626.24771907899, -55884.52439123683, -31269.732865063295, -19819.269456776317, -17863.469465192495, -15668.952842825991, -187500.02235174447, -187500.02235174447, -0.08600000000000001, 0.848, 0.48, 192.0, 0.0, 0.0, 0.0, 0.0, 0.0, 0.0, 0.0, 0.0, 0.0, 1.7297046456835716E9, 0.0, 2024-10-23 23:00:45.683
106.0, -47681.188306950135, -55991.92452334458, -30935.686044178732, -19966.835673670255, -17881.26145377892, -15707.48725026694, -187500.02235174447, -187500.02235174447, -0.08600000000000001, 0.848, 0.48, 192.0, 0.0, 0.0, 0.0, 0.0, 0.0, 0.0, 0.0, 0.0, 0.0, 1.7297046456876376E9, 0.0, 2024-10-23 23:00:45.687
107.0, -47662.05521369639, -55928.28910688032, -30953.232163576147, -19892.87375126764, -17872.276052507885, -15683.906159866592, -187500.02235174447, -187500.02235174447, -0.08600000000000001, 0.848, 0.48, 192.0, 0.0, 0.0, 0.0, 0.0, 0.0, 0.0, 0.0, 0.0, 0.0, 1.7297046456915915E9, 0.0, 2024-10-23 23:00:45.691
108.0, -47642.78800997591, -55853.81309435524, -31157.03536951964, -19778.410467912017, -17857.054514533822, -15637.079255232724, -187500.02235174447, -187500.02235174447, -0.08600000000000001, 0.848, 0.48, 192.0, 0.0, 0.0, 0.0, 0.0, 0.0, 0.0, 0.0, 0.0, 0.0, 1.729704645695598E9, 0.0, 2024-10-23 23:00:45.695
109.0, -47620.436265520606, -55784.96972143289, -31426.418593694998, -19685.047231322198, -17845.275145205873, -15609.363092108142, -187500.02235174447, -187500.02235174447, -0.092, 0.844, 0.484, 192.0, 253.0, 32.0, 26.0, 96.0, 15.0, 32.0, 0.0, 0.0, 0.0, 1.7297046457006135E9, 0.0, 2024-10-23 23:00:45.700
110.0, -47651.48283856903, -55896.21435358696, -31285.87082456003, -19825.34913126816, -17842.659991104603, -15644.701200091982, -187500.02235174447, -187500.02235174447, -0.092, 0.844, 0.484, 192.0, 0.0, 0.0, 0.0, 0.0, 0.0, 0.0, 0.0, 0.0, 0.0, 1.729704645703606E9, 0.0, 2024-10-23 23:00:45.703
111.0, -47700.142586248236, -55996.64074142465, -30948.22537281816, -19968.869682415687, -17856.92040406709, -15678.340575497221, -187500.02235174447, -187500.02235174447, -0.092, 0.844, 0.484, 192.0, 0.0, 0.0, 0.0, 0.0, 0.0, 0.0, 0.0, 0.0, 0.0, 1.729704645706642E9, 0.0, 2024-10-23 23:00:45.706
112.0, -47684.0046267515, -55937.29685989581, -30982.46824532369, -19907.290626441318, -17866.19637801604, -15671.880921349637, -187500.02235174447, -187500.02235174447, -0.092, 0.844, 0.484, 192.0, 0.0, 0.0, 0.0, 0.0, 0.0, 0.0, 0.0, 0.0, 0.0, 1.7297046457116425E9, 0.0, 2024-10-23 23:00:45.711
113.0, -47658.79185900591, -55855.02008855583, -31198.766076417694, -19794.749593108845, -17867.023392560888, -15637.861566288659, -187500.02235174447, -187500.02235174447, -0.092, 0.844, 0.484, 192.0, 0.0, 0.0, 0.0, 0.0, 0.0, 0.0, 0.0, 0.0, 0.0, 1.729704645715612E9, 0.0, 2024-10-23 23:00:45.715
114.0, -47626.42653303463, -55776.386651562054, -31479.66044898754, -19700.08995534062, -17870.97965132948, -15621.053054458269, -187500.02235174447, -187500.02235174447, -0.092, 0.844, 0.484, 192.0, 0.0, 0.0, 0.0, 0.0, 0.0, 0.0, 0.0, 0.0, 0.0, 1.7297046457197692E9, 0.0, 2024-10-23 23:00:45.719
115.0, -47653.18157114763, -55889.19590582799, -31346.131127611534, -19843.92343091052, -17878.176913044084, -15665.62243290215, -187500.02235174447, -187500.02235174447, -0.092, 0.844, 0.484, 192.0, 0.0, 0.0, 0.0, 0.0, 0.0, 0.0, 0.0, 0.0, 0.0, 1.729704645723642E9, 0.0, 2024-10-23 23:00:45.723
116.0, -47691.20188846611, -55987.00713956442, -30995.745181530143, -19987.44398205805, -17895.298349296852, -15702.413404275585, -187500.02235174447, -187500.02235174447, -0.092, 0.844, 0.484, 192.0, 0.0, 0.0, 0.0, 0.0, 0.0, 0.0, 0.0, 0.0, 0.0, 1.729704645728655E9, 0.0, 2024-10-23 23:00:45.728
117.0, -47657.2495886385, -55912.1958508725, -31008.262158425114, -19908.18469621953, -17885.35182301424, -15679.480514464442, -187500.02235174447, -187500.02235174447, -0.092, 0.844, 0.484, 192.0, 0.0, 0.0, 0.0, 0.0, 0.0, 0.0, 0.0, 0.0, 0.0, 1.7297046457316437E9, 0.0, 2024-10-23 23:00:45.731
118.0, -47636.440114550605, -55836.53519589129, -31222.79420170715, -19790.92744480699, -17884.748325913944, -15642.108397735168, -187500.02235174447, -187500.02235174447, -0.092, 0.844, 0.484, 192.0, 0.0, 0.0, 0.0, 0.0, 0.0, 0.0, 0.0, 0.0, 0.0, 1.7297046457346897E9, 0.0, 2024-10-23 23:00:45.734
119.0, -47613.373114272734, -55773.86090443861, -31505.320251622234, -19702.28042629724, -17888.324605026795, -15627.0880254612, -187500.02235174447, -187500.02235174447, -0.094, 0.85, 0.484, 192.0, 253.0, 16.0, 26.0, 144.0, 15.0, 32.0, 0.0, 0.0, 0.0, 1.7297046457398229E9, 0.0, 2024-10-23 23:00:45.739
120.0, -47644.01735592096, -55893.10746110767, -31361.73264524134, -19844.370465799628, -17888.704584682535, -15666.538854424818, -187500.02235174447, -187500.02235174447, -0.094, 0.85, 0.484, 192.0, 0.0, 0.0, 0.0, 0.0, 0.0, 0.0, 0.0, 0.0, 0.0, 1.7297046457436814E9, 0.0, 2024-10-23 23:00:45.743
121.0, -47689.9054872877, -55992.99740707844, -31001.020193221593, -19982.72776397798, -17899.478125509995, -15697.540723984328, -187500.02235174447, -187500.02235174447, -0.094, 0.85, 0.484, 192.0, 0.0, 0.0, 0.0, 0.0, 0.0, 0.0, 0.0, 0.0, 0.0, 1.7297046457477293E9, 0.0, 2024-10-23 23:00:45.747
122.0, -47662.88222824124, -55919.9519061985, -31011.369050904403, -19900.74156531591, -17887.40818350413, -15672.1491422831, -187500.02235174447, -187500.02235174447, -0.094, 0.85, 0.484, 192.0, 0.0, 0.0, 0.0, 0.0, 0.0, 0.0, 0.0, 0.0, 0.0, 1.729704645751686E9, 0.0, 2024-10-23 23:00:45.751
123.0, -47635.63545175022, -55837.89865230306, -31218.368556305, -19778.656337101023, -17877.30519501033, -15631.066635974246, -187500.02235174447, -187500.02235174447, -0.094, 0.85, 0.484, 192.0, 0.0, 0.0, 0.0, 0.0, 0.0, 0.0, 0.0, 0.0, 0.0, 1.7297046457556922E9, 0.0, 2024-10-23 23:00:45.755
124.0, -47604.85709963526, -55764.92020665648, -31492.535053793796, -19680.241606264306, -17872.276052507885, -15611.732377020406, -187500.02235174447, -187500.02235174447, -0.094, 0.85, 0.484, 192.0, 0.0, 0.0, 0.0, 0.0, 0.0, 0.0, 0.0, 0.0, 0.0, 1.7297046457598228E9, 0.0, 2024-10-23 23:00:45.759
125.0, -47636.730687228526, -55887.16189708256, -31346.10877586708, -19826.31025627974, -17874.310061253316, -15656.547624653296, -187500.02235174447, -187500.02235174447, -0.094, 0.85, 0.484, 192.0, 0.0, 0.0, 0.0, 0.0, 0.0, 0.0, 0.0, 0.0, 0.0, 1.7297046457626822E9, 0.0, 2024-10-23 23:00:45.762
126.0, -47680.67421682766, -55987.78945062035, -30979.78603598905, -19967.036839370354, -17881.753192156935, -15688.801191902305, -187500.02235174447, -187500.02235174447, -0.094, 0.85, 0.484, 192.0, 0.0, 0.0, 0.0, 0.0, 0.0, 0.0, 0.0, 0.0, 0.0, 1.7297046457667475E9, 0.0, 2024-10-23 23:00:45.766
127.0, -47657.36134736078, -55917.22499337495, -30991.051315194527, -19889.297472154794, -17876.29936650984, -15671.188017271521, -187500.02235174447, -187500.02235174447, -0.094, 0.85, 0.484, 192.0, 0.0, 0.0, 0.0, 0.0, 0.0, 0.0, 0.0, 0.0, 0.0, 1.7297046457717004E9, 0.0, 2024-10-23 23:00:45.771
128.0, -47629.55577725837, -55831.506053388846, -31202.476465997275, -19768.642755585046, -17865.235253004463, -15631.111339463156, -187500.02235174447, -187500.02235174447, -0.094, 0.85, 0.484, 192.0, 0.0, 0.0, 0.0, 0.0, 0.0, 0.0, 0.0, 0.0, 0.0, 1.7297046457757423E9, 0.0, 2024-10-23 23:00:45.775
129.0, -47604.8347478908, -55761.32157579918, -31489.405809570053, -19673.647841649992, -17856.451017433526, -15612.626446798617, -187500.02235174447, -187500.02235174447, -0.092, 0.848, 0.482, 192.0, 253.0, 32.0, 26.0, 128.0, 15.0, 16.0, 0.0, 0.0, 0.0, 1.7297046457798696E9, 0.0, 2024-10-23 23:00:45.779
130.0, -47642.96682393156, -55885.932551137514, -31351.786118958727, -19824.6785789345, -17861.86013959171, -15655.698258363995, -187500.02235174447, -187500.02235174447, -0.092, 0.848, 0.482, 192.0, 0.0, 0.0, 0.0, 0.0, 0.0, 0.0, 0.0, 0.0, 0.0, 1.729704645783765E9, 0.0, 2024-10-23 23:00:45.783
131.0, -47687.98323726455, -55989.756404132415, -30983.809349991006, -19965.405162025116, -17869.30327049533, -15684.733174411438, -187500.02235174447, -187500.02235174447, -0.092, 0.848, 0.482, 192.0, 0.0, 0.0, 0.0, 0.0, 0.0, 0.0, 0.0, 0.0, 0.0, 1.729704645787755E9, 0.0, 2024-10-23 23:00:45.787
132.0, -47668.872495755255, -55923.148205655605, -31000.863731010406, -19887.397573876093, -17862.374229714183, -15660.705049121983, -187500.02235174447, -187500.02235174447, -0.092, 0.848, 0.482, 192.0, 0.0, 0.0, 0.0, 0.0, 0.0, 0.0, 0.0, 0.0, 0.0, 1.729704645790754E9, 0.0, 2024-10-23 23:00:45.790
133.0, -47647.12424840024, -55837.27280345831, -31227.04103315366, -19760.417313625494, -17852.539462153847, -15614.973379966425, -187500.02235174447, -187500.02235174447, -0.092, 0.848, 0.482, 192.0, 0.0, 0.0, 0.0, 0.0, 0.0, 0.0, 0.0, 0.0, 0.0, 1.729704645794788E9, 0.0, 2024-10-23 23:00:45.794
134.0, -47616.859986407755, -55759.86871240959, -31526.487353621407, -19659.02980077622, -17848.739665596448, -15594.789754723282, -187500.02235174447, -187500.02235174447, -0.092, 0.848, 0.482, 192.0, 0.0, 0.0, 0.0, 0.0, 0.0, 0.0, 0.0, 0.0, 0.0, 1.729704645799822E9, 0.0, 2024-10-23 23:00:45.799
135.0, -47656.8472572383, -55889.70999595046, -31396.02022123578, -19814.508535207337, -17861.413104702606, -15646.981078026425, -187500.02235174447, -187500.02235174447, -0.092, 0.848, 0.482, 192.0, 0.0, 0.0, 0.0, 0.0, 0.0, 0.0, 0.0, 0.0, 0.0, 1.7297046458037975E9, 0.0, 2024-10-23 23:00:45.803
136.0, -47704.83645258385, -55997.64656992514, -31023.148420232348, -19967.305060303817, -17868.208035017018, -15679.189941786522, -187500.02235174447, -187500.02235174447, -0.092, 0.848, 0.482, 192.0, 0.0, 0.0, 0.0, 0.0, 0.0, 0.0, 0.0, 0.0, 0.0, 1.7297046458077805E9, 0.0, 2024-10-23 23:00:45.807
137.0, -47673.2534376685, -55922.857632977684, -31026.30001620055, -19884.93888198601, -17856.71923836699, -15652.412551929065, -187500.02235174447, -187500.02235174447, -0.092, 0.848, 0.482, 192.0, 0.0, 0.0, 0.0, 0.0, 0.0, 0.0, 0.0, 0.0, 0.0, 1.729704645811888E9, 0.0, 2024-10-23 23:00:45.811
138.0, -47644.95612918808, -55835.417608668526, -31245.61533279602, -19762.406618882014, -17855.087561021755, -15616.80622301176, -187500.02235174447, -187500.02235174447, -0.092, 0.848, 0.482, 192.0, 0.0, 0.0, 0.0, 0.0, 0.0, 0.0, 0.0, 0.0, 0.0, 1.7297046458157854E9, 0.0, 2024-10-23 23:00:45.815
139.0, -47614.84832940678, -55760.27104380978, -31548.280304465334, -19664.260108978764, -17855.892223822146, -15603.238714127388, -187500.02235174447, -187500.02235174447, -0.1, 0.848, 0.484, 192.0, 252.0, 224.0, 26.0, 128.0, 15.0, 32.0, 0.0, 0.0, 0.0, 1.7297046458188236E9, 0.0, 2024-10-23 23:00:45.818
140.0, -47639.21173086306, -55879.49524873439, -31402.569282361186, -19811.558104939235, -17862.933023325568, -15651.630240873128, -187500.02235174447, -187500.02235174447, -0.1, 0.848, 0.484, 192.0, 0.0, 0.0, 0.0, 0.0, 0.0, 0.0, 0.0, 0.0, 0.0, 1.7297046458228323E9, 0.0, 2024-10-23 23:00:45.822
141.0, -47683.24466744002, -55986.56010467531, -31024.936559788774, -19963.035877112852, -17883.563683457814, -15695.462011749985, -187500.02235174447, -187500.02235174447, -0.1, 0.848, 0.484, 192.0, 0.0, 0.0, 0.0, 0.0, 0.0, 0.0, 0.0, 0.0, 0.0, 1.7297046458278048E9, 0.0, 2024-10-23 23:00:45.827
142.0, -47656.10964967128, -55914.36397008467, -31028.646949368354, -19886.905835498077, -17879.607424689224, -15677.625319674651, -187500.02235174447, -187500.02235174447, -0.1, 0.848, 0.484, 192.0, 0.0, 0.0, 0.0, 0.0, 0.0, 0.0, 0.0, 0.0, 0.0, 1.7297046458318636E9, 0.0, 2024-10-23 23:00:45.831
143.0, -47631.85800693727, -55830.12024523262, -31249.23631539778, -19763.904185760523, -17878.40043048864, -15639.537947122806, -187500.02235174447, -187500.02235174447, -0.1, 0.848, 0.484, 192.0, 0.0, 0.0, 0.0, 0.0, 0.0, 0.0, 0.0, 0.0, 0.0, 1.7297046458358896E9, 0.0, 2024-10-23 23:00:45.835
144.0, -47601.25846877795, -55757.253558308315, -31548.10149050969, -19667.18818750241, -17875.9193868541, -15622.148289936578, -187500.02235174447, -187500.02235174447, -0.1, 0.848, 0.484, 192.0, 0.0, 0.0, 0.0, 0.0, 0.0, 0.0, 0.0, 0.0, 0.0, 1.7297046458398478E9, 0.0, 2024-10-23 23:00:45.839
145.0, -47633.646146493695, -55881.14927782408, -31397.517788114284, -19821.325817266206, -17877.30519501033, -15667.72349688095, -187500.02235174447, -187500.02235174447, -0.1, 0.848, 0.484, 192.0, 0.0, 0.0, 0.0, 0.0, 0.0, 0.0, 0.0, 0.0, 0.0, 1.7297046458438127E9, 0.0, 2024-10-23 23:00:45.843
146.0, -47679.48957437153, -55987.1636017756, -31008.530379358577, -19967.90855740411, -17888.481067237983, -15703.15101184261, -187500.02235174447, -187500.02235174447, -0.1, 0.848, 0.484, 192.0, 0.0, 0.0, 0.0, 0.0, 0.0, 0.0, 0.0, 0.0, 0.0, 1.7297046458468232E9, 0.0, 2024-10-23 23:00:45.846
147.0, -47650.27584436844, -55913.46990030645, -31011.145533459847, -19887.55403608728, -17877.238139776964, -15679.078183064245, -187500.02235174447, -187500.02235174447, -0.1, 0.848, 0.484, 192.0, 0.0, 0.0, 0.0, 0.0, 0.0, 0.0, 0.0, 0.0, 0.0, 1.7297046458508408E9, 0.0, 2024-10-23 23:00:45.850
148.0, -47623.3419922998, -55821.783044550786, -31226.70575698683, -19752.14716817703, -17860.25081399093, -15626.015141727346, -187500.02235174447, -187500.02235174447, -0.1, 0.848, 0.484, 192.0, 0.0, 0.0, 0.0, 0.0, 0.0, 0.0, 0.0, 0.0, 0.0, 1.7297046458558583E9, 0.0, 2024-10-23 23:00:45.855
149.0, -47599.537384454896, -55749.206930304405, -31528.297844922286, -19650.402027416472, -17853.321773209784, -15604.959798450447, -187500.02235174447, -187500.02235174447, -0.1, 0.848, 0.486, 192.0, 252.0, 224.0, 26.0, 128.0, 15.0, 48.0, 0.0, 0.0, 0.0, 1.7297046458598554E9, 0.0, 2024-10-23 23:00:45.859
150.0, -47641.84923670879, -55882.78095516932, -31385.559604830698, -19810.328758994194, -17864.564700670802, -15656.10058976419, -187500.02235174447, -187500.02235174447, -0.1, 0.848, 0.486, 192.0, 0.0, 0.0, 0.0, 0.0, 0.0, 0.0, 0.0, 0.0, 0.0, 1.7297046458639216E9, 0.0, 2024-10-23 23:00:45.863
151.0, -47687.558554119896, -55988.90703784311, -30999.053239709527, -19960.308964289306, -17872.20899727452, -15688.085936079735, -187500.02235174447, -187500.02235174447, -0.1, 0.848, 0.486, 192.0, 0.0, 0.0, 0.0, 0.0, 0.0, 0.0, 0.0, 0.0, 0.0, 1.7297046458678732E9, 0.0, 2024-10-23 23:00:45.867
152.0, -47658.881265983735, -55916.50973755238, -31002.629518822378, -19876.668736537547, -17861.43545644706, -15662.58259565623, -187500.02235174447, -187500.02235174447, -0.1, 0.848, 0.486, 192.0, 0.0, 0.0, 0.0, 0.0, 0.0, 0.0, 0.0, 0.0, 0.0, 1.7297046458709388E9, 0.0, 2024-10-23 23:00:45.870
153.0, -47628.34878305779, -55826.387503908576, -31221.006062150725, -19745.687514029447, -17845.47631090597, -15615.42041485553, -187500.02235174447, -187500.02235174447, -0.1, 0.848, 0.486, 192.0, 0.0, 0.0, 0.0, 0.0, 0.0, 0.0, 0.0, 0.0, 0.0, 1.7297046458749292E9, 0.0, 2024-10-23 23:00:45.874
154.0, -47608.50043398148, -55757.253558308315, -31533.10346998018, -19646.0881407366, -17845.744531839435, -15600.265932114833, -187500.02235174447, -187500.02235174447, -0.1, 0.848, 0.486, 192.0, 0.0, 0.0, 0.0, 0.0, 0.0, 0.0, 0.0, 0.0, 0.0, 1.7297046458789225E9, 0.0, 2024-10-23 23:00:45.878
155.0, -47650.32054785735, -55888.65946396106, -31385.514901341787, -19800.20341875594, -17845.67747660607, -15644.05299950278, -187500.02235174447, -187500.02235174447, -0.1, 0.848, 0.486, 192.0, 0.0, 0.0, 0.0, 0.0, 0.0, 0.0, 0.0, 0.0, 0.0, 1.7297046458829403E9, 0.0, 2024-10-23 23:00:45.882
156.0, -47702.847147327324, -55996.327817002275, -31008.79860029204, -19946.964972849488, -17860.563738413304, -15679.882845864637, -187500.02235174447, -187500.02235174447, -0.1, 0.848, 0.486, 192.0, 0.0, 0.0, 0.0, 0.0, 0.0, 0.0, 0.0, 0.0, 0.0, 1.729704645888045E9, 0.0, 2024-10-23 23:00:45.888
157.0, -47689.72667333206, -55931.7536272709, -31035.732452360688, -19877.31693712675, -17865.05643904882, -15662.895520078602, -187500.02235174447, -187500.02235174447, -0.1, 0.848, 0.486, 192.0, 0.0, 0.0, 0.0, 0.0, 0.0, 0.0, 0.0, 0.0, 0.0, 1.7297046458919935E9, 0.0, 2024-10-23 23:00:45.891
158.0, -47670.32535914485, -55850.16976000903, -31268.682333073895, -19759.992630480843, -17859.110875023707, -15626.417473127542, -187500.02235174447, -187500.02235174447, -0.1, 0.848, 0.486, 192.0, 0.0, 0.0, 0.0, 0.0, 0.0, 0.0, 0.0, 0.0, 0.0, 1.7297046458959346E9, 0.0, 2024-10-23 23:00:45.895
159.0, -47644.486742554516, -55780.70053824193, -31580.556223458796, -19667.23289099132, -17857.34508721174, -15619.756653279861, -187500.02235174447, -187500.02235174447, -0.10200000000000001, 0.844, 0.484, 192.0, 252.0, 208.0, 26.0, 96.0, 15.0, 32.0, 0.0, 0.0, 0.0, 1.729704645899959E9, 0.0, 2024-10-23 23:00:45.899
160.0, -47694.19702222312, -55923.99757194491, -31447.31747476071, -19843.185823343494, -17886.58116895928, -15689.516447724875, -187500.02235174447, -187500.02235174447, -0.10200000000000001, 0.844, 0.484, 192.0, 0.0, 0.0, 0.0, 0.0, 0.0, 0.0, 0.0, 0.0, 0.0, 1.7297046459030523E9, 0.0, 2024-10-23 23:00:45.903
161.0, -47736.53122622147, -56030.36952380771, -31068.835385898998, -19999.82684848629, -17909.558762259338, -15735.44928258053, -187500.02235174447, -187500.02235174447, -0.10200000000000001, 0.844, 0.484, 192.0, 0.0, 0.0, 0.0, 0.0, 0.0, 0.0, 0.0, 0.0, 0.0, 1.7297046459069376E9, 0.0, 2024-10-23 23:00:45.906
162.0, -47693.79469082293, -55949.724429812966, -31070.020028355128, -19917.594780635212, -17899.411070276627, -15714.595105003727, -187500.02235174447, -187500.02235174447, -0.10200000000000001, 0.844, 0.484, 192.0, 0.0, 0.0, 0.0, 0.0, 0.0, 0.0, 0.0, 0.0, 0.0, 1.729704645911049E9, 0.0, 2024-10-23 23:00:45.911
163.0, -47651.77341124695, -55849.387448953086, -31273.845586043073, -19781.33854643566, -17874.555930442326, -15661.688525878017, -187500.02235174447, -187500.02235174447, -0.10200000000000001, 0.844, 0.484, 192.0, 0.0, 0.0, 0.0, 0.0, 0.0, 0.0, 0.0, 0.0, 0.0, 1.7297046459160402E9, 0.0, 2024-10-23 23:00:45.916
164.0, -47616.36824802974, -55770.91047417051, -31563.926525584047, -19673.916062583456, -17870.800837373834, -15640.1414442231, -187500.02235174447, -187500.02235174447, -0.10200000000000001, 0.844, 0.484, 192.0, 0.0, 0.0, 0.0, 0.0, 0.0, 0.0, 0.0, 0.0, 0.0, 1.7297046459200456E9, 0.0, 2024-10-23 23:00:45.920
165.0, -47646.14077164421, -55899.92474316654, -31400.199997448923, -19828.031340602796, -17885.91061662562, -15687.05775583479, -187500.02235174447, -187500.02235174447, -0.10200000000000001, 0.844, 0.484, 192.0, 0.0, 0.0, 0.0, 0.0, 0.0, 0.0, 0.0, 0.0, 0.0, 1.7297046459239502E9, 0.0, 2024-10-23 23:00:45.923
166.0, -47689.81608030988, -56002.47454672749, -31015.504123628634, -19970.926042905576, -17905.73661395748, -15723.714616741494, -187500.02235174447, -187500.02235174447, -0.10200000000000001, 0.844, 0.484, 192.0, 0.0, 0.0, 0.0, 0.0, 0.0, 0.0, 0.0, 0.0, 0.0, 1.7297046459270968E9, 0.0, 2024-10-23 23:00:45.927
167.0, -47651.5945972913, -55920.98008644344, -31011.391402648856, -19879.574463316734, -17881.663785179113, -15689.29293028032, -187500.02235174447, -187500.02235174447, -0.10200000000000001, 0.844, 0.484, 192.0, 0.0, 0.0, 0.0, 0.0, 0.0, 0.0, 0.0, 0.0, 0.0, 1.7297046459310136E9, 0.0, 2024-10-23 23:00:45.931
168.0, -47614.982439873515, -55822.85592828464, -31216.535713259665, -19740.18898489344, -17862.06130529181, -15634.061769731257, -187500.02235174447, -187500.02235174447, -0.10200000000000001, 0.844, 0.484, 192.0, 0.0, 0.0, 0.0, 0.0, 0.0, 0.0, 0.0, 0.0, 0.0, 1.7297046459350548E9, 0.0, 2024-10-23 23:00:45.935
169.0, -47583.444128447074, -55741.67439242297, -31508.382440612608, -19633.07942546361, -17855.601651144225, -15610.100699675168, -187500.02235174447, -187500.02235174447, -0.10200000000000001, 0.84, 0.488, 192.0, 252.0, 208.0, 26.0, 64.0, 15.0, 64.0, 0.0, 0.0, 0.0, 1.7297046459390616E9, 0.0, 2024-10-23 23:00:45.939
170.0, -47631.94741391509, -55884.479687747924, -31361.889107452527, -19802.840924601667, -17874.757096142424, -15667.499979436396, -187500.02235174447, -187500.02235174447, -0.10200000000000001, 0.84, 0.488, 192.0, 0.0, 0.0, 0.0, 0.0, 0.0, 0.0, 0.0, 0.0, 0.0, 1.7297046459439628E9, 0.0, 2024-10-23 23:00:45.943
171.0, -47681.27771392796, -55989.51053494341, -30986.715076770197, -19949.982458350954, -17889.509247482925, -15701.854610664202, -187500.02235174447, -187500.02235174447, -0.10200000000000001, 0.84, 0.488, 192.0, 0.0, 0.0, 0.0, 0.0, 0.0, 0.0, 0.0, 0.0, 0.0, 1.7297046459480777E9, 0.0, 2024-10-23 23:00:45.948
172.0, -47653.00275719199, -55914.92276369605, -30995.544015830044, -19866.006954432363, -17872.097238552244, -15672.283252749832, -187500.02235174447, -187500.02235174447, -0.10200000000000001, 0.84, 0.488, 192.0, 0.0, 0.0, 0.0, 0.0, 0.0, 0.0, 0.0, 0.0, 0.0, 1.7297046459520605E9, 0.0, 2024-10-23 23:00:45.952
173.0, -47625.33129755632, -55826.320448675215, -31208.712602700307, -19738.244383125828, -17854.707581366012, -15623.914077748548, -187500.02235174447, -187500.02235174447, -0.10200000000000001, 0.84, 0.488, 192.0, 0.0, 0.0, 0.0, 0.0, 0.0, 0.0, 0.0, 0.0, 0.0, 1.7297046459561217E9, 0.0, 2024-10-23 23:00:45.956
174.0, -47588.47327094952, -55746.10003782512, -31490.2328241149, -19630.956009740356, -17840.849499803724, -15593.918036689525, -187500.02235174447, -187500.02235174447, -0.10200000000000001, 0.84, 0.488, 192.0, 0.0, 0.0, 0.0, 0.0, 0.0, 0.0, 0.0, 0.0, 0.0, 1.7297046459600298E9, 0.0, 2024-10-23 23:00:45.960
175.0, -47617.284669552406, -55874.60021669867, -31318.01263308676, -19784.311328448217, -17837.519089879883, -15631.42426388553, -187500.02235174447, -187500.02235174447, -0.10200000000000001, 0.84, 0.488, 192.0, 0.0, 0.0, 0.0, 0.0, 0.0, 0.0, 0.0, 0.0, 0.0, 1.7297046459631326E9, 0.0, 2024-10-23 23:00:45.963
176.0, -47659.48476308403, -55975.20541849201, -30931.17099179876, -19923.361530704682, -17842.481177148962, -15658.201653742988, -187500.02235174447, -187500.02235174447, -0.10200000000000001, 0.84, 0.488, 192.0, 0.0, 0.0, 0.0, 0.0, 0.0, 0.0, 0.0, 0.0, 0.0, 1.7297046459670799E9, 0.0, 2024-10-23 23:00:45.967
177.0, -47645.64903326619, -55912.3970165726, -30947.957151884697, -19847.365599556637, -17841.877680048667, -15642.913060535559, -187500.02235174447, -187500.02235174447, -0.10200000000000001, 0.84, 0.488, 192.0, 0.0, 0.0, 0.0, 0.0, 0.0, 0.0, 0.0, 0.0, 0.0, 1.7297046459720886E9, 0.0, 2024-10-23 23:00:45.972
178.0, -47629.66753598065, -55839.35151569266, -31178.515395941187, -19736.836223225146, -17844.112854494197, -15615.42041485553, -187500.02235174447, -187500.02235174447, -0.10200000000000001, 0.84, 0.488, 192.0, 0.0, 0.0, 0.0, 0.0, 0.0, 0.0, 0.0, 0.0, 0.0, 1.7297046459760168E9, 0.0, 2024-10-23 23:00:45.976
179.0, -47601.12435831122, -55768.20591309141, -31475.637134985584, -19642.020123245733, -17837.206165457508, -15599.796545481271, -187500.02235174447, -187500.02235174447, -0.10200000000000001, 0.846, 0.484, 192.0, 252.0, 208.0, 26.0, 112.0, 15.0, 32.0, 0.0, 0.0, 0.0, 1.729704645980059E9, 0.0, 2024-10-23 23:00:45.980
180.0, -47637.46829479555, -55901.51171702287, -31326.685109935417, -19805.567837425213, -17848.449092918527, -15656.10058976419, -187500.02235174447, -187500.02235174447, -0.10200000000000001, 0.846, 0.484, 192.0, 0.0, 0.0, 0.0, 0.0, 0.0, 0.0, 0.0, 0.0, 0.0, 1.7297046459830847E9, 0.0, 2024-10-23 23:00:45.983
181.0, -47689.48080414305, -56007.883668885675, -30974.533376042054, -19959.52665323337, -17873.505398452926, -15705.341482799231, -187500.02235174447, -187500.02235174447, -0.10200000000000001, 0.846, 0.484, 192.0, 0.0, 0.0, 0.0, 0.0, 0.0, 0.0, 0.0, 0.0, 0.0, 1.7297046459871492E9, 0.0, 2024-10-23 23:00:45.987
182.0, -47663.44102185262, -55929.0490661918, -31014.5206468726, -19883.575425574236, -17873.572453686294, -15689.359985513687, -187500.02235174447, -187500.02235174447, -0.10200000000000001, 0.846, 0.484, 192.0, 0.0, 0.0, 0.0, 0.0, 0.0, 0.0, 0.0, 0.0, 0.0, 1.7297046459910574E9, 0.0, 2024-10-23 23:00:45.991
183.0, -47641.0445739084, -55846.794646596274, -31245.19064965137, -19775.504741132827, -17878.06515432181, -15661.33089796673, -187500.02235174447, -187500.02235174447, -0.10200000000000001, 0.846, 0.484, 192.0, 0.0, 0.0, 0.0, 0.0, 0.0, 0.0, 0.0, 0.0, 0.0, 1.7297046459952252E9, 0.0, 2024-10-23 23:00:45.995
184.0, -47620.637431220704, -55784.165058632505, -31530.577722856728, -19700.89461814101, -17891.05151785034, -15661.57676715574, -187500.02235174447, -187500.02235174447, -0.10200000000000001, 0.846, 0.484, 192.0, 0.0, 0.0, 0.0, 0.0, 0.0, 0.0, 0.0, 0.0, 0.0, 1.7297046459990723E9, 0.0, 2024-10-23 23:00:45.999
185.0, -47643.41385882066, -55895.655559975574, -31366.895898210514, -19849.891346680088, -17893.666671951614, -15702.167535086577, -187500.02235174447, -187500.02235174447, -0.10200000000000001, 0.846, 0.484, 192.0, 0.0, 0.0, 0.0, 0.0, 0.0, 0.0, 0.0, 0.0, 0.0, 1.729704646005061E9, 0.0, 2024-10-23 23:00:46.005
186.0, -47673.34284464632, -55971.42797367906, -31033.989016293173, -19971.44013302805, -17903.859067423233, -15723.82637546377, -187500.02235174447, -187500.02235174447, -0.10200000000000001, 0.846, 0.484, 192.0, 0.0, 0.0, 0.0, 0.0, 0.0, 0.0, 0.0, 0.0, 0.0, 1.729704646008052E9, 0.0, 2024-10-23 23:00:46.008
187.0, -47644.30792859888, -55900.416481544555, -31067.15900506485, -19897.969949003455, -17900.439250521573, -15702.34634904222, -187500.02235174447, -187500.02235174447, -0.10200000000000001, 0.846, 0.484, 192.0, 0.0, 0.0, 0.0, 0.0, 0.0, 0.0, 0.0, 0.0, 0.0, 1.7297046460112185E9, 0.0, 2024-10-23 23:00:46.011
188.0, -47618.9386986421, -55826.09693123066, -31269.397588896467, -19785.697136604445, -17889.30808178283, -15658.894557821102, -187500.02235174447, -187500.02235174447, -0.10200000000000001, 0.846, 0.484, 192.0, 0.0, 0.0, 0.0, 0.0, 0.0, 0.0, 0.0, 0.0, 0.0, 1.7297046460161233E9, 0.0, 2024-10-23 23:00:46.016
189.0, -47592.809509373845, -55763.86967466708, -31530.063632734258, -19696.13369657203, -17891.11857308371, -15642.734246579916, -187500.02235174447, -187500.02235174447, -0.098, 0.854, 0.488, 192.0, 252.0, 240.0, 26.0, 176.0, 15.0, 64.0, 0.0, 0.0, 0.0, 1.7297046460200992E9, 0.0, 2024-10-23 23:00:46.020
190.0, -47622.4926260105, -55885.77608892633, -31369.600459289606, -19846.337419311694, -17899.232256320985, -15683.682642422038, -187500.02235174447, -187500.02235174447, -0.098, 0.854, 0.488, 192.0, 0.0, 0.0, 0.0, 0.0, 0.0, 0.0, 0.0, 0.0, 0.0, 1.7297046460241132E9, 0.0, 2024-10-23 23:00:46.024
191.0, -47661.20584740709, -55973.03729927985, -31047.578876921998, -19967.23800507045, -17904.149640101154, -15695.216142560977, -187500.02235174447, -187500.02235174447, -0.098, 0.854, 0.488, 192.0, 0.0, 0.0, 0.0, 0.0, 0.0, 0.0, 0.0, 0.0, 0.0, 1.7297046460271063E9, 0.0, 2024-10-23 23:00:46.027
192.0, -47634.271995338444, -55905.49032753591, -31077.954897636762, -19883.821294763246, -17888.63752944917, -15664.348383468197, -187500.02235174447, -187500.02235174447, -0.098, 0.854, 0.488, 192.0, 0.0, 0.0, 0.0, 0.0, 0.0, 0.0, 0.0, 0.0, 0.0, 1.7297046460311277E9, 0.0, 2024-10-23 23:00:46.031
193.0, -47607.80752990336, -55831.43899815548, -31274.784359310193, -19764.284165416262, -17878.288671766364, -15622.394159125586, -187500.02235174447, -187500.02235174447, -0.098, 0.854, 0.488, 192.0, 0.0, 0.0, 0.0, 0.0, 0.0, 0.0, 0.0, 0.0, 0.0, 1.7297046460351136E9, 0.0, 2024-10-23 23:00:46.035
194.0, -47581.074843534814, -55769.36820380309, -31528.834286789217, -19670.630356148526, -17870.465561207006, -15603.573990294219, -187500.02235174447, -187500.02235174447, -0.098, 0.854, 0.488, 192.0, 0.0, 0.0, 0.0, 0.0, 0.0, 0.0, 0.0, 0.0, 0.0, 1.7297046460392191E9, 0.0, 2024-10-23 23:00:46.039
195.0, -47619.85512016477, -55897.421347787546, -31372.26031687979, -19822.15283181105, -17877.39460198815, -15645.975249525936, -187500.02235174447, -187500.02235174447, -0.098, 0.854, 0.488, 192.0, 0.0, 0.0, 0.0, 0.0, 0.0, 0.0, 0.0, 0.0, 0.0, 1.7297046460442855E9, 0.0, 2024-10-23 23:00:46.044
196.0, -47659.70828052858, -55980.03339529436, -31054.329103747503, -19938.359551234193, -17886.469410237005, -15668.505807936885, -187500.02235174447, -187500.02235174447, -0.098, 0.854, 0.488, 192.0, 0.0, 0.0, 0.0, 0.0, 0.0, 0.0, 0.0, 0.0, 0.0, 1.729704646048131E9, 0.0, 2024-10-23 23:00:46.048
197.0, -47631.43332379262, -55907.39022581461, -31085.44273202929, -19851.88065193661, -17875.271186264898, -15643.181281469022, -187500.02235174447, -187500.02235174447, -0.098, 0.854, 0.488, 192.0, 0.0, 0.0, 0.0, 0.0, 0.0, 0.0, 0.0, 0.0, 0.0, 1.729704646052182E9, 0.0, 2024-10-23 23:00:46.052
198.0, -47607.3381432698, -55832.51188188933, -31282.09337974708, -19736.590354036136, -17868.744476883945, -15602.903437960558, -187500.02235174447, -187500.02235174447, -0.098, 0.854, 0.488, 192.0, 0.0, 0.0, 0.0, 0.0, 0.0, 0.0, 0.0, 0.0, 0.0, 1.729704646055138E9, 0.0, 2024-10-23 23:00:46.055
199.0, -47578.839669089284, -55768.51883751379, -31530.018929245347, -19646.26695469224, -17861.43545644706, -15586.072574385713, -187500.02235174447, -187500.02235174447, -0.088, 0.844, 0.482, 192.0, 253.0, 64.0, 26.0, 96.0, 15.0, 16.0, 0.0, 0.0, 0.0, 1.729704646059162E9, 0.0, 2024-10-23 23:00:46.059
200.0, -47614.17777707312, -55894.403862286075, -31363.11845339757, -19800.739860622867, -17859.714372124003, -15632.027760985824, -187500.02235174447, -187500.02235174447, -0.088, 0.844, 0.482, 192.0, 0.0, 0.0, 0.0, 0.0, 0.0, 0.0, 0.0, 0.0, 0.0, 1.729704646063141E9, 0.0, 2024-10-23 23:00:46.063
201.0, -47658.97067296156, -55984.30257848532, -31048.271781000112, -19929.016522051876, -17867.559834427815, -15665.689488135517, -187500.02235174447, -187500.02235174447, -0.088, 0.844, 0.482, 192.0, 0.0, 0.0, 0.0, 0.0, 0.0, 0.0, 0.0, 0.0, 0.0, 1.729704646067161E9, 0.0, 2024-10-23 23:00:46.067
202.0, -47636.015431405955, -55918.56609804226, -31085.10745586246, -19856.328649083218, -17864.899976837634, -15653.53013915183, -187500.02235174447, -187500.02235174447, -0.088, 0.844, 0.482, 192.0, 0.0, 0.0, 0.0, 0.0, 0.0, 0.0, 0.0, 0.0, 0.0, 1.7297046460721686E9, 0.0, 2024-10-23 23:00:46.072
203.0, -47619.5421957424, -55850.6838501315, -31290.251766473266, -19753.77884552227, -17862.038953547355, -15630.776063296327, -187500.02235174447, -187500.02235174447, -0.088, 0.844, 0.482, 192.0, 0.0, 0.0, 0.0, 0.0, 0.0, 0.0, 0.0, 0.0, 0.0, 1.729704646076178E9, 0.0, 2024-10-23 23:00:46.076
204.0, -47599.1350530547, -55792.12227965859, -31552.30361846729, -19678.22994926333, -17874.15359904213, -15635.33581916521, -187500.02235174447, -187500.02235174447, -0.088, 0.844, 0.482, 192.0, 0.0, 0.0, 0.0, 0.0, 0.0, 0.0, 0.0, 0.0, 0.0, 1.7297046460802035E9, 0.0, 2024-10-23 23:00:46.080
205.0, -47627.43236153512, -55912.91110669507, -31386.11839844208, -19831.987599371387, -17879.562721200316, -15687.951825613001, -187500.02235174447, -187500.02235174447, -0.088, 0.844, 0.482, 192.0, 0.0, 0.0, 0.0, 0.0, 0.0, 0.0, 0.0, 0.0, 0.0, 1.7297046460832963E9, 0.0, 2024-10-23 23:00:46.083
206.0, -47668.76073703298, -56000.97697984898, -31079.67598195982, -19960.53248173386, -17897.8240964203, -15726.955619687513, -187500.02235174447, -187500.02235174447, -0.088, 0.844, 0.482, 192.0, 0.0, 0.0, 0.0, 0.0, 0.0, 0.0, 0.0, 0.0, 0.0, 1.7297046460872016E9, 0.0, 2024-10-23 23:00:46.087
207.0, -47650.074678668345, -55937.58743257373, -31129.20744767278, -19894.393669890604, -17904.104936612242, -15720.563020773296, -187500.02235174447, -187500.02235174447, -0.088, 0.844, 0.482, 192.0, 0.0, 0.0, 0.0, 0.0, 0.0, 0.0, 0.0, 0.0, 0.0, 1.72970464609119E9, 0.0, 2024-10-23 23:00:46.091
208.0, -47625.91244291216, -55855.82475135622, -31329.456726247878, -19782.120857491598, -17899.411070276627, -15684.643767433618, -187500.02235174447, -187500.02235174447, -0.088, 0.844, 0.482, 192.0, 0.0, 0.0, 0.0, 0.0, 0.0, 0.0, 0.0, 0.0, 0.0, 1.729704646095178E9, 0.0, 2024-10-23 23:00:46.095
209.0, -47596.721064653524, -55787.33900634516, -31580.735037414437, -19695.03846109372, -17901.44507902206, -15673.289081250321, -187500.02235174447, -187500.02235174447, -0.094, 0.844, 0.486, 192.0, 253.0, 16.0, 26.0, 96.0, 15.0, 48.0, 0.0, 0.0, 0.0, 1.7297046460992455E9, 0.0, 2024-10-23 23:00:46.099
210.0, -47631.36626855925, -55908.55251652629, -31419.2660354693, -19847.611468745647, -17914.96788441752, -15721.59120101824, -187500.02235174447, -187500.02235174447, -0.094, 0.844, 0.486, 192.0, 0.0, 0.0, 0.0, 0.0, 0.0, 0.0, 0.0, 0.0, 0.0, 1.7297046461042345E9, 0.0, 2024-10-23 23:00:46.104
211.0, -47674.01339697998, -55990.78458437736, -31112.667156775853, -19968.13207484866, -17932.759873003946, -15751.766056032904, -187500.02235174447, -187500.02235174447, -0.094, 0.844, 0.486, 192.0, 0.0, 0.0, 0.0, 0.0, 0.0, 0.0, 0.0, 0.0, 0.0, 1.7297046461082284E9, 0.0, 2024-10-23 23:00:46.108
212.0, -47648.48770481202, -55920.46599632096, -31145.568924614065, -19889.498637854893, -17924.109747899744, -15723.893430697135, -187500.02235174447, -187500.02235174447, -0.094, 0.844, 0.486, 192.0, 0.0, 0.0, 0.0, 0.0, 0.0, 0.0, 0.0, 0.0, 0.0, 1.729704646111252E9, 0.0, 2024-10-23 23:00:46.111
213.0, -47632.37209705974, -55850.437980942486, -31342.241924076312, -19778.656337101023, -17916.55485827385, -15679.212293530976, -187500.02235174447, -187500.02235174447, -0.094, 0.844, 0.486, 192.0, 0.0, 0.0, 0.0, 0.0, 0.0, 0.0, 0.0, 0.0, 0.0, 1.7297046461152294E9, 0.0, 2024-10-23 23:00:46.115
214.0, -47611.02618110492, -55792.43520408097, -31588.11111308469, -19689.338766257617, -17913.06798613882, -15656.771142097848, -187500.02235174447, -187500.02235174447, -0.094, 0.844, 0.486, 192.0, 0.0, 0.0, 0.0, 0.0, 0.0, 0.0, 0.0, 0.0, 0.0, 1.7297046461192307E9, 0.0, 2024-10-23 23:00:46.119
215.0, -47641.31279484186, -55917.15793814158, -31410.995890020837, -19838.916640152533, -17910.65399773765, -15688.1529913131, -187500.02235174447, -187500.02235174447, -0.094, 0.844, 0.486, 192.0, 0.0, 0.0, 0.0, 0.0, 0.0, 0.0, 0.0, 0.0, 0.0, 1.7297046461232495E9, 0.0, 2024-10-23 23:00:46.123
216.0, -47678.08141447084, -55997.95949434752, -31092.4388280438, -19950.630658940157, -17909.35759655924, -15701.809907175293, -187500.02235174447, -187500.02235174447, -0.094, 0.844, 0.486, 192.0, 0.0, 0.0, 0.0, 0.0, 0.0, 0.0, 0.0, 0.0, 0.0, 1.729704646127257E9, 0.0, 2024-10-23 23:00:46.127
217.0, -47648.21948387855, -55924.08697892273, -31121.764316769164, -19865.425809076525, -17897.01943361991, -15671.210369015977, -187500.02235174447, -187500.02235174447, -0.094, 0.844, 0.486, 192.0, 0.0, 0.0, 0.0, 0.0, 0.0, 0.0, 0.0, 0.0, 0.0, 1.7297046461323097E9, 0.0, 2024-10-23 23:00:46.132
218.0, -47630.44984703659, -55853.656632144055, -31316.4927144638, -19750.135511176053, -17884.435401491573, -15628.652647573073, -187500.02235174447, -187500.02235174447, -0.094, 0.844, 0.486, 192.0, 0.0, 0.0, 0.0, 0.0, 0.0, 0.0, 0.0, 0.0, 0.0, 1.729704646136331E9, 0.0, 2024-10-23 23:00:46.136
219.0, -47604.90180312417, -55789.86475346861, -31561.065502293768, -19661.08616126611, -17882.960186357523, -15615.129842177612, -187500.02235174447, -187500.02235174447, -0.094, 0.844, 0.486, 192.0, 0.0, 0.0, 0.0, 0.0, 0.0, 0.0, 0.0, 0.0, 0.0, 1.729704646139278E9, 0.0, 2024-10-23 23:00:46.139
220.0, -47642.43038206463, -55915.5486125408, -31392.220424678377, -19816.855468375143, -17888.414012004618, -15664.460142190474, -187500.02235174447, -187500.02235174447, -0.096, 0.84, 0.486, 192.0, 253.0, 0.0, 26.0, 64.0, 15.0, 48.0, 0.0, 0.0, 0.0, 1.7297046461442533E9, 0.0, 2024-10-23 23:00:46.144
221.0, -47685.27867618545, -55998.22771528098, -31085.330973307013, -19939.38773147914, -17901.668596466614, -15694.72440418296, -187500.02235174447, -187500.02235174447, -0.096, 0.84, 0.486, 192.0, 0.0, 0.0, 0.0, 0.0, 0.0, 0.0, 0.0, 0.0, 0.0, 1.7297046461473E9, 0.0, 2024-10-23 23:00:46.147
222.0, -47657.540161316414, -55924.48931032292, -31117.651595789386, -19857.7368089839, -17891.029166105887, -15671.456238204986, -187500.02235174447, -187500.02235174447, -0.096, 0.84, 0.486, 192.0, 0.0, 0.0, 0.0, 0.0, 0.0, 0.0, 0.0, 0.0, 0.0, 1.7297046461513033E9, 0.0, 2024-10-23 23:00:46.151
223.0, -47647.25835886697, -55856.71882113443, -31315.62099643004, -19754.695267044935, -17881.932006112576, -15639.448540144986, -187500.02235174447, -187500.02235174447, -0.096, 0.84, 0.486, 192.0, 0.0, 0.0, 0.0, 0.0, 0.0, 0.0, 0.0, 0.0, 0.0, 1.7297046461553106E9, 0.0, 2024-10-23 23:00:46.155
224.0, -47616.52471024093, -55792.94929420344, -31553.421205690054, -19666.9423183134, -17868.67742165058, -15622.796490525781, -187500.02235174447, -187500.02235174447, -0.096, 0.84, 0.486, 192.0, 0.0, 0.0, 0.0, 0.0, 0.0, 0.0, 0.0, 0.0, 0.0, 1.7297046461593204E9, 0.0, 2024-10-23 23:00:46.159
225.0, -47651.70635601358, -55923.10350216669, -31386.11839844208, -19827.58430571369, -17880.00975608942, -15676.664194663072, -187500.02235174447, -187500.02235174447, -0.096, 0.84, 0.486, 192.0, 0.0, 0.0, 0.0, 0.0, 0.0, 0.0, 0.0, 0.0, 0.0, 1.7297046461642864E9, 0.0, 2024-10-23 23:00:46.164
226.0, -47692.520641388975, -56006.78843340736, -31079.877147659918, -19948.19431879453, -17891.49855273945, -15705.877924666158, -187500.02235174447, -187500.02235174447, -0.096, 0.84, 0.486, 192.0, 0.0, 0.0, 0.0, 0.0, 0.0, 0.0, 0.0, 0.0, 0.0, 1.729704646167323E9, 0.0, 2024-10-23 23:00:46.167
227.0, -47666.83848700982, -55936.96158372898, -31118.59036905651, -19874.07593418073, -17877.72987815498, -15681.223950531954, -187500.02235174447, -187500.02235174447, -0.096, 0.84, 0.486, 192.0, 0.0, 0.0, 0.0, 0.0, 0.0, 0.0, 0.0, 0.0, 0.0, 1.7297046461713512E9, 0.0, 2024-10-23 23:00:46.171
228.0, -47641.78218147543, -55861.30092874777, -31316.33625225261, -19769.33565966316, -17868.811532117314, -15650.62441237264, -187500.02235174447, -187500.02235174447, -0.096, 0.84, 0.486, 192.0, 0.0, 0.0, 0.0, 0.0, 0.0, 0.0, 0.0, 0.0, 0.0, 1.7297046461753197E9, 0.0, 2024-10-23 23:00:46.175
229.0, -47614.17777707312, -55800.101852429136, -31568.978019830945, -19690.590463947115, -17875.181779287075, -15650.780874583827, -187500.02235174447, -187500.02235174447, -0.096, 0.84, 0.486, 192.0, 0.0, 0.0, 0.0, 0.0, 0.0, 0.0, 0.0, 0.0, 0.0, 1.729704646179318E9, 0.0, 2024-10-23 23:00:46.179
230.0, -47656.020242693456, -55935.03933370583, -31411.88995979905, -19865.78343698781, -17894.471334752005, -15714.863325937193, -187500.02235174447, -187500.02235174447, -0.092, 0.846, 0.49, 192.0, 253.0, 32.0, 26.0, 112.0, 15.0, 80.0, 0.0, 0.0, 0.0, 1.729704646183334E9, 0.0, 2024-10-23 23:00:46.183
231.0, -47691.313647188384, -56011.81757590981, -31108.956767196272, -19985.745249479445, -17909.96109365953, -15745.619326307695, -187500.02235174447, -187500.02235174447, -0.092, 0.846, 0.49, 192.0, 0.0, 0.0, 0.0, 0.0, 0.0, 0.0, 0.0, 0.0, 0.0, 1.7297046461883152E9, 0.0, 2024-10-23 23:00:46.188
232.0, -47658.16601016116, -55934.12291218316, -31148.36289267098, -19904.049623495295, -17908.240009336474, -15726.709750498505, -187500.02235174447, -187500.02235174447, -0.092, 0.846, 0.49, 192.0, 0.0, 0.0, 0.0, 0.0, 0.0, 0.0, 0.0, 0.0, 0.0, 1.7297046461927617E9, 0.0, 2024-10-23 23:00:46.192
233.0, -47632.95324241558, -55852.85196934366, -31345.795851444705, -19793.922578563997, -17908.35176805875, -15692.19865705951, -187500.02235174447, -187500.02235174447, -0.092, 0.846, 0.49, 192.0, 0.0, 0.0, 0.0, 0.0, 0.0, 0.0, 0.0, 0.0, 0.0, 1.729704646195335E9, 0.0, 2024-10-23 23:00:46.195
234.0, -47604.65593393516, -55781.68401499796, -31589.63103170765, -19704.828525165143, -17907.569457002814, -15675.524255695851, -187500.02235174447, -187500.02235174447, -0.092, 0.846, 0.49, 192.0, 0.0, 0.0, 0.0, 0.0, 0.0, 0.0, 0.0, 0.0, 0.0, 1.7297046461996276E9, 0.0, 2024-10-23 23:00:46.199
235.0, -47641.87158845325, -55905.53503102482, -31416.717936601395, -19861.178977630017, -17911.771584960414, -15716.182078860054, -187500.02235174447, -187500.02235174447, -0.092, 0.846, 0.49, 192.0, 0.0, 0.0, 0.0, 0.0, 0.0, 0.0, 0.0, 0.0, 0.0, 1.729704646203332E9, 0.0, 2024-10-23 23:00:46.203
236.0, -47680.853030783306, -55983.78848836285, -31106.83335147302, -19970.47900801647, -17925.294390355873, -15738.01973319289, -187500.02235174447, -187500.02235174447, -0.092, 0.846, 0.49, 192.0, 0.0, 0.0, 0.0, 0.0, 0.0, 0.0, 0.0, 0.0, 0.0, 1.729704646207375E9, 0.0, 2024-10-23 23:00:46.207
237.0, -47654.16504790367, -55914.65454276259, -31138.461069877278, -19886.056469208776, -17907.949436658553, -15706.101442110712, -187500.02235174447, -187500.02235174447, -0.092, 0.846, 0.49, 192.0, 0.0, 0.0, 0.0, 0.0, 0.0, 0.0, 0.0, 0.0, 0.0, 1.7297046462114172E9, 0.0, 2024-10-23 23:00:46.211
238.0, -47632.90853892667, -55840.446751170966, -31327.15449656898, -19770.855578286122, -17893.711375440525, -15656.748790353393, -187500.02235174447, -187500.02235174447, -0.092, 0.846, 0.49, 192.0, 0.0, 0.0, 0.0, 0.0, 0.0, 0.0, 0.0, 0.0, 0.0, 1.7297046462154126E9, 0.0, 2024-10-23 23:00:46.215
239.0, -47614.647163706686, -55784.47798305488, -31572.24137452142, -19683.90729235498, -17891.833828906278, -15639.247374444889, -187500.02235174447, -187500.02235174447, -0.092, 0.846, 0.49, 192.0, 0.0, 0.0, 0.0, 0.0, 0.0, 0.0, 0.0, 0.0, 0.0, 1.729704646220438E9, 0.0, 2024-10-23 23:00:46.220
240.0, -47647.45952456707, -55917.38145558613, -31395.550834602218, -19839.989523886386, -17892.705546940037, -15679.547569697806, -187500.02235174447, -187500.02235174447, -0.094, 0.846, 0.486, 192.0, 253.0, 16.0, 26.0, 112.0, 15.0, 48.0, 0.0, 0.0, 0.0, 1.7297046462233474E9, 0.0, 2024-10-23 23:00:46.223
241.0, -47680.65186508321, -55990.87399135518, -31077.977249381216, -19943.90278385911, -17892.571436473303, -15693.67387219356, -187500.02235174447, -187500.02235174447, -0.094, 0.846, 0.486, 192.0, 0.0, 0.0, 0.0, 0.0, 0.0, 0.0, 0.0, 0.0, 0.0, 1.7297046462273908E9, 0.0, 2024-10-23 23:00:46.227
242.0, -47659.12713517274, -55919.97425794295, -31113.00243294268, -19858.876747951123, -17882.557854957326, -15667.522331180851, -187500.02235174447, -187500.02235174447, -0.094, 0.846, 0.486, 192.0, 0.0, 0.0, 0.0, 0.0, 0.0, 0.0, 0.0, 0.0, 0.0, 1.729704646231372E9, 0.0, 2024-10-23 23:00:46.231
243.0, -47642.13980938671, -55847.82282684122, -31309.317804493643, -19749.017923953288, -17880.747363656446, -15636.609868599162, -187500.02235174447, -187500.02235174447, -0.094, 0.846, 0.486, 192.0, 0.0, 0.0, 0.0, 0.0, 0.0, 0.0, 0.0, 0.0, 0.0, 1.7297046462353888E9, 0.0, 2024-10-23 23:00:46.235
244.0, -47622.38086728822, -55784.723852243886, -31555.05288303529, -19659.387428687507, -17879.428610733583, -15625.590458582696, -187500.02235174447, -187500.02235174447, -0.094, 0.846, 0.486, 192.0, 0.0, 0.0, 0.0, 0.0, 0.0, 0.0, 0.0, 0.0, 0.0, 1.7297046462394223E9, 0.0, 2024-10-23 23:00:46.239
245.0, -47662.85987649678, -55913.22403111745, -31381.87156699557, -19819.91765736552, -17885.284767780875, -15673.020860316858, -187500.02235174447, -187500.02235174447, -0.094, 0.846, 0.486, 192.0, 0.0, 0.0, 0.0, 0.0, 0.0, 0.0, 0.0, 0.0, 0.0, 1.729704646243402E9, 0.0, 2024-10-23 23:00:46.243
246.0, -47698.86853681428, -55989.57759017678, -31074.110397590448, -19931.60932440869, -17889.799820160846, -15695.193790816522, -187500.02235174447, -187500.02235174447, -0.094, 0.846, 0.486, 192.0, 0.0, 0.0, 0.0, 0.0, 0.0, 0.0, 0.0, 0.0, 0.0, 1.729704646248438E9, 0.0, 2024-10-23 23:00:46.248
247.0, -47663.351614874795, -55912.531127039336, -31102.11713339295, -19845.68921872249, -17870.28674725136, -15663.431961945531, -187500.02235174447, -187500.02235174447, -0.094, 0.846, 0.486, 192.0, 0.0, 0.0, 0.0, 0.0, 0.0, 0.0, 0.0, 0.0, 0.0, 1.72970464625143E9, 0.0, 2024-10-23 23:00:46.251
248.0, -47647.19130363361, -55844.29125121728, -31299.57244391113, -19739.51843255978, -17867.470427449993, -15628.719702806438, -187500.02235174447, -187500.02235174447, -0.094, 0.846, 0.486, 192.0, 0.0, 0.0, 0.0, 0.0, 0.0, 0.0, 0.0, 0.0, 0.0, 1.7297046462554195E9, 0.0, 2024-10-23 23:00:46.255
249.0, -47623.029067877425, -55778.912398685505, -31540.97128402845, -19653.26305070675, -17861.144883769142, -15612.268818887333, -187500.02235174447, -187500.02235174447, -0.094, 0.846, 0.486, 192.0, 0.0, 0.0, 0.0, 0.0, 0.0, 0.0, 0.0, 0.0, 0.0, 1.7297046462593908E9, 0.0, 2024-10-23 23:00:46.259
250.0, -47660.222370651056, -55907.18906011451, -31366.135938899035, -19818.196573042464, -17863.35770647022, -15664.19192125701, -187500.02235174447, -187500.02235174447, -0.098, 0.846, 0.482, 192.0, 252.0, 240.0, 26.0, 112.0, 15.0, 16.0, 0.0, 0.0, 0.0, 1.729704646263434E9, 0.0, 2024-10-23 23:00:46.263
251.0, -47696.05221701291, -55985.62133140818, -31062.331028262503, -19939.007751823396, -17877.10402931023, -15703.128660098155, -187500.02235174447, -187500.02235174447, -0.098, 0.846, 0.482, 192.0, 0.0, 0.0, 0.0, 0.0, 0.0, 0.0, 0.0, 0.0, 0.0, 1.7297046462675562E9, 0.0, 2024-10-23 23:00:46.267
252.0, -47662.01051020748, -55909.78186247133, -31102.988851426704, -19859.41318981805, -17878.713354911015, -15693.472706493463, -187500.02235174447, -187500.02235174447, -0.098, 0.846, 0.482, 192.0, 0.0, 0.0, 0.0, 0.0, 0.0, 0.0, 0.0, 0.0, 0.0, 1.7297046462715065E9, 0.0, 2024-10-23 23:00:46.271
253.0, -47644.71025999907, -55840.98319303789, -31312.424696972932, -19762.227804926373, -17891.699718439548, -15680.24047377592, -187500.02235174447, -187500.02235174447, -0.098, 0.846, 0.482, 192.0, 0.0, 0.0, 0.0, 0.0, 0.0, 0.0, 0.0, 0.0, 0.0, 1.7297046462764797E9, 0.0, 2024-10-23 23:00:46.276
254.0, -47620.32450679833, -55782.622788265086, -31562.51836568336, -19684.33197549963, -17892.079698095287, -15676.015994073869, -187500.02235174447, -187500.02235174447, -0.098, 0.846, 0.482, 192.0, 0.0, 0.0, 0.0, 0.0, 0.0, 0.0, 0.0, 0.0, 0.0, 1.729704646279499E9, 0.0, 2024-10-23 23:00:46.279
255.0, -47651.16991414665, -55911.70411249449, -31388.44297986543, -19849.26549783534, -17897.64528246466, -15721.904125440613, -187500.02235174447, -187500.02235174447, -0.098, 0.846, 0.482, 192.0, 0.0, 0.0, 0.0, 0.0, 0.0, 0.0, 0.0, 0.0, 0.0, 1.7297046462834444E9, 0.0, 2024-10-23 23:00:46.283
0.0, -47678.48374587104, -55983.050880795825, -31085.66624947384, -19961.270089300884, -17910.050500637353, -15746.222823407988, -187500.02235174447, -187500.02235174447, -0.098, 0.846, 0.482, 192.0, 0.0, 0.0, 0.0, 0.0, 0.0, 0.0, 0.0, 0.0, 0.0, 1.729704646287469E9, 0.0, 2024-10-23 23:00:46.287
1.0, -47649.649995523694, -55908.37370257064, -31127.911046494373, -19880.468533094947, -17902.272093566906, -15723.334637085753, -187500.02235174447, -187500.02235174447, -0.098, 0.846, 0.482, 192.0, 0.0, 0.0, 0.0, 0.0, 0.0, 0.0, 0.0, 0.0, 0.0, 1.7297046462915037E9, 0.0, 2024-10-23 23:00:46.291
2.0, -47630.58395750332, -55836.49049240238, -31327.288607035713, -19772.040220742252, -17900.752174943947, -15685.157857556089, -187500.02235174447, -187500.02235174447, -0.098, 0.846, 0.482, 192.0, 0.0, 0.0, 0.0, 0.0, 0.0, 0.0, 0.0, 0.0, 0.0, 1.7297046462954884E9, 0.0, 2024-10-23 23:00:46.295
3.0, -47606.06409383585, -55771.89395092654, -31574.655362922596, -19685.494266211303, -17900.1263260992, -15668.304642236788, -187500.02235174447, -187500.02235174447, -0.098, 0.846, 0.482, 192.0, 0.0, 0.0, 0.0, 0.0, 0.0, 0.0, 0.0, 0.0, 0.0, 1.7297046462995355E9, 0.0, 2024-10-23 23:00:46.299
4.0, -47640.79870471939, -55897.980141398926, -31399.708259070907, -19846.560936756247, -17906.29540756886, -15711.86819218018, -187500.02235174447, -187500.02235174447, -0.098, 0.848, 0.488, 192.0, 252.0, 240.0, 26.0, 128.0, 15.0, 64.0, 0.0, 0.0, 0.0, 1.7297046463045123E9, 0.0, 2024-10-23 23:00:46.304
5.0, -47681.85885928379, -55979.139325516146, -31105.916929950352, -19963.14763583513, -17920.399358320163, -15736.410407592108, -187500.02235174447, -187500.02235174447, -0.098, 0.848, 0.488, 192.0, 0.0, 0.0, 0.0, 0.0, 0.0, 0.0, 0.0, 0.0, 0.0, 1.7297046463074892E9, 0.0, 2024-10-23 23:00:46.307
6.0, -47653.11451591427, -55910.273600849345, -31147.02178800366, -19882.927224985033, -17900.953340644042, -15704.939151399036, -187500.02235174447, -187500.02235174447, -0.098, 0.848, 0.488, 192.0, 0.0, 0.0, 0.0, 0.0, 0.0, 0.0, 0.0, 0.0, 0.0, 1.7297046463104863E9, 0.0, 2024-10-23 23:00:46.310
7.0, -47630.9415854146, -55840.17853023751, -31344.968836899858, -19767.748685806833, -17888.861046893722, -15657.039363031312, -187500.02235174447, -187500.02235174447, -0.098, 0.848, 0.488, 192.0, 0.0, 0.0, 0.0, 0.0, 0.0, 0.0, 0.0, 0.0, 0.0, 1.7297046463155668E9, 0.0, 2024-10-23 23:00:46.315
8.0, -47608.65689619266, -55785.57321853319, -31596.895348655624, -19682.499132454293, -17888.615177704713, -15640.946107023492, -187500.02235174447, -187500.02235174447, -0.098, 0.848, 0.488, 192.0, 0.0, 0.0, 0.0, 0.0, 0.0, 0.0, 0.0, 0.0, 0.0, 1.7297046463195372E9, 0.0, 2024-10-23 23:00:46.319
9.0, -47654.254454881484, -55928.534976069335, -31428.542009418252, -19852.84177694819, -17898.181724331585, -15689.67290993606, -187500.02235174447, -187500.02235174447, -0.098, 0.848, 0.488, 192.0, 0.0, 0.0, 0.0, 0.0, 0.0, 0.0, 0.0, 0.0, 0.0, 1.7297046463235393E9, 0.0, 2024-10-23 23:00:46.323
10.0, -47691.29129544393, -56008.710683430516, -31123.93243598133, -19962.99117362394, -17902.8755906672, -15709.051872378812, -187500.02235174447, -187500.02235174447, -0.098, 0.848, 0.488, 192.0, 0.0, 0.0, 0.0, 0.0, 0.0, 0.0, 0.0, 0.0, 0.0, 1.7297046463275604E9, 0.0, 2024-10-23 23:00:46.327
11.0, -47658.63539679473, -55933.60882206068, -31156.811852075083, -19873.941823713998, -17882.781372401878, -15673.020860316858, -187500.02235174447, -187500.02235174447, -0.098, 0.848, 0.488, 192.0, 0.0, 0.0, 0.0, 0.0, 0.0, 0.0, 0.0, 0.0, 0.0, 1.7297046463325932E9, 0.0, 2024-10-23 23:00:46.332
12.0, -47637.02125990645, -55858.59636766867, -31347.852211934594, -19760.70788630341, -17869.839712362256, -15631.156042952067, -187500.02235174447, -187500.02235174447, -0.098, 0.848, 0.488, 192.0, 0.0, 0.0, 0.0, 0.0, 0.0, 0.0, 0.0, 0.0, 0.0, 1.729704646335523E9, 0.0, 2024-10-23 23:00:46.335
13.0, -47620.81624517635, -55801.33119837418, -31593.54258698733, -19677.961728329865, -17867.179854772075, -15624.405816126564, -187500.02235174447, -187500.02235174447, -0.098, 0.848, 0.488, 192.0, 0.0, 0.0, 0.0, 0.0, 0.0, 0.0, 0.0, 0.0, 0.0, 1.7297046463384955E9, 0.0, 2024-10-23 23:00:46.338
14.0, -47674.683949313636, -55942.75068554291, -31421.210637236913, -19853.422922304027, -17883.54133171336, -15687.325976768254, -187500.02235174447, -187500.02235174447, -0.1, 0.842, 0.486, 192.0, 252.0, 224.0, 26.0, 80.0, 15.0, 48.0, 0.0, 0.0, 0.0, 1.72970464634359E9, 0.0, 2024-10-23 23:00:46.343
15.0, -47701.528394404464, -56010.36471252021, -31103.592348527, -19960.934813134052, -17887.072907337297, -15708.716596211982, -187500.02235174447, -187500.02235174447, -0.1, 0.842, 0.486, 192.0, 0.0, 0.0, 0.0, 0.0, 0.0, 0.0, 0.0, 0.0, 0.0, 1.7297046463476276E9, 0.0, 2024-10-23 23:00:46.347
16.0, -47671.599408578804, -55935.21814766147, -31132.336691896522, -19872.578367302223, -17870.376154229183, -15681.91685461007, -187500.02235174447, -187500.02235174447, -0.1, 0.842, 0.486, 192.0, 0.0, 0.0, 0.0, 0.0, 0.0, 0.0, 0.0, 0.0, 0.0, 1.729704646351601E9, 0.0, 2024-10-23 23:00:46.351
17.0, -47645.06788791036, -55858.99869906887, -31322.214761044357, -19757.735104290856, -17863.245947747942, -15646.556394881773, -187500.02235174447, -187500.02235174447, -0.1, 0.842, 0.486, 192.0, 0.0, 0.0, 0.0, 0.0, 0.0, 0.0, 0.0, 0.0, 0.0, 1.7297046463555367E9, 0.0, 2024-10-23 23:00:46.355
18.0, -47613.12724508372, -55792.546962803244, -31563.501842439397, -19672.239681749306, -17862.620098903193, -15637.168662210544, -187500.02235174447, -187500.02235174447, -0.1, 0.842, 0.486, 192.0, 0.0, 0.0, 0.0, 0.0, 0.0, 0.0, 0.0, 0.0, 0.0, 1.7297046463595593E9, 0.0, 2024-10-23 23:00:46.359
19.0, -47647.23600712252, -55922.83528123323, -31384.93375598595, -19838.246087818872, -17874.26535776441, -15688.801191902305, -187500.02235174447, -187500.02235174447, -0.1, 0.842, 0.486, 192.0, 0.0, 0.0, 0.0, 0.0, 0.0, 0.0, 0.0, 0.0, 0.0, 1.729704646364622E9, 0.0, 2024-10-23 23:00:46.364
20.0, -47669.27482715545, -55988.68352039856, -31076.4349790138, -19941.064112313285, -17882.759020657424, -15707.48725026694, -187500.02235174447, -187500.02235174447, -0.1, 0.842, 0.486, 192.0, 0.0, 0.0, 0.0, 0.0, 0.0, 0.0, 0.0, 0.0, 0.0, 1.7297046463687935E9, 0.0, 2024-10-23 23:00:46.368
21.0, -47640.642242508206, -55918.0967114087, -31123.820677259053, -19864.867015465145, -17884.50245672494, -15694.880866394147, -187500.02235174447, -187500.02235174447, -0.1, 0.842, 0.486, 192.0, 0.0, 0.0, 0.0, 0.0, 0.0, 0.0, 0.0, 0.0, 0.0, 1.7297046463725853E9, 0.0, 2024-10-23 23:00:46.372
22.0, -47625.08542836731, -55846.99581229637, -31327.62388320254, -19763.77007529379, -17882.26728227941, -15669.265767248366, -187500.02235174447, -187500.02235174447, -0.1, 0.842, 0.486, 192.0, 0.0, 0.0, 0.0, 0.0, 0.0, 0.0, 0.0, 0.0, 0.0, 1.7297046463756137E9, 0.0, 2024-10-23 23:00:46.375
23.0, -47597.48102396501, -55783.29334059875, -31575.68354316754, -19681.627414420534, -17885.35182301424, -15661.107380522179, -187500.02235174447, -187500.02235174447, -0.1, 0.842, 0.486, 192.0, 0.0, 0.0, 0.0, 0.0, 0.0, 0.0, 0.0, 0.0, 0.0, 1.7297046463796391E9, 0.0, 2024-10-23 23:00:46.379
24.0, -47639.63641400771, -55921.27065912136, -31402.725744572374, -19855.6357450051, -17903.45673602304, -15713.54457301433, -187500.02235174447, -187500.02235174447, -0.10400000000000001, 0.844, 0.482, 192.0, 252.0, 192.0, 26.0, 96.0, 15.0, 16.0, 0.0, 0.0, 0.0, 1.7297046463835795E9, 0.0, 2024-10-23 23:00:46.383
25.0, -47676.96382724808, -55992.68448265606, -31101.71480199275, -19966.679211459068, -17918.49946004146, -15736.946849459035, -187500.02235174447, -187500.02235174447, -0.10400000000000001, 0.844, 0.482, 192.0, 0.0, 0.0, 0.0, 0.0, 0.0, 0.0, 0.0, 0.0, 0.0, 1.7297046463886073E9, 0.0, 2024-10-23 23:00:46.388
26.0, -47648.08537341182, -55912.46407180597, -31137.67875882134, -19873.427733591525, -17902.607369733738, -15701.564037986283, -187500.02235174447, -187500.02235174447, -0.10400000000000001, 0.844, 0.482, 192.0, 0.0, 0.0, 0.0, 0.0, 0.0, 0.0, 0.0, 0.0, 0.0, 1.729704646391592E9, 0.0, 2024-10-23 23:00:46.391
27.0, -47636.95420467308, -55841.67609711601, -31341.72783395384, -19763.747723549335, -17899.075794109798, -15661.688525878017, -187500.02235174447, -187500.02235174447, -0.10400000000000001, 0.844, 0.482, 192.0, 0.0, 0.0, 0.0, 0.0, 0.0, 0.0, 0.0, 0.0, 0.0, 1.7297046463966012E9, 0.0, 2024-10-23 23:00:46.396
28.0, -47613.06018985036, -55773.70444222742, -31585.004220605402, -19675.883016095522, -17887.899921882145, -15636.09577847669, -187500.02235174447, -187500.02235174447, -0.10400000000000001, 0.844, 0.482, 192.0, 0.0, 0.0, 0.0, 0.0, 0.0, 0.0, 0.0, 0.0, 0.0, 1.729704646399653E9, 0.0, 2024-10-23 23:00:46.399
29.0, -47655.01441419297, -55905.53503102482, -31403.284538183754, -19840.97300064242, -17890.962110872522, -15673.803171372792, -187500.02235174447, -187500.02235174447, -0.10400000000000001, 0.844, 0.482, 192.0, 0.0, 0.0, 0.0, 0.0, 0.0, 0.0, 0.0, 0.0, 0.0, 1.7297046464040003E9, 0.0, 2024-10-23 23:00:46.404
30.0, -47689.16787972068, -55980.92746507257, -31102.273595604136, -19948.954278106008, -17904.328454056795, -15688.24239829092, -187500.02235174447, -187500.02235174447, -0.10400000000000001, 0.844, 0.482, 192.0, 0.0, 0.0, 0.0, 0.0, 0.0, 0.0, 0.0, 0.0, 0.0, 1.729704646407644E9, 0.0, 2024-10-23 23:00:46.407
31.0, -47669.096013199814, -55917.0461794193, -31147.424119403855, -19868.063314922252, -17893.756078929437, -15658.76044735437, -187500.02235174447, -187500.02235174447, -0.10400000000000001, 0.844, 0.482, 192.0, 0.0, 0.0, 0.0, 0.0, 0.0, 0.0, 0.0, 0.0, 0.0, 1.7297046464127867E9, 0.0, 2024-10-23 23:00:46.412
32.0, -47641.759829730974, -55842.36900119412, -31335.62580771754, -19750.359028620605, -17879.026279333386, -15612.157060165056, -187500.02235174447, -187500.02235174447, -0.10400000000000001, 0.844, 0.482, 192.0, 0.0, 0.0, 0.0, 0.0, 0.0, 0.0, 0.0, 0.0, 0.0, 1.729704646415646E9, 0.0, 2024-10-23 23:00:46.415
33.0, -47609.81918690434, -55777.68305274047, -31569.626220420152, -19658.962745542856, -17860.653145391127, -15591.101716888157, -187500.02235174447, -187500.02235174447, -0.10400000000000001, 0.844, 0.482, 192.0, 0.0, 0.0, 0.0, 0.0, 0.0, 0.0, 0.0, 0.0, 0.0, 1.7297046464199483E9, 0.0, 2024-10-23 23:00:46.419
34.0, -47651.10285891329, -55913.93928694002, -31383.235023407346, -19827.852526647155, -17863.648279148136, -15640.007333756368, -187500.02235174447, -187500.02235174447, -0.10200000000000001, 0.84, 0.482, 192.0, 252.0, 208.0, 26.0, 64.0, 15.0, 16.0, 0.0, 0.0, 0.0, 1.7297046464226444E9, 0.0, 2024-10-23 23:00:46.422
35.0, -47687.24562969752, -55989.555238432324, -31078.446636014778, -19935.6549901551, -17874.801799631336, -15670.606871915685, -187500.02235174447, -187500.02235174447, -0.10200000000000001, 0.84, 0.482, 192.0, 0.0, 0.0, 0.0, 0.0, 0.0, 0.0, 0.0, 0.0, 0.0, 1.7297046464276602E9, 0.0, 2024-10-23 23:00:46.427
36.0, -47662.41284160767, -55919.32605735375, -31113.270653876145, -19855.50163453837, -17865.950508827034, -15653.574842640739, -187500.02235174447, -187500.02235174447, -0.10200000000000001, 0.84, 0.482, 192.0, 0.0, 0.0, 0.0, 0.0, 0.0, 0.0, 0.0, 0.0, 0.0, 1.729704646431692E9, 0.0, 2024-10-23 23:00:46.431
37.0, -47644.17381813214, -55853.07548678821, -31303.036964301704, -19751.47661584337, -17858.8650058347, -15624.025836470824, -187500.02235174447, -187500.02235174447, -0.10200000000000001, 0.84, 0.482, 192.0, 0.0, 0.0, 0.0, 0.0, 0.0, 0.0, 0.0, 0.0, 0.0, 1.7297046464357626E9, 0.0, 2024-10-23 23:00:46.435
38.0, -47616.792931174394, -55792.055224425225, -31542.737071840416, -19668.50694042527, -17854.618174388193, -15614.951028221969, -187500.02235174447, -187500.02235174447, -0.10200000000000001, 0.84, 0.482, 192.0, 0.0, 0.0, 0.0, 0.0, 0.0, 0.0, 0.0, 0.0, 0.0, 1.7297046464398165E9, 0.0, 2024-10-23 23:00:46.439
39.0, -47648.37594608974, -55919.236650375926, -31353.48485153733, -19833.082834849698, -17858.686191879056, -15666.0471160468, -187500.02235174447, -187500.02235174447, -0.10200000000000001, 0.84, 0.482, 192.0, 0.0, 0.0, 0.0, 0.0, 0.0, 0.0, 0.0, 0.0, 0.0, 1.7297046464437811E9, 0.0, 2024-10-23 23:00:46.443
40.0, -47678.327283659855, -55987.40947096461, -31053.546792691566, -19942.204051280507, -17874.846503120247, -15697.741889684426, -187500.02235174447, -187500.02235174447, -0.10200000000000001, 0.84, 0.482, 192.0, 0.0, 0.0, 0.0, 0.0, 0.0, 0.0, 0.0, 0.0, 0.0, 1.7297046464477398E9, 0.0, 2024-10-23 23:00:46.447
41.0, -47632.61796624875, -55897.57780999873, -31082.82757792802, -19846.940916411986, -17854.037029032355, -15664.326031723742, -187500.02235174447, -187500.02235174447, -0.10200000000000001, 0.84, 0.482, 192.0, 0.0, 0.0, 0.0, 0.0, 0.0, 0.0, 0.0, 0.0, 0.0, 1.7297046464506795E9, 0.0, 2024-10-23 23:00:46.450
42.0, -47611.1379398272, -55825.269916685815, -31285.28967920419, -19739.406673837504, -17850.2148807305, -15629.47966211792, -187500.02235174447, -187500.02235174447, -0.10200000000000001, 0.84, 0.482, 192.0, 0.0, 0.0, 0.0, 0.0, 0.0, 0.0, 0.0, 0.0, 0.0, 1.7297046464547374E9, 0.0, 2024-10-23 23:00:46.454
43.0, -47589.00971281645, -55768.25061658033, -31540.256028205877, -19662.9413560559, -17858.462674434504, -15625.90338300507, -187500.02235174447, -187500.02235174447, -0.10200000000000001, 0.84, 0.482, 192.0, 0.0, 0.0, 0.0, 0.0, 0.0, 0.0, 0.0, 0.0, 0.0, 1.7297046464598331E9, 0.0, 2024-10-23 23:00:46.459
44.0, -47619.81041667586, -55897.15312685408, -31354.624790504553, -19833.35105578316, -17869.191511773053, -15674.67488940655, -187500.02235174447, -187500.02235174447, -0.10200000000000001, 0.846, 0.482, 192.0, 252.0, 208.0, 26.0, 112.0, 15.0, 16.0, 0.0, 0.0, 0.0, 1.7297046464638293E9, 0.0, 2024-10-23 23:00:46.463
45.0, -47646.587806533316, -55962.21905496348, -31050.90928684584, -19934.04566455432, -17877.618119432704, -15692.131601826144, -187500.02235174447, -187500.02235174447, -0.10200000000000001, 0.846, 0.482, 192.0, 0.0, 0.0, 0.0, 0.0, 0.0, 0.0, 0.0, 0.0, 0.0, 1.7297046464676957E9, 0.0, 2024-10-23 23:00:46.467
46.0, -47623.230233577524, -55895.16382159756, -31097.602081012978, -19856.395704316583, -17867.53748268336, -15666.874130591648, -187500.02235174447, -187500.02235174447, -0.10200000000000001, 0.846, 0.482, 192.0, 0.0, 0.0, 0.0, 0.0, 0.0, 0.0, 0.0, 0.0, 0.0, 1.729704646471743E9, 0.0, 2024-10-23 23:00:46.471
47.0, -47603.82891939031, -55828.488567887376, -31300.086534033602, -19753.220051910885, -17867.604537916726, -15634.32999066472, -187500.02235174447, -187500.02235174447, -0.10200000000000001, 0.846, 0.482, 192.0, 0.0, 0.0, 0.0, 0.0, 0.0, 0.0, 0.0, 0.0, 0.0, 1.729704646475736E9, 0.0, 2024-10-23 23:00:46.475
48.0, -47584.33819822528, -55773.65973873851, -31553.309446967778, -19675.301870739684, -17871.33727924076, -15622.952952736969, -187500.02235174447, -187500.02235174447, -0.10200000000000001, 0.846, 0.482, 192.0, 0.0, 0.0, 0.0, 0.0, 0.0, 0.0, 0.0, 0.0, 0.0, 1.729704646478872E9, 0.0, 2024-10-23 23:00:46.478
49.0, -47630.986288903514, -55916.04035091882, -31373.176738402457, -19851.88065193661, -17884.033070091376, -15672.774991127848, -187500.02235174447, -187500.02235174447, -0.10200000000000001, 0.846, 0.482, 192.0, 0.0, 0.0, 0.0, 0.0, 0.0, 0.0, 0.0, 0.0, 0.0, 1.729704646482716E9, 0.0, 2024-10-23 23:00:46.482
50.0, -47665.027995708944, -55986.00131106393, -31070.087083588493, -19957.135016576653, -17888.414012004618, -15685.001395344902, -187500.02235174447, -187500.02235174447, -0.10200000000000001, 0.846, 0.482, 192.0, 0.0, 0.0, 0.0, 0.0, 0.0, 0.0, 0.0, 0.0, 0.0, 1.7297046464877372E9, 0.0, 2024-10-23 23:00:46.487
51.0, -47633.95907091607, -55907.72550198144, -31106.25220611718, -19866.811617232754, -17869.884415851167, -15644.410627414063, -187500.02235174447, -187500.02235174447, -0.10200000000000001, 0.846, 0.482, 192.0, 0.0, 0.0, 0.0, 0.0, 0.0, 0.0, 0.0, 0.0, 0.0, 1.7297046464916997E9, 0.0, 2024-10-23 23:00:46.491
52.0, -47620.637431220704, -55837.20574822495, -31304.690993391396, -19755.85755775661, -17868.945642584044, -15604.17748739451, -187500.02235174447, -187500.02235174447, -0.10200000000000001, 0.846, 0.482, 192.0, 0.0, 0.0, 0.0, 0.0, 0.0, 0.0, 0.0, 0.0, 0.0, 1.7297046464956908E9, 0.0, 2024-10-23 23:00:46.495
53.0, -47604.90180312417, -55779.49354404135, -31553.890592323616, -19670.630356148526, -17872.25370076343, -15587.637196497584, -187500.02235174447, -187500.02235174447, -0.10200000000000001, 0.846, 0.482, 192.0, 0.0, 0.0, 0.0, 0.0, 0.0, 0.0, 0.0, 0.0, 0.0, 1.729704646500075E9, 0.0, 2024-10-23 23:00:46.500
54.0, -47638.02708840693, -55907.904315937085, -31361.151499885502, -19833.172241827517, -17869.616194917704, -15625.523403349329, -187500.02235174447, -187500.02235174447, -0.098, 0.848, 0.48, 192.0, 252.0, 240.0, 26.0, 128.0, 15.0, 0.0, 0.0, 0.0, 0.0, 1.7297046465037482E9, 0.0, 2024-10-23 23:00:46.503
55.0, -47667.263170154474, -55973.2608167244, -31057.659513671344, -19929.597667407714, -17867.336316983263, -15636.296944176787, -187500.02235174447, -187500.02235174447, -0.098, 0.848, 0.48, 192.0, 0.0, 0.0, 0.0, 0.0, 0.0, 0.0, 0.0, 0.0, 0.0, 1.7297046465067513E9, 0.0, 2024-10-23 23:00:46.506
56.0, -47644.66555651016, -55903.81394670176, -31102.76533398215, -19841.91177390954, -17853.142959254143, -15604.80333623926, -187500.02235174447, -187500.02235174447, -0.098, 0.848, 0.48, 192.0, 0.0, 0.0, 0.0, 0.0, 0.0, 0.0, 0.0, 0.0, 0.0, 1.7297046465107784E9, 0.0, 2024-10-23 23:00:46.510
57.0, -47626.80651269037, -55831.3272394332, -31296.487903176298, -19729.370740577073, -17840.424816659073, -15564.50314098634, -187500.02235174447, -187500.02235174447, -0.098, 0.848, 0.48, 192.0, 0.0, 0.0, 0.0, 0.0, 0.0, 0.0, 0.0, 0.0, 0.0, 1.7297046465159547E9, 0.0, 2024-10-23 23:00:46.515
58.0, -47607.3381432698, -55771.312805570706, -31539.697234594496, -19642.623620346025, -17832.646409588626, -15550.086265812668, -187500.02235174447, -187500.02235174447, -0.098, 0.848, 0.48, 192.0, 0.0, 0.0, 0.0, 0.0, 0.0, 0.0, 0.0, 0.0, 0.0, 1.7297046465201523E9, 0.0, 2024-10-23 23:00:46.520
59.0, -47650.007623434976, -55906.67496999204, -31358.69280799542, -19810.68638690548, -17846.23627021745, -15604.110432161146, -187500.02235174447, -187500.02235174447, -0.098, 0.848, 0.48, 192.0, 0.0, 0.0, 0.0, 0.0, 0.0, 0.0, 0.0, 0.0, 0.0, 1.7297046465240111E9, 0.0, 2024-10-23 23:00:46.524
60.0, -47687.335036675344, -55973.01494753539, -31069.6847521883, -19912.208010221482, -17853.25471797642, -15626.886859761104, -187500.02235174447, -187500.02235174447, -0.098, 0.848, 0.48, 192.0, 0.0, 0.0, 0.0, 0.0, 0.0, 0.0, 0.0, 0.0, 0.0, 1.7297046465278008E9, 0.0, 2024-10-23 23:00:46.527
61.0, -47657.696623527605, -55893.59919948569, -31119.551494068088, -19822.39870100006, -17842.14590098213, -15604.266894372333, -187500.02235174447, -187500.02235174447, -0.098, 0.848, 0.48, 192.0, 0.0, 0.0, 0.0, 0.0, 0.0, 0.0, 0.0, 0.0, 0.0, 1.7297046465317953E9, 0.0, 2024-10-23 23:00:46.531
62.0, -47640.68694599711, -55824.46525388542, -31326.1933715574, -19715.110327614588, -17839.0613602473, -15575.969585891913, -187500.02235174447, -187500.02235174447, -0.098, 0.848, 0.48, 192.0, 0.0, 0.0, 0.0, 0.0, 0.0, 0.0, 0.0, 0.0, 0.0, 1.729704646534793E9, 0.0, 2024-10-23 23:00:46.534
63.0, -47618.066980608346, -55767.33419505766, -31580.06448508078, -19639.248506933272, -17843.308191693806, -15572.393306779064, -187500.02235174447, -187500.02235174447, -0.098, 0.848, 0.48, 192.0, 0.0, 0.0, 0.0, 0.0, 0.0, 0.0, 0.0, 0.0, 0.0, 1.729704646538824E9, 0.0, 2024-10-23 23:00:46.538
64.0, -47649.873512968246, -55899.522411766346, -31387.794779276228, -19809.412337471527, -17846.30332545082, -15620.04722595778, -187500.02235174447, -187500.02235174447, -0.10400000000000001, 0.842, 0.482, 192.0, 252.0, 192.0, 26.0, 80.0, 15.0, 16.0, 0.0, 0.0, 0.0, 1.7297046465437884E9, 0.0, 2024-10-23 23:00:46.543
65.0, -47692.27477219996, -55976.278302225866, -31097.512674035155, -19919.762899847377, -17871.20316877403, -15653.91011880757, -187500.02235174447, -187500.02235174447, -0.10400000000000001, 0.842, 0.482, 192.0, 0.0, 0.0, 0.0, 0.0, 0.0, 0.0, 0.0, 0.0, 0.0, 1.7297046465478187E9, 0.0, 2024-10-23 23:00:46.547
66.0, -47665.98912072052, -55906.67496999204, -31141.612665845474, -19843.230526832405, -17868.140979783653, -15637.235717443911, -187500.02235174447, -187500.02235174447, -0.10400000000000001, 0.842, 0.482, 192.0, 0.0, 0.0, 0.0, 0.0, 0.0, 0.0, 0.0, 0.0, 0.0, 1.7297046465518825E9, 0.0, 2024-10-23 23:00:46.551
67.0, -47632.14857961519, -55826.20868995294, -31321.18658079941, -19733.908144701498, -17856.406313944615, -15595.125030890113, -187500.02235174447, -187500.02235174447, -0.10400000000000001, 0.842, 0.482, 192.0, 0.0, 0.0, 0.0, 0.0, 0.0, 0.0, 0.0, 0.0, 0.0, 1.7297046465558512E9, 0.0, 2024-10-23 23:00:46.555
68.0, -47608.14280607019, -55764.07084036718, -31557.109243525178, -19649.887937294, -17858.306212223317, -15583.65858598454, -187500.02235174447, -187500.02235174447, -0.10400000000000001, 0.842, 0.482, 192.0, 0.0, 0.0, 0.0, 0.0, 0.0, 0.0, 0.0, 0.0, 0.0, 1.7297046465588317E9, 0.0, 2024-10-23 23:00:46.558
69.0, -47651.72870775804, -55905.6467897471, -31373.44495933592, -19828.031340602796, -17876.858160121225, -15637.973325010935, -187500.02235174447, -187500.02235174447, -0.10400000000000001, 0.842, 0.482, 192.0, 0.0, 0.0, 0.0, 0.0, 0.0, 0.0, 0.0, 0.0, 0.0, 1.7297046465628207E9, 0.0, 2024-10-23 23:00:46.562
70.0, -47679.82485053836, -55973.37257544668, -31079.161891837346, -19932.57044942027, -17883.653090435637, -15660.727400866439, -187500.02235174447, -187500.02235174447, -0.10400000000000001, 0.842, 0.482, 192.0, 0.0, 0.0, 0.0, 0.0, 0.0, 0.0, 0.0, 0.0, 0.0, 1.7297046465668616E9, 0.0, 2024-10-23 23:00:46.566
71.0, -47639.926986685634, -55892.168687840545, -31119.57384581254, -19841.420035531526, -17871.40433447413, -15628.317371406243, -187500.02235174447, -187500.02235174447, -0.10400000000000001, 0.842, 0.482, 192.0, 0.0, 0.0, 0.0, 0.0, 0.0, 0.0, 0.0, 0.0, 0.0, 1.7297046465709364E9, 0.0, 2024-10-23 23:00:46.570
72.0, -47613.66368695065, -55817.96089624893, -31314.63751967401, -19727.917877187476, -17866.352840227228, -15588.08423138669, -187500.02235174447, -187500.02235174447, -0.10400000000000001, 0.842, 0.482, 192.0, 0.0, 0.0, 0.0, 0.0, 0.0, 0.0, 0.0, 0.0, 0.0, 1.729704646575937E9, 0.0, 2024-10-23 23:00:46.575
73.0, -47591.46840470653, -55760.7627821878, -31557.891554581114, -19642.914193023946, -17863.29065123685, -15574.740239946872, -187500.02235174447, -187500.02235174447, -0.10400000000000001, 0.842, 0.482, 192.0, 0.0, 0.0, 0.0, 0.0, 0.0, 0.0, 0.0, 0.0, 0.0, 1.7297046465798604E9, 0.0, 2024-10-23 23:00:46.579
74.0, -47633.75790521597, -55900.081205377726, -31365.57714528765, -19815.737881152378, -17869.97382282899, -15618.236734656899, -187500.02235174447, -187500.02235174447, -0.10400000000000001, 0.844, 0.484, 192.0, 252.0, 192.0, 26.0, 96.0, 15.0, 32.0, 0.0, 0.0, 0.0, 1.729704646583871E9, 0.0, 2024-10-23 23:00:46.583
75.0, -47671.733519045534, -55972.769078346384, -31075.272688302124, -19919.785251591835, -17878.936872355567, -15634.70997032046, -187500.02235174447, -187500.02235174447, -0.10400000000000001, 0.844, 0.484, 192.0, 0.0, 0.0, 0.0, 0.0, 0.0, 0.0, 0.0, 0.0, 0.0, 1.729704646587024E9, 0.0, 2024-10-23 23:00:46.587
76.0, -47638.31766108485, -55895.655559975574, -31115.461124832767, -19830.668846448523, -17854.30524996582, -15596.42143206852, -187500.02235174447, -187500.02235174447, -0.10400000000000001, 0.844, 0.484, 192.0, 0.0, 0.0, 0.0, 0.0, 0.0, 0.0, 0.0, 0.0, 0.0, 1.729704646590956E9, 0.0, 2024-10-23 23:00:46.590
77.0, -47611.696733438584, -55820.28547767228, -31306.590891670097, -19718.865420683076, -17839.463691647496, -15551.2709082688, -187500.02235174447, -187500.02235174447, -0.10400000000000001, 0.844, 0.484, 192.0, 0.0, 0.0, 0.0, 0.0, 0.0, 0.0, 0.0, 0.0, 0.0, 1.7297046465949147E9, 0.0, 2024-10-23 23:00:46.594
78.0, -47587.445090704576, -55760.539264743245, -31551.320141711254, -19634.375826642015, -17838.8601945472, -15535.177652260978, -187500.02235174447, -187500.02235174447, -0.10400000000000001, 0.844, 0.484, 192.0, 0.0, 0.0, 0.0, 0.0, 0.0, 0.0, 0.0, 0.0, 0.0, 1.7297046465990772E9, 0.0, 2024-10-23 23:00:46.599
79.0, -47625.599518489784, -55896.840202431704, -31357.73168298384, -19809.21117177143, -17842.05649400431, -15582.540998761773, -187500.02235174447, -187500.02235174447, -0.10400000000000001, 0.844, 0.484, 192.0, 0.0, 0.0, 0.0, 0.0, 0.0, 0.0, 0.0, 0.0, 0.0, 1.7297046466039836E9, 0.0, 2024-10-23 23:00:46.603
80.0, -47658.501286328, -55967.181142232555, -31065.616734697433, -19915.605475378692, -17852.740627853946, -15611.754728764861, -187500.02235174447, -187500.02235174447, -0.10400000000000001, 0.844, 0.484, 192.0, 0.0, 0.0, 0.0, 0.0, 0.0, 0.0, 0.0, 0.0, 0.0, 1.7297046466079443E9, 0.0, 2024-10-23 23:00:46.607
81.0, -47627.85704467977, -55889.28531280581, -31106.63218577292, -19831.24999180436, -17836.915592779587, -15586.98899590838, -187500.02235174447, -187500.02235174447, -0.10400000000000001, 0.844, 0.484, 192.0, 0.0, 0.0, 0.0, 0.0, 0.0, 0.0, 0.0, 0.0, 0.0, 1.7297046466119869E9, 0.0, 2024-10-23 23:00:46.611
82.0, -47604.3877130017, -55812.79764327975, -31298.208987499358, -19724.0063219078, -17830.567697354283, -15553.550786203241, -187500.02235174447, -187500.02235174447, -0.10400000000000001, 0.844, 0.484, 192.0, 0.0, 0.0, 0.0, 0.0, 0.0, 0.0, 0.0, 0.0, 0.0, 1.729704646614958E9, 0.0, 2024-10-23 23:00:46.614
83.0, -47582.37124471322, -55750.972718116376, -31535.76332757036, -19644.21059420235, -17831.752339810413, -15550.309783257222, -187500.02235174447, -187500.02235174447, -0.10400000000000001, 0.844, 0.484, 192.0, 0.0, 0.0, 0.0, 0.0, 0.0, 0.0, 0.0, 0.0, 0.0, 1.7297046466189835E9, 0.0, 2024-10-23 23:00:46.618
84.0, -47629.06403888036, -55891.83341167372, -31344.566505499664, -19826.243201046374, -17849.790197585848, -15616.627409056116, -187500.02235174447, -187500.02235174447, -0.10200000000000001, 0.836, 0.486, 192.0, 252.0, 208.0, 26.0, 32.0, 15.0, 48.0, 0.0, 0.0, 0.0, 1.7297046466229348E9, 0.0, 2024-10-23 23:00:46.622
85.0, -47658.70245202809, -55953.39011590363, -31046.595400165967, -19926.937809817533, -17860.451979691028, -15646.019953014846, -187500.02235174447, -187500.02235174447, -0.10200000000000001, 0.836, 0.486, 192.0, 0.0, 0.0, 0.0, 0.0, 0.0, 0.0, 0.0, 0.0, 0.0, 1.729704646627051E9, 0.0, 2024-10-23 23:00:46.627
86.0, -47627.23119583502, -55872.34269050869, -31087.029705885616, -19837.664942463034, -17848.24792721843, -15619.488432346396, -187500.02235174447, -187500.02235174447, -0.10200000000000001, 0.836, 0.486, 192.0, 0.0, 0.0, 0.0, 0.0, 0.0, 0.0, 0.0, 0.0, 0.0, 1.7297046466320577E9, 0.0, 2024-10-23 23:00:46.632
87.0, -47604.99121010199, -55797.374939605594, -31279.008839012247, -19727.962580676387, -17837.563793368794, -15579.054126626746, -187500.02235174447, -187500.02235174447, -0.10200000000000001, 0.836, 0.486, 192.0, 0.0, 0.0, 0.0, 0.0, 0.0, 0.0, 0.0, 0.0, 0.0, 1.7297046466359751E9, 0.0, 2024-10-23 23:00:46.635
88.0, -47588.54032618288, -55743.37312500157, -31525.369766398642, -19650.35732392756, -17838.211993957997, -15567.78884742127, -187500.02235174447, -187500.02235174447, -0.10200000000000001, 0.836, 0.486, 192.0, 0.0, 0.0, 0.0, 0.0, 0.0, 0.0, 0.0, 0.0, 0.0, 1.7297046466399918E9, 0.0, 2024-10-23 23:00:46.639
89.0, -47629.242852835996, -55882.937417380504, -31335.02231061725, -19829.55125922576, -17852.539462153847, -15620.606019569163, -187500.02235174447, -187500.02235174447, -0.10200000000000001, 0.836, 0.486, 192.0, 0.0, 0.0, 0.0, 0.0, 0.0, 0.0, 0.0, 0.0, 0.0, 1.7297046466429188E9, 0.0, 2024-10-23 23:00:46.642
90.0, -47663.999815464, -55953.770095559375, -31050.842231612474, -19938.583068678745, -17868.699773395037, -15651.160854239566, -187500.02235174447, -187500.02235174447, -0.10200000000000001, 0.836, 0.486, 192.0, 0.0, 0.0, 0.0, 0.0, 0.0, 0.0, 0.0, 0.0, 0.0, 1.729704646646962E9, 0.0, 2024-10-23 23:00:46.646
91.0, -47626.35947780126, -55873.16970505354, -31091.276537332124, -19847.92439316802, -17851.779502842368, -15618.706121290461, -187500.02235174447, -187500.02235174447, -0.10200000000000001, 0.836, 0.486, 192.0, 0.0, 0.0, 0.0, 0.0, 0.0, 0.0, 0.0, 0.0, 0.0, 1.729704646650961E9, 0.0, 2024-10-23 23:00:46.650
92.0, -47602.30900076735, -55800.83945999616, -31288.441275172387, -19739.451377326415, -17845.610421372705, -15578.964719648924, -187500.02235174447, -187500.02235174447, -0.10200000000000001, 0.836, 0.486, 192.0, 0.0, 0.0, 0.0, 0.0, 0.0, 0.0, 0.0, 0.0, 0.0, 1.7297046466550748E9, 0.0, 2024-10-23 23:00:46.655
93.0, -47587.66860814913, -55751.06212509419, -31540.457193905975, -19665.467103179348, -17853.768808098892, -15571.521588745307, -187500.02235174447, -187500.02235174447, -0.10200000000000001, 0.836, 0.486, 192.0, 0.0, 0.0, 0.0, 0.0, 0.0, 0.0, 0.0, 0.0, 0.0, 1.7297046466591208E9, 0.0, 2024-10-23 23:00:46.659
94.0, -47642.54214078691, -55902.76341471236, -31360.324485340654, -19853.31116358175, -17872.857197863723, -15624.316409148743, -187500.02235174447, -187500.02235174447, -0.10200000000000001, 0.836, 0.486, 192.0, 0.0, 0.0, 0.0, 0.0, 0.0, 0.0, 0.0, 0.0, 0.0, 1.7297046466651137E9, 0.0, 2024-10-23 23:00:46.665
95.0, -47682.84233603982, -55977.01590979289, -31080.614755226943, -19957.582051465757, -17886.759982914922, -15642.778950068827, -187500.02235174447, -187500.02235174447, -0.094, 0.838, 0.486, 192.0, 253.0, 16.0, 26.0, 48.0, 15.0, 48.0, 0.0, 0.0, 0.0, 1.7297046466690235E9, 0.0, 2024-10-23 23:00:46.669
96.0, -47642.0951058978, -55893.353330296675, -31120.22204640175, -19862.363620086147, -17868.744476883945, -15602.836382727193, -187500.02235174447, -187500.02235174447, -0.094, 0.838, 0.486, 192.0, 0.0, 0.0, 0.0, 0.0, 0.0, 0.0, 0.0, 0.0, 0.0, 1.7297046466722927E9, 0.0, 2024-10-23 23:00:46.672
97.0, -47623.721971955536, -55824.17468120751, -31318.97375809834, -19751.029580954266, -17862.754209369923, -15560.546882217752, -187500.02235174447, -187500.02235174447, -0.094, 0.838, 0.486, 192.0, 0.0, 0.0, 0.0, 0.0, 0.0, 0.0, 0.0, 0.0, 0.0, 1.7297046466749916E9, 0.0, 2024-10-23 23:00:46.674
98.0, -47595.73758789749, -55761.05335486572, -31554.67290337955, -19663.857777578567, -17855.7134098665, -15539.916222085503, -187500.02235174447, -187500.02235174447, -0.094, 0.838, 0.486, 192.0, 0.0, 0.0, 0.0, 0.0, 0.0, 0.0, 0.0, 0.0, 0.0, 1.7297046466790133E9, 0.0, 2024-10-23 23:00:46.679
99.0, -47630.986288903514, -55895.5438012533, -31353.507203281788, -19833.30635229425, -17854.10408426572, -15585.446725540964, -187500.02235174447, -187500.02235174447, -0.094, 0.838, 0.486, 192.0, 0.0, 0.0, 0.0, 0.0, 0.0, 0.0, 0.0, 0.0, 0.0, 1.7297046466830187E9, 0.0, 2024-10-23 23:00:46.683
100.0, -47666.637321309725, -55963.761325330895, -31067.00254285366, -19935.006789565898, -17863.223596003485, -15611.575914809218, -187500.02235174447, -187500.02235174447, -0.094, 0.838, 0.486, 192.0, 0.0, 0.0, 0.0, 0.0, 0.0, 0.0, 0.0, 0.0, 0.0, 1.7297046466870732E9, 0.0, 2024-10-23 23:00:46.687
101.0, -47638.4964750405, -55886.87132440464, -31112.890674220405, -19847.946744912475, -17855.556947655314, -15593.627464011606, -187500.02235174447, -187500.02235174447, -0.094, 0.838, 0.486, 192.0, 0.0, 0.0, 0.0, 0.0, 0.0, 0.0, 0.0, 0.0, 0.0, 1.7297046466920571E9, 0.0, 2024-10-23 23:00:46.692
102.0, -47618.58107073082, -55812.28355315728, -31302.165246267945, -19736.456243569406, -17841.20712771501, -15555.450684481943, -187500.02235174447, -187500.02235174447, -0.094, 0.838, 0.486, 192.0, 0.0, 0.0, 0.0, 0.0, 0.0, 0.0, 0.0, 0.0, 0.0, 1.7297046466960344E9, 0.0, 2024-10-23 23:00:46.696
103.0, -47597.65983792065, -55752.157360572506, -31539.026682260836, -19656.057018763666, -17841.877680048667, -15548.07460881169, -187500.02235174447, -187500.02235174447, -0.094, 0.838, 0.486, 192.0, 0.0, 0.0, 0.0, 0.0, 0.0, 0.0, 0.0, 0.0, 0.0, 1.7297046466991522E9, 0.0, 2024-10-23 23:00:46.699
104.0, -47635.680155239126, -55887.25130406038, -31337.68216820743, -19834.49099475038, -17857.278031978374, -15606.524420562318, -187500.02235174447, -187500.02235174447, -0.094, 0.838, 0.486, 192.0, 0.0, 0.0, 0.0, 0.0, 0.0, 0.0, 0.0, 0.0, 0.0, 1.7297046467030494E9, 0.0, 2024-10-23 23:00:46.703
105.0, -47667.01730096547, -55951.870197280674, -31042.303865230548, -19934.716216887977, -17861.211939002507, -15634.642915087095, -187500.02235174447, -187500.02235174447, -0.096, 0.84, 0.482, 192.0, 253.0, 0.0, 26.0, 64.0, 15.0, 16.0, 0.0, 0.0, 0.0, 1.7297046467070794E9, 0.0, 2024-10-23 23:00:46.707
106.0, -47632.68502148212, -55870.778068396816, -31078.334877292502, -19841.91177390954, -17844.38107542766, -15608.938408963491, -187500.02235174447, -187500.02235174447, -0.096, 0.84, 0.482, 192.0, 0.0, 0.0, 0.0, 0.0, 0.0, 0.0, 0.0, 0.0, 0.0, 1.7297046467110307E9, 0.0, 2024-10-23 23:00:46.711
107.0, -47609.61802120424, -55795.87737272708, -31271.208080197346, -19738.08792091464, -17843.755226582914, -15583.055088884246, -187500.02235174447, -187500.02235174447, -0.096, 0.84, 0.482, 192.0, 0.0, 0.0, 0.0, 0.0, 0.0, 0.0, 0.0, 0.0, 0.0, 1.7297046467153833E9, 0.0, 2024-10-23 23:00:46.715
108.0, -47583.75705286945, -55735.63942142003, -31514.082135448713, -19661.980231044323, -17848.29263070734, -15582.004556894846, -187500.02235174447, -187500.02235174447, -0.096, 0.84, 0.482, 192.0, 0.0, 0.0, 0.0, 0.0, 0.0, 0.0, 0.0, 0.0, 0.0, 1.7297046467200668E9, 0.0, 2024-10-23 23:00:46.720
109.0, -47620.52567249843, -55870.845123630184, -31324.606397701074, -19843.297582065774, -17858.909709323612, -15637.548641866284, -187500.02235174447, -187500.02235174447, -0.096, 0.84, 0.482, 192.0, 0.0, 0.0, 0.0, 0.0, 0.0, 0.0, 0.0, 0.0, 0.0, 1.7297046467240667E9, 0.0, 2024-10-23 23:00:46.724
110.0, -47646.230178622034, -55929.74197026992, -31047.981208322195, -19939.544193690326, -17866.956337327523, -15659.00631654338, -187500.02235174447, -187500.02235174447, -0.096, 0.84, 0.482, 192.0, 0.0, 0.0, 0.0, 0.0, 0.0, 0.0, 0.0, 0.0, 0.0, 1.7297046467270575E9, 0.0, 2024-10-23 23:00:46.727
111.0, -47617.57524223033, -55856.316489734236, -31113.784743998618, -19857.289774094796, -17860.25081399093, -15634.866432531648, -187500.02235174447, -187500.02235174447, -0.096, 0.84, 0.482, 192.0, 0.0, 0.0, 0.0, 0.0, 0.0, 0.0, 0.0, 0.0, 0.0, 1.729704646731052E9, 0.0, 2024-10-23 23:00:46.731
112.0, -47607.3381432698, -55797.75491926133, -31336.899857151493, -19767.14518870654, -17870.934947840567, -15606.926751962514, -187500.02235174447, -187500.02235174447, -0.096, 0.84, 0.482, 192.0, 0.0, 0.0, 0.0, 0.0, 0.0, 0.0, 0.0, 0.0, 0.0, 1.7297046467351265E9, 0.0, 2024-10-23 23:00:46.735
113.0, -47581.32071272382, -55741.07089532267, -31591.508578241897, -19687.640033679014, -17873.8183228753, -15589.80531570975, -187500.02235174447, -187500.02235174447, -0.096, 0.84, 0.482, 192.0, 0.0, 0.0, 0.0, 0.0, 0.0, 0.0, 0.0, 0.0, 0.0, 1.729704646739052E9, 0.0, 2024-10-23 23:00:46.739
114.0, -47625.71127721206, -55889.57588548373, -31410.25828245381, -19874.142989414097, -17884.860084636224, -15637.593345355195, -187500.02235174447, -187500.02235174447, -0.096, 0.84, 0.482, 192.0, 0.0, 0.0, 0.0, 0.0, 0.0, 0.0, 0.0, 0.0, 0.0, 1.729704646743071E9, 0.0, 2024-10-23 23:00:46.743
115.0, -47658.14365841671, -55957.525188627864, -31136.762337298675, -19977.94449066454, -17893.30904404033, -15653.463083918463, -187500.02235174447, -187500.02235174447, -0.1, 0.846, 0.482, 192.0, 252.0, 224.0, 26.0, 112.0, 15.0, 16.0, 0.0, 0.0, 0.0, 1.7297046467480824E9, 0.0, 2024-10-23 23:00:46.748
116.0, -47623.83373067781, -55879.89758013458, -31191.434704236355, -19891.957329744975, -17882.133171812675, -15620.270743402332, -187500.02235174447, -187500.02235174447, -0.1, 0.846, 0.482, 192.0, 0.0, 0.0, 0.0, 0.0, 0.0, 0.0, 0.0, 0.0, 0.0, 1.7297046467521217E9, 0.0, 2024-10-23 23:00:46.752
117.0, -47607.06992233633, -55812.64118106857, -31396.86958752508, -19791.218017484905, -17877.461657221516, -15581.535170261286, -187500.02235174447, -187500.02235174447, -0.1, 0.846, 0.482, 192.0, 0.0, 0.0, 0.0, 0.0, 0.0, 0.0, 0.0, 0.0, 0.0, 1.7297046467551193E9, 0.0, 2024-10-23 23:00:46.755
118.0, -47577.38680569969, -55748.648136693024, -31633.798078751337, -19706.884885655032, -17867.69394489455, -15555.048353081746, -187500.02235174447, -187500.02235174447, -0.1, 0.846, 0.482, 192.0, 0.0, 0.0, 0.0, 0.0, 0.0, 0.0, 0.0, 0.0, 0.0, 1.7297046467592084E9, 0.0, 2024-10-23 23:00:46.759
119.0, -47614.02131486194, -55891.45343201798, -31435.113422288112, -19882.994280218398, -17876.50053220994, -15603.641045527584, -187500.02235174447, -187500.02235174447, -0.1, 0.846, 0.482, 192.0, 0.0, 0.0, 0.0, 0.0, 0.0, 0.0, 0.0, 0.0, 0.0, 1.7297046467631629E9, 0.0, 2024-10-23 23:00:46.763
120.0, -47646.43134432213, -55960.29680494032, -31157.236535219734, -19984.62766225668, -17892.414974262116, -15630.217269684945, -187500.02235174447, -187500.02235174447, -0.1, 0.846, 0.482, 192.0, 0.0, 0.0, 0.0, 0.0, 0.0, 0.0, 0.0, 0.0, 0.0, 1.7297046467671432E9, 0.0, 2024-10-23 23:00:46.767
121.0, -47606.578183958314, -55880.65753944607, -31205.203378820825, -19894.214855934963, -17876.858160121225, -15599.908304203547, -187500.02235174447, -187500.02235174447, -0.1, 0.846, 0.482, 192.0, 0.0, 0.0, 0.0, 0.0, 0.0, 0.0, 0.0, 0.0, 0.0, 1.7297046467712188E9, 0.0, 2024-10-23 23:00:46.771
122.0, -47588.629733160706, -55816.21746018141, -31404.536235873253, -19784.0207557703, -17859.803779101825, -15561.977393862891, -187500.02235174447, -187500.02235174447, -0.1, 0.846, 0.482, 192.0, 0.0, 0.0, 0.0, 0.0, 0.0, 0.0, 0.0, 0.0, 0.0, 1.7297046467761495E9, 0.0, 2024-10-23 23:00:46.776
123.0, -47564.19927647105, -55759.26521530929, -31642.179982922076, -19699.70997568488, -17857.859177334212, -15552.142626302557, -187500.02235174447, -187500.02235174447, -0.1, 0.846, 0.482, 192.0, 0.0, 0.0, 0.0, 0.0, 0.0, 0.0, 0.0, 0.0, 0.0, 1.729704646780135E9, 0.0, 2024-10-23 23:00:46.780
124.0, -47600.34204725529, -55899.38830129961, -31436.92391358899, -19877.540454571303, -17864.16236927061, -15605.13861240609, -187500.02235174447, -187500.02235174447, -0.1, 0.846, 0.482, 192.0, 0.0, 0.0, 0.0, 0.0, 0.0, 0.0, 0.0, 0.0, 0.0, 1.7297046467831752E9, 0.0, 2024-10-23 23:00:46.783
125.0, -47630.71806797005, -55963.44840090852, -31152.989703773226, -19969.853159171722, -17875.159427542618, -15628.183260939511, -187500.02235174447, -187500.02235174447, -0.10200000000000001, 0.846, 0.482, 192.0, 252.0, 208.0, 26.0, 112.0, 15.0, 16.0, 0.0, 0.0, 0.0, 1.7297046467871408E9, 0.0, 2024-10-23 23:00:46.787
126.0, -47592.02719831791, -55882.91506563605, -31196.955585116815, -19870.07497192323, -17849.410217930104, -15592.46517329993, -187500.02235174447, -187500.02235174447, -0.10200000000000001, 0.846, 0.482, 192.0, 0.0, 0.0, 0.0, 0.0, 0.0, 0.0, 0.0, 0.0, 0.0, 1.7297046467911797E9, 0.0, 2024-10-23 23:00:46.791
127.0, -47567.79790732836, -55809.80250952274, -31392.17572118947, -19756.282240901262, -17839.10606373621, -15557.194120549455, -187500.02235174447, -187500.02235174447, -0.10200000000000001, 0.846, 0.482, 192.0, 0.0, 0.0, 0.0, 0.0, 0.0, 0.0, 0.0, 0.0, 0.0, 1.7297046467951832E9, 0.0, 2024-10-23 23:00:46.795
128.0, -47542.02634597139, -55747.32938377016, -31633.619264795696, -19670.183321259417, -17845.00692427241, -15550.443893723954, -187500.02235174447, -187500.02235174447, -0.10200000000000001, 0.846, 0.482, 192.0, 0.0, 0.0, 0.0, 0.0, 0.0, 0.0, 0.0, 0.0, 0.0, 1.7297046467991855E9, 0.0, 2024-10-23 23:00:46.799
129.0, -47590.41787271713, -55897.2425338319, -31438.55559093423, -19858.92145144003, -17864.274127992885, -15617.432071856509, -187500.02235174447, -187500.02235174447, -0.10200000000000001, 0.846, 0.482, 192.0, 0.0, 0.0, 0.0, 0.0, 0.0, 0.0, 0.0, 0.0, 0.0, 1.7297046468031714E9, 0.0, 2024-10-23 23:00:46.803
130.0, -47618.87164340873, -55956.631118849655, -31154.666084607376, -19950.407141495605, -17873.21482577501, -15643.091874491201, -187500.02235174447, -187500.02235174447, -0.10200000000000001, 0.846, 0.482, 192.0, 0.0, 0.0, 0.0, 0.0, 0.0, 0.0, 0.0, 0.0, 0.0, 1.7297046468082707E9, 0.0, 2024-10-23 23:00:46.808
131.0, -47591.71427389554, -55882.311568535755, -31214.099373114037, -19867.6386317776, -17870.420857718094, -15627.0880254612, -187500.02235174447, -187500.02235174447, -0.10200000000000001, 0.846, 0.482, 192.0, 0.0, 0.0, 0.0, 0.0, 0.0, 0.0, 0.0, 0.0, 0.0, 1.7297046468112068E9, 0.0, 2024-10-23 23:00:46.811
132.0, -47567.373224183706, -55808.81903276671, -31414.572169133684, -19762.71954330439, -17863.15654077012, -15596.354376835154, -187500.02235174447, -187500.02235174447, -0.10200000000000001, 0.846, 0.482, 192.0, 0.0, 0.0, 0.0, 0.0, 0.0, 0.0, 0.0, 0.0, 0.0, 1.7297046468151977E9, 0.0, 2024-10-23 23:00:46.815
133.0, -47539.74646803695, -55744.736581413345, -31661.84951804275, -19678.9452050859, -17862.977726814475, -15585.916112174526, -187500.02235174447, -187500.02235174447, -0.10200000000000001, 0.846, 0.482, 192.0, 0.0, 0.0, 0.0, 0.0, 0.0, 0.0, 0.0, 0.0, 0.0, 1.7297046468192103E9, 0.0, 2024-10-23 23:00:46.819
134.0, -47582.393596457674, -55884.412632514555, -31467.65756221504, -19863.92824219802, -17875.561758942815, -15641.99663901289, -187500.02235174447, -187500.02235174447, -0.10200000000000001, 0.846, 0.482, 192.0, 0.0, 0.0, 0.0, 0.0, 0.0, 0.0, 0.0, 0.0, 0.0, 1.729704646823209E9, 0.0, 2024-10-23 23:00:46.823
135.0, -47616.05532360737, -55944.87410126616, -31197.46967523929, -19964.153464335617, -17891.58795971727, -15667.499979436396, -187500.02235174447, -187500.02235174447, -0.108, 0.842, 0.486, 192.0, 252.0, 160.0, 26.0, 80.0, 15.0, 48.0, 0.0, 0.0, 0.0, 1.7297046468272014E9, 0.0, 2024-10-23 23:00:46.827
136.0, -47592.92126809613, -55873.080298075714, -31267.14006270648, -19880.80380926178, -17891.74442192846, -15648.545700138297, -187500.02235174447, -187500.02235174447, -0.108, 0.842, 0.486, 192.0, 0.0, 0.0, 0.0, 0.0, 0.0, 0.0, 0.0, 0.0, 0.0, 1.7297046468312185E9, 0.0, 2024-10-23 23:00:46.831
137.0, -47574.928113809605, -55804.371035620105, -31478.721675720415, -19779.148075479043, -17894.985424874478, -15616.359188122653, -187500.02235174447, -187500.02235174447, -0.108, 0.842, 0.486, 192.0, 0.0, 0.0, 0.0, 0.0, 0.0, 0.0, 0.0, 0.0, 0.0, 1.7297046468362472E9, 0.0, 2024-10-23 23:00:46.836
138.0, -47545.53556985087, -55741.13795055604, -31718.846466403782, -19693.27267328175, -17878.91452061111, -15594.387423323087, -187500.02235174447, -187500.02235174447, -0.108, 0.842, 0.486, 192.0, 0.0, 0.0, 0.0, 0.0, 0.0, 0.0, 0.0, 0.0, 0.0, 1.729704646839264E9, 0.0, 2024-10-23 23:00:46.839
139.0, -47593.234192518496, -55890.67112096204, -31518.396022128585, -19881.563768573258, -17886.715279426015, -15645.014124514357, -187500.02235174447, -187500.02235174447, -0.108, 0.842, 0.486, 192.0, 0.0, 0.0, 0.0, 0.0, 0.0, 0.0, 0.0, 0.0, 0.0, 1.729704646843254E9, 0.0, 2024-10-23 23:00:46.843
140.0, -47633.75790521597, -55964.051898008816, -31241.94964670535, -19982.90657793362, -17906.608331991236, -15667.924662581047, -187500.02235174447, -187500.02235174447, -0.108, 0.842, 0.486, 192.0, 0.0, 0.0, 0.0, 0.0, 0.0, 0.0, 0.0, 0.0, 0.0, 1.729704646847232E9, 0.0, 2024-10-23 23:00:46.847
141.0, -47605.59470720228, -55891.45343201798, -31289.737676350796, -19890.348004144194, -17892.459677751027, -15633.860604031159, -187500.02235174447, -187500.02235174447, -0.108, 0.842, 0.486, 192.0, 0.0, 0.0, 0.0, 0.0, 0.0, 0.0, 0.0, 0.0, 0.0, 1.729704646851234E9, 0.0, 2024-10-23 23:00:46.851
