%OpenBCI Raw EXG Data
%Number of channels = 8
%Sample Rate = 250 Hz
%Board = OpenBCI_GUI$BoardCytonSerial
Sample Index, EXG Channel 0, EXG Channel 1, EXG Channel 2, EXG Channel 3, EXG Channel 4, EXG Channel 5, EXG Channel 6, EXG Channel 7, Accel Channel 0, Accel Channel 1, Accel Channel 2, Other, Other, Other, Other, Other, Other, Other, Analog Channel 0, Analog Channel 1, Analog Channel 2, Timestamp, Other, Timestamp (Formatted)
0.0, 0.0, 0.0, 0.0, 0.0, 0.0, 0.0, 0.0, 0.0, 0.178, 0.9540000000000001, -0.126, 192.0, 5.0, 144.0, 29.0, 208.0, 252.0, 16.0, 0.0, 0.0, 0.0, 1.7296914114839516E9, 0.0, 2024-10-23 19:20:11.483
1.0, 22952.045256143243, 4870.758041233783, 43864.627941206454, 22319.17796363568, 17416.389872597443, 24136.95593320798, 156287.8899321425, -84543.93113183154, 0.178, 0.9540000000000001, -0.126, 192.0, 0.0, 0.0, 0.0, 0.0, 0.0, 0.0, 0.0, 0.0, 0.0, 1.7296914114879484E9, 0.0, 2024-10-23 19:20:11.487
2.0, 22947.35138980763, 4460.491771756622, 43854.48024922374, 22155.09380758927, 17420.97198021078, 24081.90358661456, 156099.3976711509, -84713.51381701397, 0.178, 0.9540000000000001, -0.126, 192.0, 0.0, 0.0, 0.0, 0.0, 0.0, 0.0, 0.0, 0.0, 0.0, 1.7296914114919903E9, 0.0, 2024-10-23 19:20:11.491
3.0, 22935.63907571305, 3773.3544437115725, 43840.33159498353, 22022.41385250257, 17418.35682610951, 24031.1204232121, 155809.69671126566, -84994.72111400618, 0.178, 0.9540000000000001, -0.126, 192.0, 0.0, 0.0, 0.0, 0.0, 0.0, 0.0, 0.0, 0.0, 0.0, 1.7296914114949732E9, 0.0, 2024-10-23 19:20:11.494
4.0, 23073.415228535563, 4024.1857199890283, 43898.87081371198, 22339.607458067832, 17432.192555927344, 24155.93256425054, 155888.15133430378, -84968.055482871, 0.178, 0.9540000000000001, -0.126, 192.0, 0.0, 0.0, 0.0, 0.0, 0.0, 0.0, 0.0, 0.0, 0.0, 1.7296914114989958E9, 0.0, 2024-10-23 19:20:11.498
5.0, 23055.556184715773, 4842.930119386926, 43904.056418425615, 22523.27174225709, 17426.73873028025, 24173.433980159043, 156254.80935034863, -84652.67236860661, 0.178, 0.9540000000000001, -0.126, 192.0, 0.0, 0.0, 0.0, 0.0, 0.0, 0.0, 0.0, 0.0, 0.0, 1.729691411502005E9, 0.0, 2024-10-23 19:20:11.502
6.0, 22941.1152531046, 4860.856218440083, 43867.01957786317, 22309.566713519896, 17421.866049988992, 24134.92192446255, 156293.07553685614, -84603.07384766029, 0.178, 0.9540000000000001, -0.126, 192.0, 0.0, 0.0, 0.0, 0.0, 0.0, 0.0, 0.0, 0.0, 0.0, 1.729691411506011E9, 0.0, 2024-10-23 19:20:11.506
7.0, 22938.902430403523, 4460.916454901273, 43862.05749059409, 22164.19096758258, 17437.668733318893, 24108.099831116182, 156110.41708116737, -84771.24837294202, 0.178, 0.9540000000000001, -0.126, 192.0, 0.0, 0.0, 0.0, 0.0, 0.0, 0.0, 0.0, 0.0, 0.0, 1.7296914115090108E9, 0.0, 2024-10-23 19:20:11.509
8.0, 22932.196907066933, 3784.910295594966, 43858.79413590362, 22046.59844000321, 17451.66092534792, 24048.66654260952, 155799.25844660503, -85077.48962372418, 0.166, 0.9520000000000001, -0.136, 192.0, 5.0, 48.0, 29.0, 192.0, 251.0, 192.0, 0.0, 0.0, 0.0, 1.7296914115120053E9, 0.0, 2024-10-23 19:20:11.512
9.0, 23073.9963738914, 4048.996156334419, 43912.304212129624, 22383.685098133697, 17451.66092534792, 24212.236608533458, 155868.72766837213, -85067.6325044194, 0.166, 0.9520000000000001, -0.136, 192.0, 0.0, 0.0, 0.0, 0.0, 0.0, 0.0, 0.0, 0.0, 0.0, 1.7296914115150013E9, 0.0, 2024-10-23 19:20:11.515
10.0, 23056.22673704943, 4871.070965656158, 43912.81830225209, 22573.876091703904, 17453.51612013771, 24255.733103243485, 156235.5197948837, -84757.12207044626, 0.166, 0.9520000000000001, -0.136, 192.0, 0.0, 0.0, 0.0, 0.0, 0.0, 0.0, 0.0, 0.0, 0.0, 1.7296914115190055E9, 0.0, 2024-10-23 19:20:11.519
11.0, 22944.378607795075, 4887.164221663978, 43874.59681923352, 22354.426664641698, 17448.330515424077, 24166.884919033637, 156237.55380362915, -84748.47194534207, 0.166, 0.9520000000000001, -0.136, 192.0, 0.0, 0.0, 0.0, 0.0, 0.0, 0.0, 0.0, 0.0, 0.0, 1.729691411522042E9, 0.0, 2024-10-23 19:20:11.522
12.0, 22935.884944902056, 4473.522838774066, 43853.29560676761, 22191.840075473796, 17430.426768115376, 24094.800543165275, 156044.0324001351, -84930.795124864, 0.166, 0.9520000000000001, -0.136, 192.0, 0.0, 0.0, 0.0, 0.0, 0.0, 0.0, 0.0, 0.0, 0.0, 1.7296914115250134E9, 0.0, 2024-10-23 19:20:11.525
13.0, 22923.904409874012, 3789.0677200636533, 43835.57067341455, 22067.385562346648, 17425.151756423922, 24060.96000205994, 155737.12059701927, -85233.05776513313, 0.166, 0.9520000000000001, -0.136, 192.0, 0.0, 0.0, 0.0, 0.0, 0.0, 0.0, 0.0, 0.0, 0.0, 1.7296914115281534E9, 0.0, 2024-10-23 19:20:11.528
14.0, 23065.9944493764, 4059.255607039405, 43893.55109853162, 22402.460563476154, 17440.842681031547, 24225.714710440006, 155825.2311736621, -85198.32315424958, 0.166, 0.9520000000000001, -0.136, 192.0, 0.0, 0.0, 0.0, 0.0, 0.0, 0.0, 0.0, 0.0, 0.0, 1.729691411532056E9, 0.0, 2024-10-23 19:20:11.532
15.0, 23052.9410306145, 4877.620026781563, 43899.87664221247, 22584.917853464827, 17442.384951398963, 24253.408521820133, 156194.1243641525, -84868.29964736696, 0.166, 0.9520000000000001, -0.136, 192.0, 0.0, 0.0, 0.0, 0.0, 0.0, 0.0, 0.0, 0.0, 0.0, 1.729691411535053E9, 0.0, 2024-10-23 19:20:11.535
16.0, 22942.25519207182, 4886.940704219425, 43859.33057777055, 22354.828996041895, 17426.090529691046, 24151.3504566372, 156230.04361749216, -84800.4173994562, 0.166, 0.9520000000000001, -0.136, 192.0, 0.0, 0.0, 0.0, 0.0, 0.0, 0.0, 0.0, 0.0, 0.0, 1.72969141153811E9, 0.0, 2024-10-23 19:20:11.538
17.0, 22945.742064206846, 4480.541286533033, 43853.76499340117, 22196.086906920304, 17440.194480442344, 24111.92197941804, 156044.09945536847, -84945.14494480431, 0.166, 0.9520000000000001, -0.136, 192.0, 0.0, 0.0, 0.0, 0.0, 0.0, 0.0, 0.0, 0.0, 0.0, 1.729691411542056E9, 0.0, 2024-10-23 19:20:11.542
18.0, 22938.790671681247, 3793.6051241880805, 43840.24218800571, 22064.03280067835, 17429.577401826074, 24049.24768796536, 155720.49089914453, -85236.25406459023, 0.152, 0.9520000000000001, -0.138, 192.0, 4.0, 192.0, 29.0, 192.0, 251.0, 176.0, 0.0, 0.0, 0.0, 1.7296914115470557E9, 0.0, 2024-10-23 19:20:11.547
19.0, 23079.338440816216, 4061.5578367183016, 43896.009790421704, 22387.216673757634, 17434.40537862842, 24170.192977213024, 155793.04466164645, -85192.08701754654, 0.152, 0.9520000000000001, -0.138, 192.0, 0.0, 0.0, 0.0, 0.0, 0.0, 0.0, 0.0, 0.0, 0.0, 1.7296914115500486E9, 0.0, 2024-10-23 19:20:11.550
20.0, 23070.66596396756, 4885.152564663001, 43909.085560928055, 22575.999507427157, 17435.992352484747, 24247.105329883736, 156157.40044801243, -84847.73604246808, 0.152, 0.9520000000000001, -0.138, 192.0, 0.0, 0.0, 0.0, 0.0, 0.0, 0.0, 0.0, 0.0, 0.0, 1.7296914115530438E9, 0.0, 2024-10-23 19:20:11.553
21.0, 22958.68372424647, 4894.316779889677, 43866.61724646297, 22347.788196538473, 17420.927276721868, 24170.237680701935, 156182.70262273581, -84773.19297470963, 0.152, 0.9520000000000001, -0.138, 192.0, 0.0, 0.0, 0.0, 0.0, 0.0, 0.0, 0.0, 0.0, 0.0, 1.7296914115580437E9, 0.0, 2024-10-23 19:20:11.558
22.0, 22955.77799746728, 4479.557809776999, 43858.03417659213, 22192.130648151717, 17442.45200663233, 24148.601192069196, 155987.70600410772, -84907.32579318593, 0.152, 0.9520000000000001, -0.138, 192.0, 0.0, 0.0, 0.0, 0.0, 0.0, 0.0, 0.0, 0.0, 0.0, 1.7296914115631852E9, 0.0, 2024-10-23 19:20:11.563
23.0, 22946.949058407434, 3787.2795805072287, 43846.43362121983, 22065.217443134483, 17446.296506678642, 24100.34377579019, 155674.8933404557, -85167.0977672455, 0.152, 0.9520000000000001, -0.138, 192.0, 0.0, 0.0, 0.0, 0.0, 0.0, 0.0, 0.0, 0.0, 0.0, 1.7296914115680842E9, 0.0, 2024-10-23 19:20:11.568
24.0, 23086.647461253102, 4065.894075142631, 43896.54623228863, 22392.62579591582, 17434.20421292832, 24212.214256789, 155752.1633210377, -85101.40599029136, 0.152, 0.9520000000000001, -0.138, 192.0, 0.0, 0.0, 0.0, 0.0, 0.0, 0.0, 0.0, 0.0, 0.0, 1.7296914115710928E9, 0.0, 2024-10-23 19:20:11.571
25.0, 23062.61933596365, 4882.492707072819, 43889.371322318475, 22567.103513133945, 17416.702797019818, 24223.524239483388, 156135.6522006574, -84729.58472127732, 0.152, 0.9520000000000001, -0.138, 192.0, 0.0, 0.0, 0.0, 0.0, 0.0, 0.0, 0.0, 0.0, 0.0, 1.7296914115741987E9, 0.0, 2024-10-23 19:20:11.574
26.0, 22948.938363663958, 4890.5616868211855, 43850.926321855346, 22337.014655711017, 17419.385006354452, 24152.915078749073, 156148.7056194193, -84669.12325252572, 0.152, 0.9520000000000001, -0.138, 192.0, 0.0, 0.0, 0.0, 0.0, 0.0, 0.0, 0.0, 0.0, 0.0, 1.7296914115770953E9, 0.0, 2024-10-23 19:20:11.577
27.0, 22941.53993624925, 4465.140934603326, 43835.59302515901, 22166.24732807247, 17410.91369520589, 24095.71696468794, 155931.87134645836, -84834.50380975055, 0.152, 0.9520000000000001, -0.138, 192.0, 0.0, 0.0, 0.0, 0.0, 0.0, 0.0, 0.0, 0.0, 0.0, 1.7296914115810983E9, 0.0, 2024-10-23 19:20:11.581
28.0, 22933.53801173425, 3767.0289000307207, 43830.07214427854, 22037.724797454455, 17428.906849492414, 24043.749158829352, 155625.0265985759, -85099.72960945721, 0.15, 0.9520000000000001, -0.138, 192.0, 4.0, 176.0, 29.0, 192.0, 251.0, 176.0, 0.0, 0.0, 0.0, 1.729691411584087E9, 0.0, 2024-10-23 19:20:11.584
29.0, 23075.695106470004, 4052.6841941695448, 43891.472386297275, 22372.933909050695, 17439.814500786604, 24198.959672327004, 155722.56961137886, -85022.92901550878, 0.15, 0.9520000000000001, -0.138, 192.0, 0.0, 0.0, 0.0, 0.0, 0.0, 0.0, 0.0, 0.0, 0.0, 1.7296914115891018E9, 0.0, 2024-10-23 19:20:11.589
30.0, 23053.56687945925, 4872.881456957038, 43895.78627297715, 22546.56225997952, 17448.12934972398, 24236.89058266766, 156095.95550250477, -84661.6354181332, 0.15, 0.9520000000000001, -0.138, 192.0, 0.0, 0.0, 0.0, 0.0, 0.0, 0.0, 0.0, 0.0, 0.0, 1.7296914115931764E9, 0.0, 2024-10-23 19:20:11.593
31.0, 22934.745005934838, 4875.206038380389, 43855.84370563552, 22307.197428607637, 17437.378160640976, 24121.734395233918, 156085.15960993286, -84625.89497874916, 0.15, 0.9520000000000001, -0.138, 192.0, 0.0, 0.0, 0.0, 0.0, 0.0, 0.0, 0.0, 0.0, 0.0, 1.7296914115961244E9, 0.0, 2024-10-23 19:20:11.596
32.0, 22928.464165742895, 4446.5666349609655, 43842.253845006686, 22144.18615629508, 17432.93016349437, 24058.925993314504, 155884.99973833558, -84782.58070738087, 0.15, 0.9520000000000001, -0.138, 192.0, 0.0, 0.0, 0.0, 0.0, 0.0, 0.0, 0.0, 0.0, 0.0, 1.7296914116011157E9, 0.0, 2024-10-23 19:20:11.601
33.0, 22923.43502324045, 3753.2825771907064, 43836.75531587069, 22030.281666550836, 17426.805785513614, 24073.76755163283, 155586.2686736904, -85049.39348094387, 0.15, 0.9520000000000001, -0.138, 192.0, 0.0, 0.0, 0.0, 0.0, 0.0, 0.0, 0.0, 0.0, 0.0, 1.7296914116051717E9, 0.0, 2024-10-23 19:20:11.605
34.0, 23067.76023718837, 4048.973804589964, 43893.50639504271, 22368.754132837552, 17433.041922216646, 24205.84400961924, 155671.04884040938, -84995.12344540638, 0.15, 0.9520000000000001, -0.138, 192.0, 0.0, 0.0, 0.0, 0.0, 0.0, 0.0, 0.0, 0.0, 0.0, 1.729691411608163E9, 0.0, 2024-10-23 19:20:11.608
35.0, 23047.442501478494, 4877.329454103644, 43891.360627575, 22548.41745476931, 17428.325704136576, 24231.816736676305, 156036.54456574257, -84653.56643838483, 0.15, 0.9520000000000001, -0.138, 192.0, 0.0, 0.0, 0.0, 0.0, 0.0, 0.0, 0.0, 0.0, 0.0, 1.7296914116121554E9, 0.0, 2024-10-23 19:20:11.612
36.0, 22934.052101856723, 4887.790070508727, 43849.78638288813, 22321.86017297032, 17418.803860998614, 24145.315485634266, 156038.26565006562, -84594.51312953391, 0.15, 0.9520000000000001, -0.138, 192.0, 0.0, 0.0, 0.0, 0.0, 0.0, 0.0, 0.0, 0.0, 0.0, 1.7296914116171331E9, 0.0, 2024-10-23 19:20:11.617
37.0, 22935.259096057307, 4471.868809684373, 43844.04198456311, 22170.114179863238, 17422.760119767205, 24107.608092738163, 155823.21951666113, -84736.2008376361, 0.15, 0.9520000000000001, -0.138, 192.0, 0.0, 0.0, 0.0, 0.0, 0.0, 0.0, 0.0, 0.0, 0.0, 1.7296914116222942E9, 0.0, 2024-10-23 19:20:11.622
38.0, 22930.63228495506, 3774.6731966344355, 43833.84958909149, 22055.4050273186, 17425.419977357386, 24058.4789584254, 155534.03264689835, -84952.23044779664, 0.14200000000000002, 0.9540000000000001, -0.14, 192.0, 4.0, 112.0, 29.0, 208.0, 251.0, 160.0, 0.0, 0.0, 0.0, 1.7296914116251562E9, 0.0, 2024-10-23 19:20:11.625
39.0, 23078.75729546038, 4082.769642206388, 43893.998133420726, 22404.3381100104, 17436.551146096128, 24210.98491084396, 155647.95948838704, -84822.05388808894, 0.14200000000000002, 0.9540000000000001, -0.14, 192.0, 0.0, 0.0, 0.0, 0.0, 0.0, 0.0, 0.0, 0.0, 0.0, 1.7296914116281247E9, 0.0, 2024-10-23 19:20:11.628
40.0, 23065.70387669848, 4915.327419677666, 43897.19443287783, 22578.547606295062, 17423.095395934033, 24246.27831533889, 156010.84005961896, -84479.91573571155, 0.14200000000000002, 0.9540000000000001, -0.14, 192.0, 0.0, 0.0, 0.0, 0.0, 0.0, 0.0, 0.0, 0.0, 0.0, 1.729691411635225E9, 0.0, 2024-10-23 19:20:11.635
41.0, 22958.21433761291, 4917.5625941231965, 43862.01278710518, 22348.078769216394, 17427.744558780738, 24157.40777938459, 156026.3298185265, -84430.83130488769, 0.14200000000000002, 0.9540000000000001, -0.14, 192.0, 0.0, 0.0, 0.0, 0.0, 0.0, 0.0, 0.0, 0.0, 0.0, 1.7296914116382115E9, 0.0, 2024-10-23 19:20:11.638
42.0, 22955.53212827827, 4490.085481415449, 43851.95450210029, 22185.380421326212, 17425.710550035306, 24116.72760447593, 155822.23603990508, -84584.5666032513, 0.14200000000000002, 0.9540000000000001, -0.14, 192.0, 0.0, 0.0, 0.0, 0.0, 0.0, 0.0, 0.0, 0.0, 0.0, 1.729691411643149E9, 0.0, 2024-10-23 19:20:11.643
43.0, 22948.53603226376, 3785.8714206065442, 43841.31507173957, 22059.405989576102, 17418.91561972089, 24070.99593532037, 155509.02104485288, -84847.49017327907, 0.14200000000000002, 0.9540000000000001, -0.14, 192.0, 0.0, 0.0, 0.0, 0.0, 0.0, 0.0, 0.0, 0.0, 0.0, 1.729691411654188E9, 0.0, 2024-10-23 19:20:11.654
44.0, 23090.536664788327, 4088.7152062315, 43897.127377644465, 22400.3371477529, 17421.888401733446, 24192.008279801405, 155621.13739504069, -84731.5516747894, 0.14200000000000002, 0.9540000000000001, -0.14, 192.0, 0.0, 0.0, 0.0, 0.0, 0.0, 0.0, 0.0, 0.0, 0.0, 1.7296914116582544E9, 0.0, 2024-10-23 19:20:11.658
45.0, 23068.38608603312, 4906.833756784649, 43900.10015965702, 22567.729361978694, 17422.894230233935, 24217.891599880648, 155989.0694605195, -84343.19011487844, 0.14200000000000002, 0.9540000000000001, -0.14, 192.0, 0.0, 0.0, 0.0, 0.0, 0.0, 0.0, 0.0, 0.0, 0.0, 1.7296914116612828E9, 0.0, 2024-10-23 19:20:11.661
46.0, 22958.01317191281, 4905.626762584062, 43866.796060418616, 22341.820280768905, 17430.985561726757, 24165.633221344142, 155992.73514661018, -84251.50325912276, 0.14200000000000002, 0.9540000000000001, -0.14, 192.0, 0.0, 0.0, 0.0, 0.0, 0.0, 0.0, 0.0, 0.0, 0.0, 1.7296914116653204E9, 0.0, 2024-10-23 19:20:11.665
47.0, 22949.519509019796, 4470.348891061412, 43849.78638288813, 22176.663240988644, 17427.96807622529, 24099.449706011976, 155796.10685063683, -84367.64292331254, 0.14200000000000002, 0.9540000000000001, -0.14, 192.0, 0.0, 0.0, 0.0, 0.0, 0.0, 0.0, 0.0, 0.0, 0.0, 1.7296914116681783E9, 0.0, 2024-10-23 19:20:11.668
48.0, 22940.332942048663, 3761.396260427983, 43837.20235075979, 22046.620791747668, 17427.20811691381, 24073.2311097659, 155492.83838186722, -84615.92610072209, 0.14, 0.9540000000000001, -0.14200000000000002, 192.0, 4.0, 96.0, 29.0, 208.0, 251.0, 144.0, 0.0, 0.0, 0.0, 1.7296914116712213E9, 0.0, 2024-10-23 19:20:11.671
49.0, 23076.052734381286, 4058.2497785389164, 43885.10213912751, 22372.442170672675, 17411.87482021747, 24165.432055644043, 155574.19873168453, -84537.33736721723, 0.14, 0.9540000000000001, -0.14200000000000002, 192.0, 0.0, 0.0, 0.0, 0.0, 0.0, 0.0, 0.0, 0.0, 0.0, 1.7296914116752028E9, 0.0, 2024-10-23 19:20:11.675
50.0, 23052.493995725396, 4868.701680743895, 43886.82322345057, 22542.762463422117, 17421.575477311075, 24217.086937080257, 155939.1580151508, -84161.80570862362, 0.14, 0.9540000000000001, -0.14200000000000002, 192.0, 0.0, 0.0, 0.0, 0.0, 0.0, 0.0, 0.0, 0.0, 0.0, 1.7296914116781988E9, 0.0, 2024-10-23 19:20:11.678
51.0, 22938.410692025507, 4861.035032395725, 43847.05947006458, 22312.13716413226, 17421.709587777805, 24151.126939192647, 155942.15314890782, -84078.1431291274, 0.14, 0.9540000000000001, -0.14200000000000002, 192.0, 0.0, 0.0, 0.0, 0.0, 0.0, 0.0, 0.0, 0.0, 0.0, 1.7296914116812155E9, 0.0, 2024-10-23 19:20:11.681
52.0, 22934.834412912656, 4427.344134729402, 43843.05850780708, 22154.222089555515, 17435.232393173264, 24091.604243708163, 155738.55110866443, -84194.48395901728, 0.14, 0.9540000000000001, -0.14200000000000002, 192.0, 0.0, 0.0, 0.0, 0.0, 0.0, 0.0, 0.0, 0.0, 0.0, 1.729691411685207E9, 0.0, 2024-10-23 19:20:11.685
53.0, 22921.982159850857, 3718.078579673598, 43829.55805415608, 22029.856983406185, 17432.840756516547, 24072.515853943332, 155429.40413110307, -84427.05386007475, 0.14, 0.9540000000000001, -0.14200000000000002, 192.0, 0.0, 0.0, 0.0, 0.0, 0.0, 0.0, 0.0, 0.0, 0.0, 1.7296914116882436E9, 0.0, 2024-10-23 19:20:11.688
54.0, 23063.17812957503, 4030.108932269685, 43885.92915367236, 22374.073848017913, 17434.517137350696, 24209.085012565258, 155523.460271771, -84325.84516118112, 0.14, 0.9540000000000001, -0.14200000000000002, 192.0, 0.0, 0.0, 0.0, 0.0, 0.0, 0.0, 0.0, 0.0, 0.0, 1.7296914116913252E9, 0.0, 2024-10-23 19:20:11.691
55.0, 23033.02562630482, 4836.649279194985, 43878.66483672438, 22531.139556305356, 17417.73097726476, 24208.034480575858, 155882.25047376758, -83967.1667179068, 0.14, 0.9540000000000001, -0.14200000000000002, 192.0, 0.0, 0.0, 0.0, 0.0, 0.0, 0.0, 0.0, 0.0, 0.0, 1.7296914116952455E9, 0.0, 2024-10-23 19:20:11.695
56.0, 22916.640092926038, 4823.305287755166, 43838.476400193744, 22298.4131930367, 17404.230523613754, 24127.255276114378, 155904.7363286896, -83905.47590321016, 0.14, 0.9540000000000001, -0.14200000000000002, 192.0, 0.0, 0.0, 0.0, 0.0, 0.0, 0.0, 0.0, 0.0, 0.0, 1.7296914116982365E9, 0.0, 2024-10-23 19:20:11.698
57.0, 22916.215409781387, 4397.169279714737, 43836.174170514845, 22143.67206617261, 17422.089567433544, 24101.953101390973, 155721.22850671154, -84057.95950388427, 0.14, 0.9540000000000001, -0.14200000000000002, 192.0, 0.0, 0.0, 0.0, 0.0, 0.0, 0.0, 0.0, 0.0, 0.0, 1.7296914117012172E9, 0.0, 2024-10-23 19:20:11.701
58.0, 22910.560418434194, 3696.822070696601, 43831.837932090515, 22019.08344257873, 17431.812576271604, 24053.829795578695, 155393.26136031884, -84338.38448982054, 0.148, 0.9540000000000001, -0.138, 192.0, 4.0, 160.0, 29.0, 208.0, 251.0, 176.0, 0.0, 0.0, 0.0, 1.7296914117052388E9, 0.0, 2024-10-23 19:20:11.705
59.0, 23057.165510316554, 4023.738685099922, 43894.825147965574, 22370.497568905066, 17441.289715920655, 24180.184206984548, 155481.32723347275, -84239.00863397225, 0.148, 0.9540000000000001, -0.138, 192.0, 0.0, 0.0, 0.0, 0.0, 0.0, 0.0, 0.0, 0.0, 0.0, 1.7296914117082655E9, 0.0, 2024-10-23 19:20:11.708
60.0, 23028.71173962495, 4834.771732660739, 43889.12545312947, 22535.65460868533, 17429.108015192513, 24230.810908175816, 155871.40987770676, -83828.74236449509, 0.148, 0.9540000000000001, -0.138, 192.0, 0.0, 0.0, 0.0, 0.0, 0.0, 0.0, 0.0, 0.0, 0.0, 1.7296914117122471E9, 0.0, 2024-10-23 19:20:11.712
61.0, 22916.126002803565, 4830.614308192052, 43850.993377088715, 22305.543399517945, 17430.605582071017, 24169.745942323916, 155891.48174422764, -83728.1148109573, 0.148, 0.9540000000000001, -0.138, 192.0, 0.0, 0.0, 0.0, 0.0, 0.0, 0.0, 0.0, 0.0, 0.0, 1.7296914117162924E9, 0.0, 2024-10-23 19:20:11.716
62.0, 22916.751851648314, 4404.0089135180615, 43844.37726072994, 22144.789653395375, 17442.273192676686, 24116.05705214227, 155679.83307598034, -83852.81519327345, 0.148, 0.9540000000000001, -0.138, 192.0, 0.0, 0.0, 0.0, 0.0, 0.0, 0.0, 0.0, 0.0, 0.0, 1.7296914117203012E9, 0.0, 2024-10-23 19:20:11.720
63.0, 22912.57207543517, 3703.169966121908, 43832.128504768436, 22025.140765326116, 17433.243087916744, 24074.72867664441, 155366.03693557228, -84084.17810013033, 0.148, 0.9540000000000001, -0.138, 192.0, 0.0, 0.0, 0.0, 0.0, 0.0, 0.0, 0.0, 0.0, 0.0, 1.7296914117242715E9, 0.0, 2024-10-23 19:20:11.724
64.0, 23060.38416151812, 4046.6268714221565, 43884.92332517187, 22380.80172309896, 17426.694026791338, 24195.83042810326, 155475.09109676973, -83957.10843290192, 0.148, 0.9540000000000001, -0.138, 192.0, 0.0, 0.0, 0.0, 0.0, 0.0, 0.0, 0.0, 0.0, 0.0, 1.72969141173028E9, 0.0, 2024-10-23 19:20:11.730
65.0, 23036.400739717574, 4874.736651746828, 43873.47923201075, 22543.500070989143, 17404.83402071405, 24198.378526971166, 155841.34678141438, -83578.91691671812, 0.148, 0.9540000000000001, -0.138, 192.0, 0.0, 0.0, 0.0, 0.0, 0.0, 0.0, 0.0, 0.0, 0.0, 1.7296914117332883E9, 0.0, 2024-10-23 19:20:11.733
66.0, 22928.263000042796, 4878.737614004328, 43834.81071410307, 22312.74066123255, 17409.840811472037, 24132.10560466118, 155827.3322376409, -83531.4194597506, 0.148, 0.9540000000000001, -0.138, 192.0, 0.0, 0.0, 0.0, 0.0, 0.0, 0.0, 0.0, 0.0, 0.0, 1.7296914117372928E9, 0.0, 2024-10-23 19:20:11.737
67.0, 22931.325189033174, 4450.299376285002, 43825.46768492075, 22155.16086282264, 17407.180953881856, 24088.027964595316, 155601.1772872421, -83680.81851968987, 0.148, 0.9540000000000001, -0.138, 192.0, 0.0, 0.0, 0.0, 0.0, 0.0, 0.0, 0.0, 0.0, 0.0, 1.7296914117402992E9, 0.0, 2024-10-23 19:20:11.740
68.0, 22928.844145398634, 3742.821960785623, 43817.91279529486, 22038.3506462992, 17417.9097912204, 24063.530452672298, 155290.46568756888, -83918.48461848314, 0.14400000000000002, 0.9540000000000001, -0.134, 192.0, 4.0, 128.0, 29.0, 208.0, 251.0, 208.0, 0.0, 0.0, 0.0, 1.729691411744307E9, 0.0, 2024-10-23 19:20:11.744
69.0, 23077.259728581874, 4090.5704010212903, 43876.6084762345, 22396.29148200649, 17416.144003408433, 24206.671024164087, 155394.3789475416, -83815.24191084408, 0.14400000000000002, 0.9540000000000001, -0.134, 192.0, 0.0, 0.0, 0.0, 0.0, 0.0, 0.0, 0.0, 0.0, 0.0, 1.729691411748315E9, 0.0, 2024-10-23 19:20:11.748
70.0, 23055.869109138144, 4912.667562087484, 43878.93305765785, 22557.827539184993, 17417.708625520307, 24209.73321315446, 155754.08557106086, -83440.91724645105, 0.14400000000000002, 0.9540000000000001, -0.134, 192.0, 0.0, 0.0, 0.0, 0.0, 0.0, 0.0, 0.0, 0.0, 0.0, 1.7296914117523413E9, 0.0, 2024-10-23 19:20:11.752
71.0, 22947.083168874167, 4906.073797473168, 43845.606606674985, 22329.124489918293, 17416.54633480863, 24136.330084363235, 155762.1098473203, -83358.17108847751, 0.14400000000000002, 0.9540000000000001, -0.134, 192.0, 0.0, 0.0, 0.0, 0.0, 0.0, 0.0, 0.0, 0.0, 0.0, 1.729691411756303E9, 0.0, 2024-10-23 19:20:11.756
72.0, 22944.289200817253, 4467.398460793312, 43838.38699321592, 22171.52233976392, 17409.192610882834, 24091.738354174897, 155569.68367930458, -83482.62560160465, 0.14400000000000002, 0.9540000000000001, -0.134, 192.0, 0.0, 0.0, 0.0, 0.0, 0.0, 0.0, 0.0, 0.0, 0.0, 1.7296914117613416E9, 0.0, 2024-10-23 19:20:11.761
73.0, 22935.14733733503, 3747.806399799156, 43822.897234308395, 22039.736454455433, 17407.225657370767, 24051.7287315999, 155240.30837301115, -83769.80081436645, 0.14400000000000002, 0.9540000000000001, -0.134, 192.0, 0.0, 0.0, 0.0, 0.0, 0.0, 0.0, 0.0, 0.0, 0.0, 1.729691411764324E9, 0.0, 2024-10-23 19:20:11.764
74.0, 23082.37827806214, 4095.957171435019, 43883.62692399346, 22396.403240728767, 17418.692102276338, 24209.37558524318, 155349.63075514208, -83690.94385992811, 0.14400000000000002, 0.9540000000000001, -0.134, 192.0, 0.0, 0.0, 0.0, 0.0, 0.0, 0.0, 0.0, 0.0, 0.0, 1.7296914117683575E9, 0.0, 2024-10-23 19:20:11.768
75.0, 23054.952687615478, 4917.093207489635, 43884.49864202722, 22559.548623508053, 17418.91561972089, 24239.729254213486, 155722.6143148678, -83338.07687021219, 0.14400000000000002, 0.9540000000000001, -0.134, 192.0, 0.0, 0.0, 0.0, 0.0, 0.0, 0.0, 0.0, 0.0, 0.0, 1.729691411774367E9, 0.0, 2024-10-23 19:20:11.774
76.0, 22938.410692025507, 4904.039788727736, 43848.04294682061, 22321.770765992496, 17423.609486056506, 24151.3504566372, 155728.73869284854, -83290.22178533337, 0.14400000000000002, 0.9540000000000001, -0.134, 192.0, 0.0, 0.0, 0.0, 0.0, 0.0, 0.0, 0.0, 0.0, 0.0, 1.7296914117773829E9, 0.0, 2024-10-23 19:20:11.777
77.0, 22926.76543316429, 4446.4995797276, 43831.68146987933, 22152.590412210277, 17420.927276721868, 24105.596435737185, 155533.96559166498, -83436.13397313762, 0.14400000000000002, 0.9540000000000001, -0.134, 192.0, 0.0, 0.0, 0.0, 0.0, 0.0, 0.0, 0.0, 0.0, 0.0, 1.7296914117813656E9, 0.0, 2024-10-23 19:20:11.781
78.0, 22918.607046438105, 3715.2846116166847, 43817.577519128026, 22022.704425180487, 17422.380140111465, 24065.81033060674, 155223.2316402473, -83709.60756654831, 0.14200000000000002, 0.9560000000000001, -0.136, 192.0, 4.0, 112.0, 29.0, 224.0, 251.0, 192.0, 0.0, 0.0, 0.0, 1.7296914117854369E9, 0.0, 2024-10-23 19:20:11.785
79.0, 23069.593080233702, 4077.7628514483995, 43880.11770011398, 22388.982461569605, 17429.82327101508, 24209.196771287534, 155332.86694680058, -83637.00910055746, 0.14200000000000002, 0.9560000000000001, -0.136, 192.0, 0.0, 0.0, 0.0, 0.0, 0.0, 0.0, 0.0, 0.0, 0.0, 1.7296914117913837E9, 0.0, 2024-10-23 19:20:11.791
80.0, 23037.071292051234, 4896.887230502037, 43876.6084762345, 22549.110358847425, 17428.4151111144, 24245.071321138304, 155711.5949048513, -83284.87971840856, 0.14200000000000002, 0.9560000000000001, -0.136, 192.0, 0.0, 0.0, 0.0, 0.0, 0.0, 0.0, 0.0, 0.0, 0.0, 1.729691411794381E9, 0.0, 2024-10-23 19:20:11.794
81.0, 22920.21637203889, 4906.498480617819, 43842.253845006686, 22315.17700137818, 17437.69108506335, 24170.17062546857, 155731.59971613882, -83226.92164503595, 0.14200000000000002, 0.9560000000000001, -0.136, 192.0, 0.0, 0.0, 0.0, 0.0, 0.0, 0.0, 0.0, 0.0, 0.0, 1.7296914117983572E9, 0.0, 2024-10-23 19:20:11.798
82.0, 22911.52154344577, 4423.611393405366, 43832.128504768436, 22127.24353399796, 17442.02732348768, 24102.06486011325, 155513.17846932154, -83403.94746112198, 0.14200000000000002, 0.9560000000000001, -0.136, 192.0, 0.0, 0.0, 0.0, 0.0, 0.0, 0.0, 0.0, 0.0, 0.0, 1.7296914118014455E9, 0.0, 2024-10-23 19:20:11.801
83.0, 22906.76062187679, 3663.205047035819, 43822.65136511938, 21995.480000433923, 17445.2683264337, 24056.020266535317, 155176.44943910235, -83710.03224969296, 0.14200000000000002, 0.9560000000000001, -0.136, 192.0, 0.0, 0.0, 0.0, 0.0, 0.0, 0.0, 0.0, 0.0, 0.0, 1.7296914118043787E9, 0.0, 2024-10-23 19:20:11.804
84.0, 23059.914774884557, 4040.927176586053, 43882.41992979288, 22377.739534108583, 17441.02149498719, 24211.856628877715, 155299.71930977338, -83628.6942516201, 0.14200000000000002, 0.9560000000000001, -0.136, 192.0, 0.0, 0.0, 0.0, 0.0, 0.0, 0.0, 0.0, 0.0, 0.0, 1.7296914118074455E9, 0.0, 2024-10-23 19:20:11.807
85.0, 23046.347266000186, 4925.743332593838, 43885.951505416815, 22565.740056722174, 17433.891288505947, 24254.213184620523, 155696.28395989942, -83265.74662515482, 0.14200000000000002, 0.9560000000000001, -0.136, 192.0, 0.0, 0.0, 0.0, 0.0, 0.0, 0.0, 0.0, 0.0, 0.0, 1.7296914118124092E9, 0.0, 2024-10-23 19:20:11.812
86.0, 22926.139584319542, 5095.080148587245, 43839.43752520532, 22354.247850686057, 17417.68627377585, 24146.20955541248, 155791.10005987884, -83147.48354524179, 0.14200000000000002, 0.9560000000000001, -0.136, 192.0, 0.0, 0.0, 0.0, 0.0, 0.0, 0.0, 0.0, 0.0, 0.0, 1.7296914118164868E9, 0.0, 2024-10-23 19:20:11.816
87.0, 22879.29032794122, 4402.4889948951, 43816.12465573844, 22067.4079140911, 17429.73386403726, 24077.790865634786, 155479.2932247273, -83405.31091753374, 0.14200000000000002, 0.9560000000000001, -0.136, 192.0, 0.0, 0.0, 0.0, 0.0, 0.0, 0.0, 0.0, 0.0, 0.0, 1.7296914118205202E9, 0.0, 2024-10-23 19:20:11.820
88.0, 22906.00066256531, 3572.4346128028174, 43822.85253081948, 21976.54807288028, 17447.570556112594, 24087.49152272839, 155105.43794696784, -83751.85236356883, 0.148, 0.9560000000000001, -0.14400000000000002, 192.0, 4.0, 160.0, 29.0, 224.0, 251.0, 128.0, 0.0, 0.0, 0.0, 1.7296914118244648E9, 0.0, 2024-10-23 19:20:11.824
89.0, 23079.67371698305, 4058.674461683567, 43888.946639173824, 22420.029034618026, 17444.84364328905, 24244.356065315733, 155274.17126586096, -83635.01979530095, 0.148, 0.9560000000000001, -0.14400000000000002, 192.0, 0.0, 0.0, 0.0, 0.0, 0.0, 0.0, 0.0, 0.0, 0.0, 1.72969141182846E9, 0.0, 2024-10-23 19:20:11.828
90.0, 23058.797187661792, 4945.3905159700535, 43890.53361303015, 22582.66032727484, 17438.160471696912, 24247.507661283933, 155687.05268943938, -83252.98377907084, 0.148, 0.9560000000000001, -0.14400000000000002, 192.0, 0.0, 0.0, 0.0, 0.0, 0.0, 0.0, 0.0, 0.0, 0.0, 1.7296914118325515E9, 0.0, 2024-10-23 19:20:11.832
91.0, 22949.40775029752, 5146.064477689801, 43850.21106603278, 22380.42174344322, 17428.281000647665, 24160.358209652688, 155790.3848040563, -83121.89079784046, 0.148, 0.9560000000000001, -0.14400000000000002, 192.0, 0.0, 0.0, 0.0, 0.0, 0.0, 0.0, 0.0, 0.0, 0.0, 1.7296914118375788E9, 0.0, 2024-10-23 19:20:11.837
92.0, 22897.506999672296, 4424.68427713922, 43816.79520807209, 22075.94628047303, 17419.653227287916, 24080.607185436154, 155481.26017823938, -83374.48786192988, 0.148, 0.9560000000000001, -0.14400000000000002, 192.0, 0.0, 0.0, 0.0, 0.0, 0.0, 0.0, 0.0, 0.0, 0.0, 1.7296914118414376E9, 0.0, 2024-10-23 19:20:11.841
93.0, 22923.8597063851, 3594.026397946644, 43814.87295804894, 21978.7385438369, 17422.49189883374, 24052.488690911377, 155082.7956298346, -83748.65606411172, 0.148, 0.9560000000000001, -0.14400000000000002, 192.0, 0.0, 0.0, 0.0, 0.0, 0.0, 0.0, 0.0, 0.0, 0.0, 1.7296914118444684E9, 0.0, 2024-10-23 19:20:11.844
94.0, 23101.556074804794, 4089.005778909419, 43884.02925539366, 22424.365273042356, 17420.860221488503, 24201.93245433956, 155260.69316395442, -83623.95568179556, 0.148, 0.9560000000000001, -0.14400000000000002, 192.0, 0.0, 0.0, 0.0, 0.0, 0.0, 0.0, 0.0, 0.0, 0.0, 1.7296914118485374E9, 0.0, 2024-10-23 19:20:11.848
95.0, 23078.37731580464, 4974.403080273042, 43881.72702571476, 22584.537873809084, 17409.170259138376, 24231.41440527611, 155660.16354085965, -83255.30836049418, 0.148, 0.9560000000000001, -0.14400000000000002, 192.0, 0.0, 0.0, 0.0, 0.0, 0.0, 0.0, 0.0, 0.0, 0.0, 1.7296914118524375E9, 0.0, 2024-10-23 19:20:11.852
96.0, 22969.792541240757, 5175.032338503878, 43848.22176077626, 22384.400353956265, 17413.39473884043, 24157.676000318053, 155761.4616467311, -83126.71877464281, 0.148, 0.9560000000000001, -0.14400000000000002, 192.0, 0.0, 0.0, 0.0, 0.0, 0.0, 0.0, 0.0, 0.0, 0.0, 1.729691411856495E9, 0.0, 2024-10-23 19:20:11.856
97.0, 22922.38449125105, 4450.545245474011, 43827.45699017728, 22083.56822533229, 17413.707663262805, 24059.015400292326, 155437.0484277068, -83396.50433021836, 0.148, 0.9560000000000001, -0.14400000000000002, 192.0, 0.0, 0.0, 0.0, 0.0, 0.0, 0.0, 0.0, 0.0, 0.0, 1.7296914118604813E9, 0.0, 2024-10-23 19:20:11.860
98.0, 22945.049160128732, 3613.8076917895905, 43827.59110064401, 21989.847360831187, 17405.325759092066, 24037.445966892956, 155060.26507142367, -83747.33731118886, 0.148, 0.9580000000000001, -0.146, 192.0, 4.0, 160.0, 29.0, 240.0, 251.0, 112.0, 0.0, 0.0, 0.0, 1.7296914118634868E9, 0.0, 2024-10-23 19:20:11.863
99.0, 23116.174115678565, 4120.745256035955, 43893.81931946508, 22432.702473724185, 17409.460831816297, 24185.906253565106, 155230.56301242864, -83631.17529525462, 0.148, 0.9580000000000001, -0.146, 192.0, 0.0, 0.0, 0.0, 0.0, 0.0, 0.0, 0.0, 0.0, 0.0, 1.729691411867487E9, 0.0, 2024-10-23 19:20:11.867
100.0, 23090.13433338813, 5009.785891745793, 43894.17694737637, 22589.99169945618, 17407.963264937793, 24225.580599973277, 155635.3307527698, -83258.99639832931, 0.148, 0.9580000000000001, -0.146, 192.0, 0.0, 0.0, 0.0, 0.0, 0.0, 0.0, 0.0, 0.0, 0.0, 1.7296914118724926E9, 0.0, 2024-10-23 19:20:11.872
101.0, 22969.658430774027, 5202.592039417272, 43856.447202735806, 22381.986365555094, 17406.465698059284, 24144.44376760051, 155749.88344310326, -83119.36505071701, 0.148, 0.9580000000000001, -0.146, 192.0, 0.0, 0.0, 0.0, 0.0, 0.0, 0.0, 0.0, 0.0, 0.0, 1.7296914118765018E9, 0.0, 2024-10-23 19:20:11.876
102.0, 22908.928741088956, 4463.3527950469015, 43821.93610929682, 22070.47010308148, 17400.363671822986, 24046.18549897498, 155429.20296540298, -83386.06606555774, 0.148, 0.9580000000000001, -0.146, 192.0, 0.0, 0.0, 0.0, 0.0, 0.0, 0.0, 0.0, 0.0, 0.0, 1.7296914118805032E9, 0.0, 2024-10-23 19:20:11.880
103.0, 22927.77126166478, 3623.664811094381, 43822.20433023028, 21975.318726935235, 17405.884552703446, 24029.600504589143, 155047.56928057305, -83743.47045939809, 0.148, 0.9580000000000001, -0.146, 192.0, 0.0, 0.0, 0.0, 0.0, 0.0, 0.0, 0.0, 0.0, 0.0, 1.7296914118845344E9, 0.0, 2024-10-23 19:20:11.884
104.0, 23097.19748463601, 4134.402171898148, 43894.42281656538, 22417.525639239033, 17428.97390472578, 24194.1093437802, 155211.94400929738, -83633.745745867, 0.148, 0.9580000000000001, -0.146, 192.0, 0.0, 0.0, 0.0, 0.0, 0.0, 0.0, 0.0, 0.0, 0.0, 1.7296914118887181E9, 0.0, 2024-10-23 19:20:11.888
105.0, 23067.8943476551, 5021.386447118098, 43900.72600850177, 22573.540815537075, 17436.97582924078, 24237.427024534587, 155607.01109254494, -83268.74175891183, 0.148, 0.9580000000000001, -0.146, 192.0, 0.0, 0.0, 0.0, 0.0, 0.0, 0.0, 0.0, 0.0, 0.0, 1.7296914118915284E9, 0.0, 2024-10-23 19:20:11.891
106.0, 22942.29989556073, 5206.593001674772, 43857.20716204729, 22364.3284874354, 17427.96807622529, 24160.179395697047, 155723.32957069034, -83123.65658565242, 0.148, 0.9580000000000001, -0.146, 192.0, 0.0, 0.0, 0.0, 0.0, 0.0, 0.0, 0.0, 0.0, 0.0, 1.729691411895507E9, 0.0, 2024-10-23 19:20:11.895
107.0, 22882.978365776347, 4465.029175881049, 43825.6464988764, 22054.26508835138, 17425.2635151462, 24076.650926667564, 155399.89982842206, -83390.3799522376, 0.148, 0.9580000000000001, -0.146, 192.0, 0.0, 0.0, 0.0, 0.0, 0.0, 0.0, 0.0, 0.0, 0.0, 1.7296914119005456E9, 0.0, 2024-10-23 19:20:11.900
108.0, 22903.16199101949, 3617.3616191579845, 43827.38993494391, 21957.72790404891, 17438.87572751948, 24042.318647184213, 155027.40800707438, -83730.75231680302, 0.148, 0.9580000000000001, -0.146, 192.0, 0.0, 0.0, 0.0, 0.0, 0.0, 0.0, 0.0, 0.0, 0.0, 1.7296914119045403E9, 0.0, 2024-10-23 19:20:11.904
109.0, 23076.56682450376, 4133.306936419837, 43897.417950322386, 22408.115554823347, 17435.79118678465, 24214.158858556613, 155225.8467943486, -83578.26871612892, 0.148, 0.9560000000000001, -0.14400000000000002, 192.0, 4.0, 160.0, 29.0, 224.0, 251.0, 128.0, 0.0, 0.0, 0.0, 1.7296914119085343E9, 0.0, 2024-10-23 19:20:11.908
110.0, 23048.40362649007, 5020.961763973447, 43896.05449391061, 22559.593326996965, 17429.77856752617, 24235.102443111235, 155626.34535149878, -83205.2851564032, 0.148, 0.9560000000000001, -0.14400000000000002, 192.0, 0.0, 0.0, 0.0, 0.0, 0.0, 0.0, 0.0, 0.0, 0.0, 1.7296914119126291E9, 0.0, 2024-10-23 19:20:11.912
111.0, 22929.179421565466, 5197.384082959185, 43855.30726376859, 22348.5258041055, 17418.893267976437, 24141.73920652142, 155719.37331192175, -83093.25821319321, 0.148, 0.9560000000000001, -0.14400000000000002, 192.0, 0.0, 0.0, 0.0, 0.0, 0.0, 0.0, 0.0, 0.0, 0.0, 1.7296914119156256E9, 0.0, 2024-10-23 19:20:11.915
112.0, 22877.77040931826, 4455.417925765268, 43825.98177504323, 22047.26899233687, 17414.26645687419, 24069.498368441866, 155404.86191569114, -83368.11761476012, 0.148, 0.9560000000000001, -0.14400000000000002, 192.0, 0.0, 0.0, 0.0, 0.0, 0.0, 0.0, 0.0, 0.0, 0.0, 1.729691411919641E9, 0.0, 2024-10-23 19:20:11.919
113.0, 22896.858799083093, 3607.8844795089344, 43823.925414553334, 21947.267287643826, 17423.02834070067, 24020.48099285138, 155004.76568994115, -83759.65312238374, 0.148, 0.9560000000000001, -0.14400000000000002, 192.0, 0.0, 0.0, 0.0, 0.0, 0.0, 0.0, 0.0, 0.0, 0.0, 1.7296914119235816E9, 0.0, 2024-10-23 19:20:11.923
114.0, 23074.532815758328, 4132.256404430438, 43901.888299213446, 22407.400299000776, 17441.02149498719, 24196.07629729227, 155188.25116017475, -83648.20732452958, 0.148, 0.9560000000000001, -0.14400000000000002, 192.0, 0.0, 0.0, 0.0, 0.0, 0.0, 0.0, 0.0, 0.0, 0.0, 1.7296914119286814E9, 0.0, 2024-10-23 19:20:11.928
115.0, 23054.885632382113, 5027.75669428786, 43910.471369084284, 22573.98785042618, 17441.60264034303, 24255.353123587745, 155591.56603712632, -83293.59689874612, 0.148, 0.9560000000000001, -0.14400000000000002, 192.0, 0.0, 0.0, 0.0, 0.0, 0.0, 0.0, 0.0, 0.0, 0.0, 1.7296914119326851E9, 0.0, 2024-10-23 19:20:11.932
116.0, 22941.29406706024, 5207.040036563878, 43871.06524360958, 22364.104969990847, 17431.87963150497, 24172.15993072509, 155683.27524462645, -83187.38140909451, 0.148, 0.9560000000000001, -0.14400000000000002, 192.0, 0.0, 0.0, 0.0, 0.0, 0.0, 0.0, 0.0, 0.0, 0.0, 1.7296914119377437E9, 0.0, 2024-10-23 19:20:11.937
117.0, 22889.48272341284, 4462.928111902251, 43838.118772282454, 22060.702390754508, 17419.720282521284, 24072.113522543135, 155351.39654295405, -83472.50026136641, 0.148, 0.9560000000000001, -0.14400000000000002, 192.0, 0.0, 0.0, 0.0, 0.0, 0.0, 0.0, 0.0, 0.0, 0.0, 1.7296914119415913E9, 0.0, 2024-10-23 19:20:11.941
118.0, 22915.477802214362, 3617.1381017134313, 43835.50361818119, 21968.568500109734, 17405.996311425723, 24047.481900153387, 154989.52180022263, -83812.60440499836, 0.148, 0.9560000000000001, -0.14400000000000002, 192.0, 0.0, 0.0, 0.0, 0.0, 0.0, 0.0, 0.0, 0.0, 0.0, 1.7296914119446452E9, 0.0, 2024-10-23 19:20:11.944
119.0, 23087.65328975359, 4144.7957330698655, 43898.82611022307, 22412.518848481042, 17403.35880558, 24184.207520986503, 155172.00144195574, -83687.99342966003, 0.14400000000000002, 0.9540000000000001, -0.146, 192.0, 4.0, 128.0, 29.0, 208.0, 251.0, 112.0, 0.0, 0.0, 0.0, 1.729691411947787E9, 0.0, 2024-10-23 19:20:11.947
120.0, 23058.75248417288, 5028.047266965779, 43893.774615976174, 22558.922774663304, 17404.901075947415, 24187.806151843804, 155533.38444630915, -83361.97088503491, 0.14400000000000002, 0.9540000000000001, -0.146, 192.0, 0.0, 0.0, 0.0, 0.0, 0.0, 0.0, 0.0, 0.0, 0.0, 1.729691411951726E9, 0.0, 2024-10-23 19:20:11.951
121.0, 22941.763453693802, 5193.696045124059, 43850.61339743297, 22346.178870937692, 17402.040052657136, 24128.3952150816, 155620.4221392181, -83244.95950281138, 0.14400000000000002, 0.9540000000000001, -0.146, 192.0, 0.0, 0.0, 0.0, 0.0, 0.0, 0.0, 0.0, 0.0, 0.0, 1.7296914119556425E9, 0.0, 2024-10-23 19:20:11.955
122.0, 22893.304871714696, 4450.075858840449, 43820.55030114059, 22049.235945848937, 17403.470564302275, 24066.749103873863, 155305.44135635393, -83492.79564533182, 0.14400000000000002, 0.9540000000000001, -0.146, 192.0, 0.0, 0.0, 0.0, 0.0, 0.0, 0.0, 0.0, 0.0, 0.0, 1.7296914119606247E9, 0.0, 2024-10-23 19:20:11.960
123.0, 22914.226104524863, 3599.1449474269093, 43810.11203647996, 21954.39749412507, 17394.641625242428, 24034.42848139149, 154942.04669499956, -83813.67728873221, 0.14400000000000002, 0.9540000000000001, -0.146, 192.0, 0.0, 0.0, 0.0, 0.0, 0.0, 0.0, 0.0, 0.0, 0.0, 1.7296914119646072E9, 0.0, 2024-10-23 19:20:11.964
124.0, 23087.09449614221, 4136.9279190215975, 43877.23432507925, 22407.087374578405, 17396.988558410234, 24184.27457621987, 155125.48746174425, -83665.88755439372, 0.14400000000000002, 0.9540000000000001, -0.146, 192.0, 0.0, 0.0, 0.0, 0.0, 0.0, 0.0, 0.0, 0.0, 0.0, 1.7296914119686265E9, 0.0, 2024-10-23 19:20:11.968
125.0, 23065.860338909668, 5031.020048978335, 43887.11379612849, 22566.23179510019, 17408.276189360167, 24212.102498066724, 155526.8577369282, -83277.1013113381, 0.14400000000000002, 0.9540000000000001, -0.146, 192.0, 0.0, 0.0, 0.0, 0.0, 0.0, 0.0, 0.0, 0.0, 0.0, 1.7296914119717047E9, 0.0, 2024-10-23 19:20:11.971
126.0, 22952.0676078877, 5202.904963839646, 43848.73585089873, 22354.113740219324, 17404.610503269494, 24133.87139247315, 155621.85265086326, -83137.17939104789, 0.14400000000000002, 0.9540000000000001, -0.146, 192.0, 0.0, 0.0, 0.0, 0.0, 0.0, 0.0, 0.0, 0.0, 0.0, 1.7296914119756916E9, 0.0, 2024-10-23 19:20:11.975
127.0, 22906.38064222105, 4463.509257258089, 43821.15379824088, 22056.947297686016, 17399.64841600042, 24054.679161867996, 155278.70866998538, -83407.12140883463, 0.14400000000000002, 0.9540000000000001, -0.146, 192.0, 0.0, 0.0, 0.0, 0.0, 0.0, 0.0, 0.0, 0.0, 0.0, 1.729691411979764E9, 0.0, 2024-10-23 19:20:11.979
128.0, 22927.570095964682, 3614.4111888898838, 43815.29764119359, 21964.321668663226, 17396.563875265583, 24026.068928965204, 154887.2625693396, -83746.06326175491, 0.14400000000000002, 0.9540000000000001, -0.146, 192.0, 0.0, 0.0, 0.0, 0.0, 0.0, 0.0, 0.0, 0.0, 0.0, 1.7296914119836757E9, 0.0, 2024-10-23 19:20:11.983
129.0, 23094.314109601273, 4155.6810326196, 43880.74354895873, 22420.364310784855, 17396.519171776676, 24186.912082065595, 155085.03080428016, -83562.91306768812, 0.146, 0.9520000000000001, -0.14200000000000002, 192.0, 4.0, 144.0, 29.0, 192.0, 251.0, 144.0, 0.0, 0.0, 0.0, 1.72969141198879E9, 0.0, 2024-10-23 19:20:11.988
130.0, 23061.837024907712, 5046.018069507846, 43880.52003151418, 22572.22206261421, 17398.463773544285, 24208.593274187242, 155518.54288799083, -83133.53605670168, 0.146, 0.9520000000000001, -0.14200000000000002, 192.0, 0.0, 0.0, 0.0, 0.0, 0.0, 0.0, 0.0, 0.0, 0.0, 1.7296914119928029E9, 0.0, 2024-10-23 19:20:11.992
131.0, 22942.97044789439, 5216.27130702392, 43844.26550200766, 22350.828033784393, 17398.039090399634, 24126.316502847258, 155595.43288891707, -83039.7034334783, 0.146, 0.9520000000000001, -0.14200000000000002, 192.0, 0.0, 0.0, 0.0, 0.0, 0.0, 0.0, 0.0, 0.0, 0.0, 1.7296914119967372E9, 0.0, 2024-10-23 19:20:11.996
132.0, 22890.734421102337, 4461.564655490477, 43815.02942026012, 22042.910402168083, 17391.914712418882, 24020.570399829197, 155249.0926085821, -83355.89121054306, 0.146, 0.9520000000000001, -0.14200000000000002, 192.0, 0.0, 0.0, 0.0, 0.0, 0.0, 0.0, 0.0, 0.0, 0.0, 1.7296914119996912E9, 0.0, 2024-10-23 19:20:11.999
133.0, 22910.33690098964, 3602.7212265397584, 43815.25293770468, 21950.463587100934, 17403.40350906891, 24030.449870878445, 154881.13819135883, -83725.6114155783, 0.146, 0.9520000000000001, -0.14200000000000002, 192.0, 0.0, 0.0, 0.0, 0.0, 0.0, 0.0, 0.0, 0.0, 0.0, 1.7296914120036972E9, 0.0, 2024-10-23 19:20:12.003
134.0, 23078.75729546038, 4149.444895916569, 43887.67258973987, 22407.042671089494, 17412.4112620844, 24202.088916550747, 155088.0035862927, -83598.29587916087, 0.146, 0.9520000000000001, -0.14200000000000002, 192.0, 0.0, 0.0, 0.0, 0.0, 0.0, 0.0, 0.0, 0.0, 0.0, 1.729691412007753E9, 0.0, 2024-10-23 19:20:12.007
135.0, 23047.062521822754, 5045.9957177633905, 43889.03604615165, 22550.85379491494, 17414.78054699666, 24215.857591135216, 155480.43316369454, -83258.05762506218, 0.146, 0.9520000000000001, -0.14200000000000002, 192.0, 0.0, 0.0, 0.0, 0.0, 0.0, 0.0, 0.0, 0.0, 0.0, 1.7296914120117536E9, 0.0, 2024-10-23 19:20:12.011
136.0, 22927.279523286765, 5204.961324329534, 43856.82718239155, 22333.460728342623, 17418.35682610951, 24134.25137212889, 155572.0753159613, -83159.24056282527, 0.146, 0.9520000000000001, -0.14200000000000002, 192.0, 0.0, 0.0, 0.0, 0.0, 0.0, 0.0, 0.0, 0.0, 0.0, 1.7296914120166926E9, 0.0, 2024-10-23 19:20:12.016
137.0, 22876.116380228566, 4447.304242527991, 43832.41907744636, 22038.149480599106, 17422.983637211757, 24062.256403238345, 155264.2470913228, -83436.29043534881, 0.146, 0.9520000000000001, -0.14200000000000002, 192.0, 0.0, 0.0, 0.0, 0.0, 0.0, 0.0, 0.0, 0.0, 0.0, 1.7296914120207467E9, 0.0, 2024-10-23 19:20:12.020
138.0, 22904.614854409083, 3595.2557438916856, 43842.23149326223, 21950.709456289944, 17434.427730372874, 24045.80551931924, 154895.15273513232, -83806.16710259522, 0.146, 0.9520000000000001, -0.14200000000000002, 192.0, 0.0, 0.0, 0.0, 0.0, 0.0, 0.0, 0.0, 0.0, 0.0, 1.7296914120247693E9, 0.0, 2024-10-23 19:20:12.024
139.0, 23079.763123960867, 4156.038660530885, 43916.37222962049, 22417.078604349925, 17440.50740486472, 24209.867323621194, 155086.1483915029, -83693.89429019621, 0.148, 0.9580000000000001, -0.138, 192.0, 4.0, 160.0, 29.0, 240.0, 251.0, 176.0, 0.0, 0.0, 0.0, 1.7296914120308032E9, 0.0, 2024-10-23 19:20:12.030
140.0, 23050.571745702237, 5060.300834214787, 43911.09721792903, 22566.343553822466, 17426.53756458015, 24216.88577138016, 155459.10959948416, -83371.40332119504, 0.148, 0.9580000000000001, -0.138, 192.0, 0.0, 0.0, 0.0, 0.0, 0.0, 0.0, 0.0, 0.0, 0.0, 1.7296914120337536E9, 0.0, 2024-10-23 19:20:12.033
141.0, 22927.52539247577, 5211.398626732663, 43862.951560372305, 22338.914553989718, 17416.2110586418, 24118.783964965816, 155538.70416148953, -83283.87388990806, 0.148, 0.9580000000000001, -0.138, 192.0, 0.0, 0.0, 0.0, 0.0, 0.0, 0.0, 0.0, 0.0, 0.0, 1.729691412037818E9, 0.0, 2024-10-23 19:20:12.037
142.0, 22887.873397812058, 4464.448030525212, 43839.39282171641, 22047.917192926074, 17424.145927923433, 24054.545051401266, 155214.89443956548, -83575.60885853873, 0.148, 0.9580000000000001, -0.138, 192.0, 0.0, 0.0, 0.0, 0.0, 0.0, 0.0, 0.0, 0.0, 0.0, 1.7296914120407703E9, 0.0, 2024-10-23 19:20:12.040
143.0, 22914.471973713873, 3602.7882817731243, 43829.69216462281, 21953.972810980416, 17405.057538158602, 24011.875571236083, 154843.65431590728, -83949.06180489801, 0.148, 0.9580000000000001, -0.138, 192.0, 0.0, 0.0, 0.0, 0.0, 0.0, 0.0, 0.0, 0.0, 0.0, 1.729691412044744E9, 0.0, 2024-10-23 19:20:12.044
144.0, 23089.866112454667, 4164.219399001527, 43895.33923808804, 22423.180630586223, 17407.672692259872, 24204.480553207464, 155065.20480694828, -83809.13988460778, 0.148, 0.9580000000000001, -0.138, 192.0, 0.0, 0.0, 0.0, 0.0, 0.0, 0.0, 0.0, 0.0, 0.0, 1.7296914120487776E9, 0.0, 2024-10-23 19:20:12.048
145.0, 23065.010972620366, 5070.493229686407, 43897.4626538113, 22581.587443540986, 17408.834982971548, 24255.75545498794, 155462.57411987474, -83462.28551415032, 0.148, 0.9580000000000001, -0.138, 192.0, 0.0, 0.0, 0.0, 0.0, 0.0, 0.0, 0.0, 0.0, 0.0, 1.7296914120527592E9, 0.0, 2024-10-23 19:20:12.052
146.0, 22946.01028514031, 5216.204251790554, 43853.63088293444, 22358.98642051058, 17403.984654424745, 24160.961706752983, 155535.46315854348, -83380.12050153263, 0.148, 0.9580000000000001, -0.138, 192.0, 0.0, 0.0, 0.0, 0.0, 0.0, 0.0, 0.0, 0.0, 0.0, 1.7296914120558033E9, 0.0, 2024-10-23 19:20:12.055
147.0, 22902.267921241277, 4454.389745520323, 43827.077010521534, 22062.89286171113, 17405.415166069884, 24051.974600788904, 155201.34928242557, -83683.21015634658, 0.148, 0.9580000000000001, -0.138, 192.0, 0.0, 0.0, 0.0, 0.0, 0.0, 0.0, 0.0, 0.0, 0.0, 1.729691412059902E9, 0.0, 2024-10-23 19:20:12.059
148.0, 22928.173593064977, 3594.026397946644, 43827.18876924381, 21975.698706590978, 17411.606599284005, 24027.18651618797, 154815.6475801048, -84070.5882395015, 0.148, 0.9580000000000001, -0.138, 192.0, 0.0, 0.0, 0.0, 0.0, 0.0, 0.0, 0.0, 0.0, 0.0, 1.7296914120658987E9, 0.0, 2024-10-23 19:20:12.065
149.0, 23104.126525417152, 4159.972567555019, 43898.84846196753, 22449.131005898835, 17416.009892941704, 24230.922666898092, 155011.4265097888, -83958.65070326933, 0.15, 0.9480000000000001, -0.14, 192.0, 4.0, 176.0, 29.0, 160.0, 251.0, 160.0, 0.0, 0.0, 0.0, 1.7296914120689075E9, 0.0, 2024-10-23 19:20:12.068
150.0, 23072.297641312798, 5051.494246899396, 43891.98647641975, 22593.098591935468, 17402.263570101688, 24215.008224845915, 155426.8336804907, -83596.35127739326, 0.15, 0.9480000000000001, -0.14, 192.0, 0.0, 0.0, 0.0, 0.0, 0.0, 0.0, 0.0, 0.0, 0.0, 1.7296914120734923E9, 0.0, 2024-10-23 19:20:12.073
151.0, 22949.83243344217, 5193.986617801978, 43849.76403114367, 22365.155501980247, 17398.39671831092, 24132.642046528108, 155530.52342301887, -83485.5536801283, 0.15, 0.9480000000000001, -0.14, 192.0, 0.0, 0.0, 0.0, 0.0, 0.0, 0.0, 0.0, 0.0, 0.0, 1.7296914120769005E9, 0.0, 2024-10-23 19:20:12.076
152.0, 22904.190171264432, 4439.548187201999, 43824.93124305383, 22073.7111060275, 17402.956474179802, 24082.596490692675, 155204.45617490486, -83782.07192207241, 0.15, 0.9480000000000001, -0.14, 192.0, 0.0, 0.0, 0.0, 0.0, 0.0, 0.0, 0.0, 0.0, 0.0, 1.7296914120809803E9, 0.0, 2024-10-23 19:20:12.080
153.0, 22929.112366332098, 3579.2518948616857, 43826.0935337655, 21986.91928230754, 17409.147907393923, 24062.882252083094, 154834.6465628918, -84154.67550214237, 0.15, 0.9480000000000001, -0.14, 192.0, 0.0, 0.0, 0.0, 0.0, 0.0, 0.0, 0.0, 0.0, 0.0, 1.7296914120849092E9, 0.0, 2024-10-23 19:20:12.084
154.0, 23096.884560213635, 4145.9133202926305, 43888.11962462898, 22443.230145362635, 17404.051709658113, 24208.436811976055, 155033.08535016602, -84037.26178851865, 0.15, 0.9480000000000001, -0.14, 192.0, 0.0, 0.0, 0.0, 0.0, 0.0, 0.0, 0.0, 0.0, 0.0, 1.7296914120888896E9, 0.0, 2024-10-23 19:20:12.088
155.0, 23065.122731342643, 5046.509807885863, 43884.67745598286, 22583.174417397313, 17397.39088981043, 24214.56118995681, 155407.2312006034, -83713.74263927253, 0.15, 0.9480000000000001, -0.14, 192.0, 0.0, 0.0, 0.0, 0.0, 0.0, 0.0, 0.0, 0.0, 0.0, 1.7296914120929005E9, 0.0, 2024-10-23 19:20:12.092
156.0, 22941.15995659351, 5189.382158444186, 43843.371432229455, 22356.28185943149, 17391.691194974326, 24145.896630990104, 155481.5954544062, -83629.49891442049, 0.15, 0.9480000000000001, -0.14, 192.0, 0.0, 0.0, 0.0, 0.0, 0.0, 0.0, 0.0, 0.0, 0.0, 1.7296914120981917E9, 0.0, 2024-10-23 19:20:12.098
157.0, 22899.518656673274, 4433.267347010058, 43824.350097697985, 22061.864681466184, 17410.91369520589, 24078.05908656825, 155152.7118864908, -83928.38644127685, 0.15, 0.9480000000000001, -0.14, 192.0, 0.0, 0.0, 0.0, 0.0, 0.0, 0.0, 0.0, 0.0, 0.0, 1.7296914121020064E9, 0.0, 2024-10-23 19:20:12.102
158.0, 22928.687683187447, 3574.4462698037946, 43827.83696983301, 21970.222529199425, 17408.54441029363, 24048.152452487047, 154799.66608281925, -84283.22038450485, 0.15, 0.9480000000000001, -0.14, 192.0, 0.0, 0.0, 0.0, 0.0, 0.0, 0.0, 0.0, 0.0, 0.0, 1.72969141210699E9, 0.0, 2024-10-23 19:20:12.106
159.0, 23102.159571905086, 4152.216512229027, 43907.11860741599, 22431.741348712607, 17425.509384335208, 24210.828448632772, 155032.07952166552, -84130.51326638619, 0.14200000000000002, 0.96, -0.138, 192.0, 4.0, 112.0, 30.0, 0.0, 251.0, 176.0, 0.0, 0.0, 0.0, 1.729691412108922E9, 0.0, 2024-10-23 19:20:12.108
160.0, 23066.597946476693, 5047.1133049861555, 43902.49179631374, 22571.75267598065, 17417.0604249311, 24226.60878021822, 155455.13098897113, -83758.33436946088, 0.14200000000000002, 0.96, -0.138, 192.0, 0.0, 0.0, 0.0, 0.0, 0.0, 0.0, 0.0, 0.0, 0.0, 1.7296914121169395E9, 0.0, 2024-10-23 19:20:12.116
161.0, 22944.982104895367, 5190.387986944675, 43863.644464450415, 22339.920382490207, 17421.77664301117, 24139.369921609155, 155542.4145510691, -83661.41720550266, 0.14200000000000002, 0.96, -0.138, 192.0, 0.0, 0.0, 0.0, 0.0, 0.0, 0.0, 0.0, 0.0, 0.0, 1.7296914121193407E9, 0.0, 2024-10-23 19:20:12.119
162.0, 22898.40106945051, 4431.568614431455, 43836.88942633742, 22039.89291666662, 17420.994331955237, 24058.367199703123, 155198.39885215746, -83972.48643308716, 0.14200000000000002, 0.96, -0.138, 192.0, 0.0, 0.0, 0.0, 0.0, 0.0, 0.0, 0.0, 0.0, 0.0, 1.7296914121240966E9, 0.0, 2024-10-23 19:20:12.124
163.0, 22924.77612790777, 3574.4239180593395, 43830.89915882339, 21949.614220811633, 17413.43944232934, 24038.541202371267, 154814.01590275957, -84355.39416735103, 0.14200000000000002, 0.96, -0.138, 192.0, 0.0, 0.0, 0.0, 0.0, 0.0, 0.0, 0.0, 0.0, 0.0, 1.729691412125886E9, 0.0, 2024-10-23 19:20:12.125
164.0, 23092.79419097831, 4155.770439597421, 43888.186679862345, 22410.931874624715, 17397.34618632152, 24181.502959907408, 155015.85215519098, -84231.67726179092, 0.14200000000000002, 0.96, -0.138, 192.0, 0.0, 0.0, 0.0, 0.0, 0.0, 0.0, 0.0, 0.0, 0.0, 1.7296914121299577E9, 0.0, 2024-10-23 19:20:12.129
165.0, 23061.9934871189, 5052.298909699787, 43882.15170885941, 22560.822672942006, 17402.598846268516, 24208.16859104259, 155430.8793462371, -83866.6956265802, 0.14200000000000002, 0.96, -0.138, 192.0, 0.0, 0.0, 0.0, 0.0, 0.0, 0.0, 0.0, 0.0, 0.0, 1.7296914121359015E9, 0.0, 2024-10-23 19:20:12.135
166.0, 22941.71875020489, 5191.840850334269, 43843.72906014074, 22337.3722836223, 17423.1624511674, 24146.187203668025, 155544.00152492544, -83742.12935473077, 0.14200000000000002, 0.96, -0.138, 192.0, 0.0, 0.0, 0.0, 0.0, 0.0, 0.0, 0.0, 0.0, 0.0, 1.7296914121399033E9, 0.0, 2024-10-23 19:20:12.139
167.0, 22894.757735104293, 4427.411189962768, 43813.017763259144, 22033.03093111884, 17410.377253338964, 24035.635475592077, 155184.60782582854, -84063.36862604244, 0.14200000000000002, 0.96, -0.138, 192.0, 0.0, 0.0, 0.0, 0.0, 0.0, 0.0, 0.0, 0.0, 0.0, 1.7296914121440945E9, 0.0, 2024-10-23 19:20:12.144
168.0, 22921.24455228383, 3567.025490644633, 43804.05471373257, 21943.02045619732, 17396.11684037648, 23995.447039061433, 154778.87896047582, -84460.44736629097, 0.14200000000000002, 0.96, -0.138, 192.0, 0.0, 0.0, 0.0, 0.0, 0.0, 0.0, 0.0, 0.0, 0.0, 1.7296914121470037E9, 0.0, 2024-10-23 19:20:12.147
169.0, 23091.698955500004, 4158.318538465326, 43869.74649068672, 22420.72193869614, 17396.429764798853, 24183.26874771938, 154991.89108513488, -84319.36315528907, 0.14400000000000002, 0.962, -0.136, 192.0, 4.0, 128.0, 30.0, 16.0, 251.0, 192.0, 0.0, 0.0, 0.0, 1.729691412151105E9, 0.0, 2024-10-23 19:20:12.151
170.0, 23063.66986795305, 5067.252226740387, 43869.70178719781, 22579.016992928624, 17404.677558502863, 24241.383283303177, 155400.36921505563, -83955.81203172352, 0.14400000000000002, 0.962, -0.136, 192.0, 0.0, 0.0, 0.0, 0.0, 0.0, 0.0, 0.0, 0.0, 0.0, 1.729691412154131E9, 0.0, 2024-10-23 19:20:12.154
171.0, 22942.63517172756, 5209.275211009409, 43825.37827794293, 22362.27212694551, 17401.794183468126, 24177.524349394364, 155485.0376230523, -83855.60916133037, 0.14400000000000002, 0.962, -0.136, 192.0, 0.0, 0.0, 0.0, 0.0, 0.0, 0.0, 0.0, 0.0, 0.0, 1.7296914121569152E9, 0.0, 2024-10-23 19:20:12.156
172.0, 22899.138677017534, 4445.6278616938425, 43802.2889259206, 22072.41470484909, 17409.63964577194, 24077.701458656964, 155145.2687555872, -84158.43059521087, 0.14400000000000002, 0.962, -0.136, 192.0, 0.0, 0.0, 0.0, 0.0, 0.0, 0.0, 0.0, 0.0, 0.0, 1.7296914121609156E9, 0.0, 2024-10-23 19:20:12.160
173.0, 22935.527316990774, 3596.082758436532, 43810.73788532471, 21998.139858024104, 17419.072081932078, 24050.387626932577, 154762.3833730678, -84536.71151837248, 0.14400000000000002, 0.962, -0.136, 192.0, 0.0, 0.0, 0.0, 0.0, 0.0, 0.0, 0.0, 0.0, 0.0, 1.72969141216506E9, 0.0, 2024-10-23 19:20:12.165
174.0, 23110.876752242657, 4198.194050573594, 43882.68815072634, 22483.15036095981, 17420.97198021078, 24234.342483799755, 154974.79200062656, -84404.41154294153, 0.14400000000000002, 0.962, -0.136, 192.0, 0.0, 0.0, 0.0, 0.0, 0.0, 0.0, 0.0, 0.0, 0.0, 1.729691412168018E9, 0.0, 2024-10-23 19:20:12.168
175.0, 23076.835045437223, 5091.637979941128, 43876.11673785648, 22628.637865619407, 17408.45500331581, 24247.306495583834, 155384.924159637, -84039.25109377516, 0.14400000000000002, 0.962, -0.136, 192.0, 0.0, 0.0, 0.0, 0.0, 0.0, 0.0, 0.0, 0.0, 0.0, 1.729691412173324E9, 0.0, 2024-10-23 19:20:12.173
176.0, 22952.738160221357, 5219.847586136769, 43835.414211203366, 22399.420726230233, 17406.957436437304, 24155.530232850342, 155469.03377402233, -83933.88497041285, 0.14400000000000002, 0.962, -0.136, 192.0, 0.0, 0.0, 0.0, 0.0, 0.0, 0.0, 0.0, 0.0, 0.0, 1.7296914121759365E9, 0.0, 2024-10-23 19:20:12.175
177.0, 22905.15129627601, 4449.807637906985, 43813.71066733726, 22110.32326344529, 17417.68627377585, 24076.852092367662, 155143.88294743098, -84213.59470052656, 0.14400000000000002, 0.962, -0.136, 192.0, 0.0, 0.0, 0.0, 0.0, 0.0, 0.0, 0.0, 0.0, 0.0, 1.7296914121819637E9, 0.0, 2024-10-23 19:20:12.181
178.0, 22932.040444855746, 3595.5910200585154, 43814.850606304484, 22027.822974660754, 17415.20523014131, 24055.79674909076, 154757.77891371, -84593.64141150015, 0.14400000000000002, 0.962, -0.136, 192.0, 0.0, 0.0, 0.0, 0.0, 0.0, 0.0, 0.0, 0.0, 0.0, 1.7296914121851168E9, 0.0, 2024-10-23 19:20:12.185
179.0, 23097.53276080284, 4188.359283013258, 43878.41896753538, 22494.058012254, 17416.166355152887, 24211.946035855537, 154968.1758842678, -84462.81665120323, 0.14400000000000002, 0.9580000000000001, -0.134, 192.0, 4.0, 128.0, 29.0, 240.0, 251.0, 208.0, 0.0, 0.0, 0.0, 1.7296914121899767E9, 0.0, 2024-10-23 19:20:12.189
180.0, 23064.787455175814, 5079.702148401993, 43882.08465362604, 22638.76320585766, 17427.498689591728, 24247.03827465037, 155370.39552574104, -84109.18970217582, 0.14400000000000002, 0.9580000000000001, -0.134, 192.0, 0.0, 0.0, 0.0, 0.0, 0.0, 0.0, 0.0, 0.0, 0.0, 1.7296914121940305E9, 0.0, 2024-10-23 19:20:12.194
181.0, 22938.63420947006, 5197.74171087047, 43834.989528058715, 22404.405165243767, 17421.419015099887, 24155.97726773945, 155474.10762001367, -83990.43488388478, 0.14400000000000002, 0.9580000000000001, -0.134, 192.0, 0.0, 0.0, 0.0, 0.0, 0.0, 0.0, 0.0, 0.0, 0.0, 1.7296914121979952E9, 0.0, 2024-10-23 19:20:12.197
182.0, 22894.131886259544, 4428.104094040882, 43806.20048120028, 22106.90344654363, 17425.375273868474, 24081.411848236545, 155138.83145318407, -84287.60132641808, 0.14400000000000002, 0.9580000000000001, -0.134, 192.0, 0.0, 0.0, 0.0, 0.0, 0.0, 0.0, 0.0, 0.0, 0.0, 1.729691412201024E9, 0.0, 2024-10-23 19:20:12.201
183.0, 22918.78586039375, 3570.042976146099, 43798.19855668528, 22016.848268133195, 17418.78150925416, 24054.254478723346, 154718.6633609132, -84701.01919186345, 0.14400000000000002, 0.9580000000000001, -0.134, 192.0, 0.0, 0.0, 0.0, 0.0, 0.0, 0.0, 0.0, 0.0, 0.0, 1.7296914122039447E9, 0.0, 2024-10-23 19:20:12.203
184.0, 23086.066315897264, 4168.957968826052, 43861.4539934938, 22482.479808626154, 17422.87187848948, 24188.253186732913, 154932.7707210506, -84561.99134135143, 0.14400000000000002, 0.9580000000000001, -0.134, 192.0, 0.0, 0.0, 0.0, 0.0, 0.0, 0.0, 0.0, 0.0, 0.0, 1.7296914122110796E9, 0.0, 2024-10-23 19:20:12.211
185.0, 23052.046960836287, 5061.664290626561, 43859.19646730381, 22619.116022481445, 17425.621143057484, 24221.31141678231, 155332.84459505614, -84210.51015979174, 0.14400000000000002, 0.9580000000000001, -0.134, 192.0, 0.0, 0.0, 0.0, 0.0, 0.0, 0.0, 0.0, 0.0, 0.0, 1.7296914122150786E9, 0.0, 2024-10-23 19:20:12.215
186.0, 22923.8597063851, 5178.385100172174, 43814.515330137656, 22378.58890039789, 17415.49580281923, 24160.000581741406, 155410.96394192745, -84122.66780408238, 0.14400000000000002, 0.9580000000000001, -0.134, 192.0, 0.0, 0.0, 0.0, 0.0, 0.0, 0.0, 0.0, 0.0, 0.0, 1.729691412219097E9, 0.0, 2024-10-23 19:20:12.219
187.0, 22880.653784352995, 4407.1828612307145, 43794.085835705504, 22081.042478208838, 17427.87866924747, 24089.324365773722, 155088.62943513747, -84411.0276593003, 0.14400000000000002, 0.9580000000000001, -0.134, 192.0, 0.0, 0.0, 0.0, 0.0, 0.0, 0.0, 0.0, 0.0, 0.0, 1.7296914122231228E9, 0.0, 2024-10-23 19:20:12.223
188.0, 22909.19696202242, 3554.284996305108, 43790.62131531493, 21991.34492770969, 17414.221753385278, 24060.557670659742, 154717.34460799035, -84779.92084979068, 0.14400000000000002, 0.9580000000000001, -0.134, 192.0, 0.0, 0.0, 0.0, 0.0, 0.0, 0.0, 0.0, 0.0, 0.0, 1.729691412226036E9, 0.0, 2024-10-23 19:20:12.226
189.0, 23077.527949515337, 4165.560503668846, 43855.50842946869, 22452.193194889212, 17405.21400036979, 24211.02961433287, 154939.6774100873, -84636.78027829889, 0.14400000000000002, 0.9580000000000001, -0.14200000000000002, 192.0, 4.0, 128.0, 29.0, 240.0, 251.0, 144.0, 0.0, 0.0, 0.0, 1.7296914122291183E9, 0.0, 2024-10-23 19:20:12.229
190.0, 23044.98380958841, 5055.249339967888, 43854.100269568, 22579.396972584364, 17405.661035258894, 24201.440715961544, 155364.89699660504, -84260.91334353846, 0.14400000000000002, 0.9580000000000001, -0.14200000000000002, 192.0, 0.0, 0.0, 0.0, 0.0, 0.0, 0.0, 0.0, 0.0, 0.0, 1.7296914122320116E9, 0.0, 2024-10-23 19:20:12.232
191.0, 22921.937456361946, 5174.294730936853, 43814.090646993005, 22338.08753944487, 17415.853430730516, 24114.268912585845, 155427.5936398022, -84186.90671764693, 0.14400000000000002, 0.9580000000000001, -0.14200000000000002, 192.0, 0.0, 0.0, 0.0, 0.0, 0.0, 0.0, 0.0, 0.0, 0.0, 1.7296914122361119E9, 0.0, 2024-10-23 19:20:12.236
192.0, 22882.53133088724, 4405.5958873743875, 43796.186899684304, 22057.215518619483, 17434.9641722398, 24075.15335978906, 155102.4651649553, -84477.88172696612, 0.14400000000000002, 0.9580000000000001, -0.14200000000000002, 192.0, 0.0, 0.0, 0.0, 0.0, 0.0, 0.0, 0.0, 0.0, 0.0, 1.7296914122401109E9, 0.0, 2024-10-23 19:20:12.240
193.0, 22913.466145213384, 3558.1965515847864, 43794.55522233906, 21978.000936269873, 17424.54825932363, 24043.23506870688, 154745.5748612374, -84831.28515854897, 0.14400000000000002, 0.9580000000000001, -0.14200000000000002, 192.0, 0.0, 0.0, 0.0, 0.0, 0.0, 0.0, 0.0, 0.0, 0.0, 1.7296914122440336E9, 0.0, 2024-10-23 19:20:12.244
194.0, 23083.115885629166, 4179.575047442323, 43859.21881904827, 22447.87930820934, 17417.9097912204, 24201.21719851699, 154979.91055010684, -84675.76172062894, 0.14400000000000002, 0.9580000000000001, -0.14200000000000002, 192.0, 0.0, 0.0, 0.0, 0.0, 0.0, 0.0, 0.0, 0.0, 0.0, 1.7296914122490273E9, 0.0, 2024-10-23 19:20:12.249
195.0, 23050.862318380157, 5072.750755876393, 43858.123583569955, 22578.435847572786, 17418.40152959842, 24226.161745329115, 155343.84165332816, -84358.99279820833, 0.14400000000000002, 0.9580000000000001, -0.14200000000000002, 192.0, 0.0, 0.0, 0.0, 0.0, 0.0, 0.0, 0.0, 0.0, 0.0, 1.729691412252051E9, 0.0, 2024-10-23 19:20:12.252
196.0, 22930.25230529932, 5183.347187441253, 43817.801036572586, 22348.168176194213, 17418.222715642776, 24146.477776345942, 155401.68796797848, -84288.31658224066, 0.14400000000000002, 0.9580000000000001, -0.14200000000000002, 192.0, 0.0, 0.0, 0.0, 0.0, 0.0, 0.0, 0.0, 0.0, 0.0, 1.7296914122572503E9, 0.0, 2024-10-23 19:20:12.257
197.0, 22895.316528715673, 4416.905870068774, 43793.50469034966, 22066.51384431289, 17409.952570194313, 24054.00860953434, 155064.86953078146, -84590.44511204305, 0.14400000000000002, 0.9580000000000001, -0.14200000000000002, 192.0, 0.0, 0.0, 0.0, 0.0, 0.0, 0.0, 0.0, 0.0, 0.0, 1.7296914122611215E9, 0.0, 2024-10-23 19:20:12.261
198.0, 22929.179421565466, 3572.8816476919233, 43794.175242683326, 21998.69865163549, 17411.20426788381, 24047.526603642298, 154708.47096544158, -84944.76496514857, 0.14400000000000002, 0.9580000000000001, -0.14200000000000002, 192.0, 0.0, 0.0, 0.0, 0.0, 0.0, 0.0, 0.0, 0.0, 0.0, 1.7296914122651236E9, 0.0, 2024-10-23 19:20:12.265
199.0, 23104.28298762834, 4201.435053519614, 43869.56767673107, 22476.288375412034, 17421.30725637761, 24209.152067798623, 154943.65602060032, -84789.0627132729, 0.146, 0.9560000000000001, -0.14, 192.0, 4.0, 144.0, 29.0, 224.0, 251.0, 160.0, 0.0, 0.0, 0.0, 1.7296914122701302E9, 0.0, 2024-10-23 19:20:12.270
200.0, 23074.018725635855, 5090.453337484996, 43869.522973242165, 22609.549475854576, 17411.181916139354, 24208.07918406477, 155354.88341508908, -84426.69623216346, 0.146, 0.9560000000000001, -0.14, 192.0, 0.0, 0.0, 0.0, 0.0, 0.0, 0.0, 0.0, 0.0, 0.0, 1.72969141227311E9, 0.0, 2024-10-23 19:20:12.273
201.0, 22952.939325921456, 5196.378254458697, 43826.24999597669, 22376.733705608094, 17404.275227102666, 24125.780060980327, 155412.9755989284, -84357.29406562973, 0.146, 0.9560000000000001, -0.14, 192.0, 0.0, 0.0, 0.0, 0.0, 0.0, 0.0, 0.0, 0.0, 0.0, 1.7296914122781134E9, 0.0, 2024-10-23 19:20:12.278
202.0, 22913.53320044675, 4425.153663772781, 43803.451216632275, 22101.42726915208, 17411.316026606088, 24063.731618372396, 155086.2601502252, -84652.27003720643, 0.146, 0.9560000000000001, -0.14, 192.0, 0.0, 0.0, 0.0, 0.0, 0.0, 0.0, 0.0, 0.0, 0.0, 1.7296914122821188E9, 0.0, 2024-10-23 19:20:12.282
203.0, 22953.274602088288, 3587.7232060102474, 43822.897234308395, 22041.681056223042, 17438.629858330474, 24079.91428135804, 154732.58849770887, -85007.2157391567, 0.146, 0.9560000000000001, -0.14, 192.0, 0.0, 0.0, 0.0, 0.0, 0.0, 0.0, 0.0, 0.0, 0.0, 1.7296914122862072E9, 0.0, 2024-10-23 19:20:12.286
204.0, 23119.258656413396, 4213.16971935865, 43888.25373509571, 22516.677977642772, 17428.504518092217, 24236.622361734197, 154962.3867824539, -84857.01201641704, 0.146, 0.9560000000000001, -0.14, 192.0, 0.0, 0.0, 0.0, 0.0, 0.0, 0.0, 0.0, 0.0, 0.0, 1.7296914122901187E9, 0.0, 2024-10-23 19:20:12.290
205.0, 23079.383144305128, 5093.381416008641, 43877.72606345726, 22643.72529312674, 17417.798032498125, 24253.497928797955, 155350.68128713148, -84515.61147160668, 0.146, 0.9560000000000001, -0.14, 192.0, 0.0, 0.0, 0.0, 0.0, 0.0, 0.0, 0.0, 0.0, 0.0, 1.72969141229319E9, 0.0, 2024-10-23 19:20:12.293
206.0, 22950.950020664935, 5185.291789208864, 43831.25678673468, 22398.10197330737, 17412.880648717957, 24162.54868060931, 155400.45862203345, -84453.07129062072, 0.146, 0.9560000000000001, -0.14, 192.0, 0.0, 0.0, 0.0, 0.0, 0.0, 0.0, 0.0, 0.0, 0.0, 1.7296914122961316E9, 0.0, 2024-10-23 19:20:12.296
207.0, 22905.419517209473, 4411.92143105524, 43807.586289356506, 22109.630359367176, 17419.988503454748, 24078.4837697129, 155068.93754827234, -84752.09292794383, 0.146, 0.9560000000000001, -0.14, 192.0, 0.0, 0.0, 0.0, 0.0, 0.0, 0.0, 0.0, 0.0, 0.0, 1.7296914123031669E9, 0.0, 2024-10-23 19:20:12.303
208.0, 22932.0627966002, 3572.1663918693534, 43811.90017603638, 22035.713140453478, 17439.523928108683, 24064.737446872885, 154690.67897685515, -85132.45256333979, 0.146, 0.9560000000000001, -0.14, 192.0, 0.0, 0.0, 0.0, 0.0, 0.0, 0.0, 0.0, 0.0, 0.0, 1.7296914123061116E9, 0.0, 2024-10-23 19:20:12.306
209.0, 23093.442391567518, 4199.043416862895, 43875.26737156718, 22505.233884481655, 17439.92625950888, 24209.464992220997, 154921.93012498977, -84985.28867784604, 0.15, 0.9560000000000001, -0.14200000000000002, 192.0, 4.0, 176.0, 29.0, 224.0, 251.0, 144.0, 0.0, 0.0, 0.0, 1.7296914123151405E9, 0.0, 2024-10-23 19:20:12.315
210.0, 23050.303524768773, 5073.488363443418, 43865.052624351105, 22631.230667976222, 17432.25961116071, 24238.92459141309, 155331.19056596645, -84626.81140027182, 0.15, 0.9560000000000001, -0.14200000000000002, 192.0, 0.0, 0.0, 0.0, 0.0, 0.0, 0.0, 0.0, 0.0, 0.0, 1.7296914123191571E9, 0.0, 2024-10-23 19:20:12.319
211.0, 22921.44571798393, 5164.012928487412, 43815.65526910487, 22388.535426680497, 17425.844660502036, 24167.30960217829, 155393.82015393022, -84551.3072075018, 0.15, 0.9560000000000001, -0.14200000000000002, 192.0, 0.0, 0.0, 0.0, 0.0, 0.0, 0.0, 0.0, 0.0, 0.0, 1.7296914123232064E9, 0.0, 2024-10-23 19:20:12.323
212.0, 22880.0502872527, 4396.208154703159, 43788.74376878068, 22104.98119652047, 17422.603657556017, 24090.240787296392, 155066.72472557126, -84844.36092905533, 0.15, 0.9560000000000001, -0.14200000000000002, 192.0, 0.0, 0.0, 0.0, 0.0, 0.0, 0.0, 0.0, 0.0, 0.0, 1.7296914123262675E9, 0.0, 2024-10-23 19:20:12.326
213.0, 22909.755755633803, 3554.1285340939207, 43788.74376878068, 22025.118413581662, 17429.73386403726, 24068.850167852663, 154718.90923010223, -85189.24834600072, 0.15, 0.9560000000000001, -0.14200000000000002, 192.0, 0.0, 0.0, 0.0, 0.0, 0.0, 0.0, 0.0, 0.0, 0.0, 1.7296914123292568E9, 0.0, 2024-10-23 19:20:12.329
214.0, 23074.398705291595, 4191.197954559083, 43858.458859736784, 22492.716907586684, 17440.485053120265, 24250.27927759639, 154962.25267198714, -85018.68218406227, 0.15, 0.9560000000000001, -0.14200000000000002, 192.0, 0.0, 0.0, 0.0, 0.0, 0.0, 0.0, 0.0, 0.0, 0.0, 1.729691412333197E9, 0.0, 2024-10-23 19:20:12.333
215.0, 23034.389082716596, 5067.386337207119, 43846.2995107531, 22606.084955464, 17410.35490159451, 24239.08105362428, 155353.408199955, -84654.4828599075, 0.15, 0.9560000000000001, -0.14200000000000002, 192.0, 0.0, 0.0, 0.0, 0.0, 0.0, 0.0, 0.0, 0.0, 0.0, 1.7296914123361757E9, 0.0, 2024-10-23 19:20:12.336
216.0, 22907.8558573551, 5151.428896359074, 43801.506614864666, 22353.622001841308, 17410.131384149958, 24138.744072764406, 155419.05527342026, -84529.35779444668, 0.15, 0.9560000000000001, -0.14200000000000002, 192.0, 0.0, 0.0, 0.0, 0.0, 0.0, 0.0, 0.0, 0.0, 0.0, 1.729691412339232E9, 0.0, 2024-10-23 19:20:12.339
217.0, 22876.38460116203, 4382.774756285519, 43784.80986175655, 22068.301983869314, 17417.418052842386, 24053.00278103385, 155096.07256604108, -84764.67696007216, 0.15, 0.9560000000000001, -0.14200000000000002, 192.0, 0.0, 0.0, 0.0, 0.0, 0.0, 0.0, 0.0, 0.0, 0.0, 1.7296914123431768E9, 0.0, 2024-10-23 19:20:12.343
218.0, 22913.77906963576, 3545.344298522985, 43788.989637969695, 21988.126276508126, 17416.166355152887, 24037.915353526518, 154736.522404733, -85073.39925448886, 0.15, 0.9560000000000001, -0.14200000000000002, 192.0, 0.0, 0.0, 0.0, 0.0, 0.0, 0.0, 0.0, 0.0, 0.0, 1.7296914123461654E9, 0.0, 2024-10-23 19:20:12.346
219.0, 23081.305394328287, 4189.253352791471, 43859.241170792724, 22456.931764713736, 17428.97390472578, 24213.175381800578, 154983.50918096415, -84867.71850201112, 0.14200000000000002, 0.9560000000000001, -0.14, 192.0, 4.0, 112.0, 29.0, 224.0, 251.0, 160.0, 0.0, 0.0, 0.0, 1.7296914123491578E9, 0.0, 2024-10-23 19:20:12.349
220.0, 23045.52025145534, 5067.0957645292, 43855.173153301854, 22577.586481283484, 17417.2615906312, 24229.156879086124, 155389.99800562835, -84501.50752085538, 0.14200000000000002, 0.9560000000000001, -0.14, 192.0, 0.0, 0.0, 0.0, 0.0, 0.0, 0.0, 0.0, 0.0, 0.0, 1.7296914123541825E9, 0.0, 2024-10-23 19:20:12.354
221.0, 22916.371871992575, 5147.4279341015745, 43805.08289397752, 22324.721196260598, 17401.570666023574, 24124.617770268655, 155454.77336105984, -84426.53976995227, 0.14200000000000002, 0.9560000000000001, -0.14, 192.0, 0.0, 0.0, 0.0, 0.0, 0.0, 0.0, 0.0, 0.0, 0.0, 1.7296914123572135E9, 0.0, 2024-10-23 19:20:12.357
222.0, 22881.458447153385, 4379.891381250784, 43784.1840129118, 22040.183489344538, 17402.084756146047, 24035.836641292175, 155117.70905467382, -84736.24554112501, 0.14200000000000002, 0.9560000000000001, -0.14, 192.0, 0.0, 0.0, 0.0, 0.0, 0.0, 0.0, 0.0, 0.0, 0.0, 1.7296914123621943E9, 0.0, 2024-10-23 19:20:12.362
223.0, 22923.92676161847, 3553.5473887380826, 43797.48330086271, 21976.6374798581, 17417.55216330912, 24038.630609349086, 154746.6253932268, -85112.6936212413, 0.14200000000000002, 0.9560000000000001, -0.14, 192.0, 0.0, 0.0, 0.0, 0.0, 0.0, 0.0, 0.0, 0.0, 0.0, 1.7296914123662121E9, 0.0, 2024-10-23 19:20:12.366
224.0, 23092.66008051158, 4205.659533221667, 43866.81841216307, 22457.31174436948, 17419.96615171029, 24203.005338073413, 155006.91145740886, -84935.04195631051, 0.14200000000000002, 0.9560000000000001, -0.14, 192.0, 0.0, 0.0, 0.0, 0.0, 0.0, 0.0, 0.0, 0.0, 0.0, 1.729691412370323E9, 0.0, 2024-10-23 19:20:12.370
225.0, 23057.45608299447, 5088.218163039465, 43864.71734818427, 22584.984908698192, 17416.367520852986, 24227.771070929895, 155424.71026476746, -84564.3606262637, 0.14200000000000002, 0.9560000000000001, -0.14, 192.0, 0.0, 0.0, 0.0, 0.0, 0.0, 0.0, 0.0, 0.0, 0.0, 1.729691412374251E9, 0.0, 2024-10-23 19:20:12.374
226.0, 22933.91799138999, 5170.114954723711, 43825.19946398729, 22340.07684470139, 17417.0604249311, 24123.187258623515, 155468.51968389985, -84499.87584351013, 0.14200000000000002, 0.9560000000000001, -0.14, 192.0, 0.0, 0.0, 0.0, 0.0, 0.0, 0.0, 0.0, 0.0, 0.0, 1.729691412377274E9, 0.0, 2024-10-23 19:20:12.377
227.0, 22899.496304928816, 4401.147890227782, 43806.312239922554, 22066.715010012987, 17418.98267495426, 24042.005722761838, 155115.92091511737, -84804.53012043597, 0.14200000000000002, 0.9560000000000001, -0.14, 192.0, 0.0, 0.0, 0.0, 0.0, 0.0, 0.0, 0.0, 0.0, 0.0, 1.7296914123802135E9, 0.0, 2024-10-23 19:20:12.380
228.0, 22938.25422981432, 3571.3617290689626, 43815.699972593786, 22011.30503550828, 17421.709587777805, 24064.916260828526, 154748.6370502278, -85144.47780185674, 0.14200000000000002, 0.9560000000000001, -0.14, 192.0, 0.0, 0.0, 0.0, 0.0, 0.0, 0.0, 0.0, 0.0, 0.0, 1.7296914123842573E9, 0.0, 2024-10-23 19:20:12.384
229.0, 23104.506505072895, 4225.150254386694, 43884.141014115936, 22490.325270929967, 17421.709587777805, 24230.542687242352, 155014.17577435682, -84921.56385440397, 0.14200000000000002, 0.9560000000000001, -0.14, 192.0, 0.0, 0.0, 0.0, 0.0, 0.0, 0.0, 0.0, 0.0, 0.0, 1.729691412391286E9, 0.0, 2024-10-23 19:20:12.391
230.0, 23066.32972554323, 5097.225916054955, 43876.49671751222, 22607.58252234251, 17410.198439383323, 24209.50969570991, 155427.54893631328, -84506.60371859118, 0.138, 0.9580000000000001, -0.14, 192.0, 4.0, 80.0, 29.0, 240.0, 251.0, 160.0, 0.0, 0.0, 0.0, 1.7296914123952758E9, 0.0, 2024-10-23 19:20:12.395
231.0, 22944.69153221745, 5174.361786170219, 43834.54249316961, 22367.10010374786, 17408.58911378254, 24124.01427316836, 155491.1396492886, -84392.29689744675, 0.138, 0.9580000000000001, -0.14, 192.0, 0.0, 0.0, 0.0, 0.0, 0.0, 0.0, 0.0, 0.0, 0.0, 1.7296914124002852E9, 0.0, 2024-10-23 19:20:12.400
232.0, 22910.29219750073, 4404.500651896078, 43820.21502497375, 22100.37673716268, 17422.82717500057, 24084.71990641593, 155149.94027017837, -84672.72188338303, 0.138, 0.9580000000000001, -0.14, 192.0, 0.0, 0.0, 0.0, 0.0, 0.0, 0.0, 0.0, 0.0, 0.0, 1.7296914124032807E9, 0.0, 2024-10-23 19:20:12.403
233.0, 22947.239631085355, 3580.2577233621746, 43829.51335066716, 22043.89387892412, 17429.73386403726, 24069.498368441866, 154784.04221344498, -85015.57529158298, 0.138, 0.9580000000000001, -0.14, 192.0, 0.0, 0.0, 0.0, 0.0, 0.0, 0.0, 0.0, 0.0, 0.0, 1.729691412406268E9, 0.0, 2024-10-23 19:20:12.406
234.0, 23107.322824874263, 4241.802304005898, 43892.29940084212, 22519.18137302177, 17426.1128814355, 24218.36098651421, 155024.68109425082, -84849.34536806887, 0.138, 0.9580000000000001, -0.14, 192.0, 0.0, 0.0, 0.0, 0.0, 0.0, 0.0, 0.0, 0.0, 0.0, 1.729691412410277E9, 0.0, 2024-10-23 19:20:12.410
235.0, 23066.687353454516, 5115.509643019395, 43889.55013627412, 22642.63005764843, 17439.188651941855, 24248.111158384225, 155425.6266862901, -84496.59013707521, 0.138, 0.9580000000000001, -0.14, 192.0, 0.0, 0.0, 0.0, 0.0, 0.0, 0.0, 0.0, 0.0, 0.0, 1.7296914124132764E9, 0.0, 2024-10-23 19:20:12.413
236.0, 22942.34459904964, 5187.996350287956, 43848.80290613209, 22400.76183089755, 17440.485053120265, 24164.426227143555, 155486.46813469747, -84427.0315083303, 0.138, 0.9580000000000001, -0.14, 192.0, 0.0, 0.0, 0.0, 0.0, 0.0, 0.0, 0.0, 0.0, 0.0, 1.7296914124164004E9, 0.0, 2024-10-23 19:20:12.416
237.0, 22904.10076428661, 4409.149814742782, 43823.50073140868, 22126.058891541827, 17441.133253709468, 24109.48563927241, 155179.44457285936, -84709.40109603418, 0.138, 0.9580000000000001, -0.14, 192.0, 0.0, 0.0, 0.0, 0.0, 0.0, 0.0, 0.0, 0.0, 0.0, 1.7296914124212563E9, 0.0, 2024-10-23 19:20:12.421
238.0, 22937.02488386928, 3579.18483962832, 43821.422019174344, 22055.31562034078, 17432.88546000546, 24101.953101390973, 154796.06745196195, -85097.76265594515, 0.138, 0.9580000000000001, -0.14, 192.0, 0.0, 0.0, 0.0, 0.0, 0.0, 0.0, 0.0, 0.0, 0.0, 1.7296914124242864E9, 0.0, 2024-10-23 19:20:12.424
239.0, 23096.728098002448, 4235.946146958608, 43877.52489775716, 22519.717814888696, 17412.83594522905, 24240.60097224724, 155035.7899112451, -84943.02152908106, 0.138, 0.9580000000000001, -0.14, 192.0, 0.0, 0.0, 0.0, 0.0, 0.0, 0.0, 0.0, 0.0, 0.0, 1.7296914124285111E9, 0.0, 2024-10-23 19:20:12.428
240.0, 23057.411379505564, 5101.5845062237395, 43876.94375240133, 22629.040197019604, 17431.20907917131, 24254.146129387158, 155438.188366674, -84593.14967312214, 0.14400000000000002, 0.96, -0.138, 192.0, 4.0, 128.0, 30.0, 0.0, 251.0, 176.0, 0.0, 0.0, 0.0, 1.7296914124323163E9, 0.0, 2024-10-23 19:20:12.432
241.0, 22932.465128000396, 5163.722355809493, 43838.65521414938, 22374.945566051672, 17443.815463044102, 24168.4048376566, 155507.4117192521, -84515.45500939549, 0.14400000000000002, 0.96, -0.138, 192.0, 0.0, 0.0, 0.0, 0.0, 0.0, 0.0, 0.0, 0.0, 0.0, 1.7296914124373045E9, 0.0, 2024-10-23 19:20:12.437
242.0, 22894.087182770632, 4388.96618949964, 43813.33068768152, 22082.94237648754, 17438.383989141465, 24069.6324789086, 155166.10058141954, -84829.89935039275, 0.14400000000000002, 0.96, -0.138, 192.0, 0.0, 0.0, 0.0, 0.0, 0.0, 0.0, 0.0, 0.0, 0.0, 1.7296914124423428E9, 0.0, 2024-10-23 19:20:12.442
243.0, 22931.63811345555, 3567.6289877449262, 43816.37052492744, 22012.377919242135, 17437.31110540761, 24073.968717332926, 154776.04028892997, -85226.82162843009, 0.14400000000000002, 0.96, -0.138, 192.0, 0.0, 0.0, 0.0, 0.0, 0.0, 0.0, 0.0, 0.0, 0.0, 1.7296914124453268E9, 0.0, 2024-10-23 19:20:12.445
244.0, 23092.973004933956, 4235.946146958608, 43872.652217465904, 22473.852035266405, 17423.967113967792, 24220.66321619311, 155014.2428295902, -85074.4274347338, 0.14400000000000002, 0.96, -0.138, 192.0, 0.0, 0.0, 0.0, 0.0, 0.0, 0.0, 0.0, 0.0, 0.0, 1.7296914124493732E9, 0.0, 2024-10-23 19:20:12.449
245.0, 23057.47843473893, 5101.495099245918, 43868.83006916405, 22579.329917351, 17426.58226806906, 24225.64765520664, 155397.61995048763, -84741.63231153873, 0.14400000000000002, 0.96, -0.138, 192.0, 0.0, 0.0, 0.0, 0.0, 0.0, 0.0, 0.0, 0.0, 0.0, 1.7296914124523537E9, 0.0, 2024-10-23 19:20:12.452
246.0, 22932.576886722672, 5154.491085349451, 43821.93610929682, 22323.84947822684, 17408.834982971548, 24122.02496791184, 155459.37782041763, -84670.41965370413, 0.14400000000000002, 0.96, -0.138, 192.0, 0.0, 0.0, 0.0, 0.0, 0.0, 0.0, 0.0, 0.0, 0.0, 1.7296914124553883E9, 0.0, 2024-10-23 19:20:12.455
247.0, 22895.96472930488, 4376.829192260408, 43794.62227757243, 22038.21653583247, 17399.24608460022, 24012.344957869645, 155128.03556061216, -84971.54235500602, 0.14400000000000002, 0.96, -0.138, 192.0, 0.0, 0.0, 0.0, 0.0, 0.0, 0.0, 0.0, 0.0, 0.0, 1.729691412460322E9, 0.0, 2024-10-23 19:20:12.460
248.0, 22938.164822836497, 3558.509476007161, 43803.92060326584, 21978.872654303632, 17407.963264937793, 24028.304103410734, 154760.6846404892, -85341.35196701909, 0.14400000000000002, 0.96, -0.138, 192.0, 0.0, 0.0, 0.0, 0.0, 0.0, 0.0, 0.0, 0.0, 0.0, 1.7296914124674015E9, 0.0, 2024-10-23 19:20:12.467
249.0, 23106.04877544031, 4243.054001695395, 43880.25181058071, 22465.023096206558, 17417.395701097932, 24226.072338351292, 155049.60328931847, -85133.74896451819, 0.14400000000000002, 0.96, -0.138, 192.0, 0.0, 0.0, 0.0, 0.0, 0.0, 0.0, 0.0, 0.0, 0.0, 1.729691412470364E9, 0.0, 2024-10-23 19:20:12.470
250.0, 23072.007068634877, 5109.698189461015, 43877.68135996835, 22571.305641091545, 17408.857334716, 24213.01891958939, 155417.06596816375, -84813.78374264047, 0.146, 0.96, -0.14, 192.0, 4.0, 144.0, 30.0, 0.0, 251.0, 160.0, 0.0, 0.0, 0.0, 1.729691412474352E9, 0.0, 2024-10-23 19:20:12.474
251.0, 22950.279468331275, 5167.8574285337245, 43836.75531587069, 22324.832954982874, 17408.611465526996, 24112.257255584867, 155456.695611083, -84763.00057923801, 0.146, 0.96, -0.14, 192.0, 0.0, 0.0, 0.0, 0.0, 0.0, 0.0, 0.0, 0.0, 0.0, 1.7296914124773664E9, 0.0, 2024-10-23 19:20:12.477
252.0, 22917.824735382168, 4398.733901826608, 43820.796170329595, 22060.076541909762, 17412.92535220687, 24048.24185946487, 155104.14154578943, -85087.81612966253, 0.146, 0.96, -0.14, 192.0, 0.0, 0.0, 0.0, 0.0, 0.0, 0.0, 0.0, 0.0, 0.0, 1.7296914124803464E9, 0.0, 2024-10-23 19:20:12.480
253.0, 22959.35427658013, 3585.018644931155, 43830.787400101115, 22007.37112848415, 17409.93021844986, 24037.155394215035, 154735.53892797697, -85461.38083474408, 0.146, 0.96, -0.14, 192.0, 0.0, 0.0, 0.0, 0.0, 0.0, 0.0, 0.0, 0.0, 0.0, 1.7296914124833915E9, 0.0, 2024-10-23 19:20:12.483
254.0, 23123.86311577119, 4269.6078741083, 43904.88343297046, 22498.014271022592, 17429.44329135934, 24238.18698384607, 154999.35656778296, -85278.8788412665, 0.146, 0.96, -0.14, 192.0, 0.0, 0.0, 0.0, 0.0, 0.0, 0.0, 0.0, 0.0, 0.0, 1.7296914124883933E9, 0.0, 2024-10-23 19:20:12.488
255.0, 23085.61928100816, 5128.183082125554, 43902.06711316909, 22613.66219683435, 17423.140099422944, 24237.73994895696, 155392.97078764092, -84930.9515870752, 0.146, 0.96, -0.14, 192.0, 0.0, 0.0, 0.0, 0.0, 0.0, 0.0, 0.0, 0.0, 0.0, 1.7296914124924064E9, 0.0, 2024-10-23 19:20:12.492
0.0, 22957.856709701624, 5178.318044938808, 43858.280045781146, 22364.686115346685, 17417.529811564662, 24139.30286637579, 155439.1941951745, -84872.27825788001, 0.146, 0.96, -0.14, 192.0, 0.0, 0.0, 0.0, 0.0, 0.0, 0.0, 0.0, 0.0, 0.0, 1.729691412496364E9, 0.0, 2024-10-23 19:20:12.496
1.0, 22917.3106452597, 4400.0750064939275, 43835.23539724772, 22095.213484193504, 17416.099299919522, 24066.70440038495, 155102.73338588874, -85176.88783131694, 0.146, 0.96, -0.14, 192.0, 0.0, 0.0, 0.0, 0.0, 0.0, 0.0, 0.0, 0.0, 0.0, 1.729691412500423E9, 0.0, 2024-10-23 19:20:12.500
2.0, 22951.68762823196, 3585.7115490092697, 43842.43265896233, 22037.41187303208, 17427.051654702624, 24062.681086382996, 154750.96163165112, -85527.38553612061, 0.146, 0.96, -0.14, 192.0, 0.0, 0.0, 0.0, 0.0, 0.0, 0.0, 0.0, 0.0, 0.0, 1.729691412504397E9, 0.0, 2024-10-23 19:20:12.504
3.0, 23109.267426641873, 4264.690490328132, 43906.26924112669, 22510.866524084395, 17428.16924192539, 24205.061698563302, 155007.7831754426, -85347.05166185519, 0.146, 0.96, -0.14, 192.0, 0.0, 0.0, 0.0, 0.0, 0.0, 0.0, 0.0, 0.0, 0.0, 1.72969141250839E9, 0.0, 2024-10-23 19:20:12.508
4.0, 23069.81659767826, 5116.850747686714, 43899.519014301186, 22620.412423659855, 17420.927276721868, 24229.335693041765, 155385.05827010373, -85010.03205895807, 0.15, 0.9540000000000001, -0.138, 192.0, 4.0, 176.0, 29.0, 208.0, 251.0, 176.0, 0.0, 0.0, 0.0, 1.7296914125114653E9, 0.0, 2024-10-23 19:20:12.511
5.0, 22939.93061064847, 5158.179123184576, 43850.68045266634, 22371.659859616742, 17413.662959773894, 24169.477721390453, 155433.11452068263, -84941.00987208007, 0.15, 0.9540000000000001, -0.138, 192.0, 0.0, 0.0, 0.0, 0.0, 0.0, 0.0, 0.0, 0.0, 0.0, 1.7296914125164168E9, 0.0, 2024-10-23 19:20:12.516
6.0, 22904.30192998671, 4383.847640019374, 43830.38506870092, 22104.958844776018, 17427.63280005846, 24102.131915346614, 155109.37185399196, -85224.94408189584, 0.15, 0.9540000000000001, -0.138, 192.0, 0.0, 0.0, 0.0, 0.0, 0.0, 0.0, 0.0, 0.0, 0.0, 1.7296914125214303E9, 0.0, 2024-10-23 19:20:12.521
7.0, 22945.093863617643, 3575.7426709822025, 43843.19261827381, 22050.912326683087, 17456.73477133927, 24096.3875170216, 154747.25124207154, -85581.40970246909, 0.15, 0.9540000000000001, -0.138, 192.0, 0.0, 0.0, 0.0, 0.0, 0.0, 0.0, 0.0, 0.0, 0.0, 1.729691412525432E9, 0.0, 2024-10-23 19:20:12.525
8.0, 23104.417098095073, 4257.962615247085, 43910.292555128646, 22527.004483581124, 17465.2731377212, 24266.260774881936, 155000.80943117256, -85402.61809857108, 0.15, 0.9540000000000001, -0.138, 192.0, 0.0, 0.0, 0.0, 0.0, 0.0, 0.0, 0.0, 0.0, 0.0, 1.7296914125294435E9, 0.0, 2024-10-23 19:20:12.529
9.0, 23063.17812957503, 5104.110253347189, 43899.69782825683, 22625.508621395664, 17454.49959689374, 24265.254946381447, 155343.2605079723, -85095.32631579952, 0.15, 0.9540000000000001, -0.138, 192.0, 0.0, 0.0, 0.0, 0.0, 0.0, 0.0, 0.0, 0.0, 0.0, 1.729691412534436E9, 0.0, 2024-10-23 19:20:12.534
10.0, 22934.54384023474, 5138.755457252915, 43848.601740431994, 22359.634621099787, 17438.27223041919, 24150.076407203247, 155352.3129644767, -85060.16702177133, 0.15, 0.9540000000000001, -0.138, 192.0, 0.0, 0.0, 0.0, 0.0, 0.0, 0.0, 0.0, 0.0, 0.0, 1.729691412537428E9, 0.0, 2024-10-23 19:20:12.537
11.0, 22892.142581003023, 4354.656261760743, 43809.821463802036, 22071.721800770974, 17411.316026606088, 24047.526603642298, 155013.16994585632, -85356.08176661513, 0.15, 0.9540000000000001, -0.138, 192.0, 0.0, 0.0, 0.0, 0.0, 0.0, 0.0, 0.0, 0.0, 0.0, 1.7296914125404658E9, 0.0, 2024-10-23 19:20:12.540
12.0, 22931.50400298882, 3551.759249181658, 43812.548376625586, 22010.187448285516, 17422.916581978392, 24053.51687115632, 154649.61882229077, -85709.1275702867, 0.15, 0.9540000000000001, -0.138, 192.0, 0.0, 0.0, 0.0, 0.0, 0.0, 0.0, 0.0, 0.0, 0.0, 1.7296914125435293E9, 0.0, 2024-10-23 19:20:12.543
13.0, 23095.990490435423, 4244.417458107168, 43884.16336586039, 22483.910320271294, 17432.326666394078, 24219.433870248067, 154905.94862770423, -85522.15522791806, 0.15, 0.9540000000000001, -0.138, 192.0, 0.0, 0.0, 0.0, 0.0, 0.0, 0.0, 0.0, 0.0, 0.0, 1.7296914125484617E9, 0.0, 2024-10-23 19:20:12.548
14.0, 23052.583402703214, 5081.892619358614, 43870.37233953147, 22570.0762951465, 17413.551201051618, 24192.477666434967, 155270.7514489593, -85189.8071396121, 0.148, 0.9580000000000001, -0.134, 192.0, 4.0, 160.0, 29.0, 240.0, 251.0, 208.0, 0.0, 0.0, 0.0, 1.7296914125525649E9, 0.0, 2024-10-23 19:20:12.552
15.0, 22928.21829655389, 5117.163672109088, 43826.4958651657, 22317.12160314579, 17411.986578939748, 24138.855831486682, 155293.5055248148, -85139.53806633211, 0.148, 0.9580000000000001, -0.134, 192.0, 0.0, 0.0, 0.0, 0.0, 0.0, 0.0, 0.0, 0.0, 0.0, 1.729691412556527E9, 0.0, 2024-10-23 19:20:12.556
16.0, 22892.410801936487, 4341.33462206538, 43800.836062531, 22043.849175435207, 17407.896209704424, 24069.319554486225, 154963.34790746545, -85429.01550877279, 0.148, 0.9580000000000001, -0.134, 192.0, 0.0, 0.0, 0.0, 0.0, 0.0, 0.0, 0.0, 0.0, 0.0, 1.729691412560493E9, 0.0, 2024-10-23 19:20:12.560
17.0, 22935.482613501863, 3540.762190909647, 43809.55324286858, 21985.242901473393, 17421.59782905553, 24059.887118326085, 154595.9299321091, -85791.8513765158, 0.148, 0.9580000000000001, -0.134, 192.0, 0.0, 0.0, 0.0, 0.0, 0.0, 0.0, 0.0, 0.0, 0.0, 1.729691412564526E9, 0.0, 2024-10-23 19:20:12.564
18.0, 23095.007013679387, 4237.823693492853, 43877.569601246076, 22460.440988593222, 17425.10705293501, 24211.320187010788, 154848.25877526507, -85614.17735984056, 0.148, 0.9580000000000001, -0.134, 192.0, 0.0, 0.0, 0.0, 0.0, 0.0, 0.0, 0.0, 0.0, 0.0, 1.72969141256755E9, 0.0, 2024-10-23 19:20:12.567
19.0, 23051.93520211401, 5081.132660047133, 43868.0030546192, 22558.341629307466, 17412.701834762316, 24197.193884515036, 155239.45900672185, -85255.72243401081, 0.148, 0.9580000000000001, -0.134, 192.0, 0.0, 0.0, 0.0, 0.0, 0.0, 0.0, 0.0, 0.0, 0.0, 1.7296914125724564E9, 0.0, 2024-10-23 19:20:12.572
20.0, 22927.056005842212, 5116.7836924533485, 43825.400629687385, 22304.694033228643, 17411.941875450837, 24117.82283995424, 155274.43948679444, -85194.88098560345, 0.148, 0.9580000000000001, -0.134, 192.0, 0.0, 0.0, 0.0, 0.0, 0.0, 0.0, 0.0, 0.0, 0.0, 1.7296914125766177E9, 0.0, 2024-10-23 19:20:12.576
21.0, 22898.289310728233, 4348.777752968997, 43808.74858006818, 22044.810300446785, 17415.138174907945, 24061.205871248945, 154922.22069766768, -85507.55953878874, 0.148, 0.9580000000000001, -0.134, 192.0, 0.0, 0.0, 0.0, 0.0, 0.0, 0.0, 0.0, 0.0, 0.0, 1.7296914125806532E9, 0.0, 2024-10-23 19:20:12.580
22.0, 22944.356256050618, 3556.698984706281, 43817.68927785031, 21998.69865163549, 17415.11582316349, 24049.71707459892, 154555.3391641783, -85866.70736869662, 0.148, 0.9580000000000001, -0.134, 192.0, 0.0, 0.0, 0.0, 0.0, 0.0, 0.0, 0.0, 0.0, 0.0, 1.729691412584528E9, 0.0, 2024-10-23 19:20:12.584
23.0, 23101.33255736024, 4263.997586250018, 43886.04091239464, 22476.333078900945, 17415.965189452792, 24202.69241365104, 154835.02654254754, -85657.94207548405, 0.148, 0.9580000000000001, -0.134, 192.0, 0.0, 0.0, 0.0, 0.0, 0.0, 0.0, 0.0, 0.0, 0.0, 1.7296914125886617E9, 0.0, 2024-10-23 19:20:12.588
24.0, 23061.255879551874, 5118.750645965415, 43884.45393853831, 22580.648670273862, 17413.81942198508, 24214.74000391245, 155216.54846865518, -85310.2830422262, 0.14, 0.964, -0.132, 192.0, 4.0, 96.0, 30.0, 32.0, 251.0, 224.0, 0.0, 0.0, 0.0, 1.7296914125916386E9, 0.0, 2024-10-23 19:20:12.591
25.0, 22937.382511780565, 5157.240349917454, 43847.841781120514, 22329.593876551855, 17421.0613871886, 24137.939409964016, 155225.39975945948, -85276.19663193186, 0.14, 0.964, -0.132, 192.0, 0.0, 0.0, 0.0, 0.0, 0.0, 0.0, 0.0, 0.0, 0.0, 1.7296914125956607E9, 0.0, 2024-10-23 19:20:12.595
26.0, 22900.278615984753, 4377.924427738718, 43825.73590585421, 22063.69752451152, 17408.63381727145, 24041.648094850552, 154869.73880168665, -85590.48451071794, 0.14, 0.964, -0.132, 192.0, 0.0, 0.0, 0.0, 0.0, 0.0, 0.0, 0.0, 0.0, 0.0, 1.729691412599618E9, 0.0, 2024-10-23 19:20:12.599
27.0, 22940.668218215495, 3582.448194318795, 43834.90012108089, 22022.480907735935, 17420.457890088306, 24054.00860953434, 154524.1137771742, -85929.44871538266, 0.14, 0.964, -0.132, 192.0, 0.0, 0.0, 0.0, 0.0, 0.0, 0.0, 0.0, 0.0, 0.0, 1.7296914126046565E9, 0.0, 2024-10-23 19:20:12.604
28.0, 23098.896217214613, 4299.827432611875, 43909.018505694694, 22508.45253568322, 17440.12742520898, 24251.195699119056, 154805.45518463317, -85723.47739022701, 0.14, 0.964, -0.132, 192.0, 0.0, 0.0, 0.0, 0.0, 0.0, 0.0, 0.0, 0.0, 0.0, 1.7296914126085327E9, 0.0, 2024-10-23 19:20:12.608
29.0, 23050.88467012461, 5142.622309043683, 43896.54623228863, 22605.392051385887, 17418.222715642776, 24241.78561470337, 155188.20645668585, -85376.75713023629, 0.14, 0.964, -0.132, 192.0, 0.0, 0.0, 0.0, 0.0, 0.0, 0.0, 0.0, 0.0, 0.0, 1.7296914126125183E9, 0.0, 2024-10-23 19:20:12.612
30.0, 22920.305779016708, 5165.398736643641, 43847.417097975864, 22349.688094817175, 17413.2606283737, 24116.951121920483, 155236.70974215385, -85303.82338807863, 0.14, 0.964, -0.132, 192.0, 0.0, 0.0, 0.0, 0.0, 0.0, 0.0, 0.0, 0.0, 0.0, 1.729691412616663E9, 0.0, 2024-10-23 19:20:12.616
31.0, 22891.96376704738, 4392.877744779318, 43833.804885602585, 22093.201827192526, 17434.427730372874, 24068.894871341574, 154911.35774986242, -85591.69150491852, 0.14, 0.964, -0.132, 192.0, 0.0, 0.0, 0.0, 0.0, 0.0, 0.0, 0.0, 0.0, 0.0, 1.729691412619642E9, 0.0, 2024-10-23 19:20:12.619
32.0, 22936.041407113244, 3599.8825549939343, 43843.080859551534, 22049.727684226953, 17437.959305996814, 24101.506066501865, 154539.9835157375, -85959.57886690841, 0.14, 0.964, -0.132, 192.0, 0.0, 0.0, 0.0, 0.0, 0.0, 0.0, 0.0, 0.0, 0.0, 1.7296914126265547E9, 0.0, 2024-10-23 19:20:12.626
33.0, 23088.882635698636, 4308.052874571428, 43905.93396495986, 22527.272704514588, 17448.844605546547, 24264.67380102561, 154822.26369646355, -85754.50161153098, 0.14, 0.964, -0.132, 192.0, 0.0, 0.0, 0.0, 0.0, 0.0, 0.0, 0.0, 0.0, 0.0, 1.7296914126295545E9, 0.0, 2024-10-23 19:20:12.629
34.0, 23046.391969489094, 5146.176236412077, 43896.2109561218, 22614.399804401375, 17444.374256655487, 24247.954696173038, 155198.10827947955, -85418.7113545789, 0.148, 0.96, -0.138, 192.0, 4.0, 160.0, 30.0, 0.0, 251.0, 176.0, 0.0, 0.0, 0.0, 1.7296914126327927E9, 0.0, 2024-10-23 19:20:12.632
35.0, 22918.227066782365, 5159.6990418075375, 43843.70670839628, 22342.669647058206, 17424.816480257094, 24126.003578424883, 155206.06550050565, -85390.61521179858, 0.148, 0.96, -0.138, 192.0, 0.0, 0.0, 0.0, 0.0, 0.0, 0.0, 0.0, 0.0, 0.0, 1.7296914126378088E9, 0.0, 2024-10-23 19:20:12.637
36.0, 22881.883130298036, 4373.699948036665, 43810.67083009134, 22066.446789079524, 17411.271323117177, 24027.879420266083, 154868.86708365288, -85692.25200322295, 0.148, 0.96, -0.138, 192.0, 0.0, 0.0, 0.0, 0.0, 0.0, 0.0, 0.0, 0.0, 0.0, 1.7296914126405985E9, 0.0, 2024-10-23 19:20:12.640
37.0, 22926.54191571974, 3580.8165169735576, 43811.40843765836, 22012.422622731046, 17415.942837708335, 24061.56349916023, 154508.15463163314, -86051.75746104211, 0.148, 0.96, -0.138, 192.0, 0.0, 0.0, 0.0, 0.0, 0.0, 0.0, 0.0, 0.0, 0.0, 1.7296914126448233E9, 0.0, 2024-10-23 19:20:12.644
38.0, 23087.65328975359, 4291.601990652322, 43873.54628724412, 22486.056087739, 17419.697930776827, 24256.13543464368, 154784.55630356746, -85855.73266216906, 0.148, 0.96, -0.138, 192.0, 0.0, 0.0, 0.0, 0.0, 0.0, 0.0, 0.0, 0.0, 0.0, 1.729691412647748E9, 0.0, 2024-10-23 19:20:12.647
39.0, 23050.817614891246, 5116.113140119689, 43865.611417962486, 22569.204577112745, 17421.798994755627, 24235.63888497816, 155154.14239813597, -85527.65375705407, 0.148, 0.96, -0.138, 192.0, 0.0, 0.0, 0.0, 0.0, 0.0, 0.0, 0.0, 0.0, 0.0, 1.7296914126516075E9, 0.0, 2024-10-23 19:20:12.651
40.0, 22926.09488083063, 5116.448416286518, 43813.598908614986, 22298.36848954779, 17407.560933537596, 24120.415642311054, 155188.25116017475, -85475.95417212894, 0.148, 0.96, -0.138, 192.0, 0.0, 0.0, 0.0, 0.0, 0.0, 0.0, 0.0, 0.0, 0.0, 1.7296914126557462E9, 0.0, 2024-10-23 19:20:12.655
41.0, 22893.90836881499, 4336.774866196498, 43786.97798096872, 22025.02900660384, 17404.4093375694, 24042.072777995203, 154867.48127549666, -85763.93404769112, 0.148, 0.96, -0.138, 192.0, 0.0, 0.0, 0.0, 0.0, 0.0, 0.0, 0.0, 0.0, 0.0, 1.7296914126609225E9, 0.0, 2024-10-23 19:20:12.660
42.0, 22938.05306411422, 3542.0362403435997, 43787.40266411337, 21970.691915832987, 17395.87097118747, 24022.492649852356, 154509.62984676717, -86120.35496477544, 0.148, 0.96, -0.138, 192.0, 0.0, 0.0, 0.0, 0.0, 0.0, 0.0, 0.0, 0.0, 0.0, 1.7296914126646895E9, 0.0, 2024-10-23 19:20:12.664
43.0, 23090.51431304387, 4249.379545376247, 43848.601740431994, 22444.235973863124, 17394.283997331142, 24193.55055016882, 154780.60004479886, -85927.05707872595, 0.148, 0.96, -0.138, 192.0, 0.0, 0.0, 0.0, 0.0, 0.0, 0.0, 0.0, 0.0, 0.0, 1.7296914126687548E9, 0.0, 2024-10-23 19:20:12.668
44.0, 23049.811786390757, 5074.091860543712, 43845.36073748598, 22538.31446627551, 17394.90984617589, 24205.776954385874, 155150.34260157857, -85597.72647592146, 0.15, 0.9540000000000001, -0.132, 192.0, 4.0, 176.0, 29.0, 208.0, 251.0, 224.0, 0.0, 0.0, 0.0, 1.7296914126726365E9, 0.0, 2024-10-23 19:20:12.672
45.0, 22921.57982845066, 5076.170572778055, 43804.367638154945, 22276.17320730367, 17395.669805487374, 24104.858828170163, 155195.89545677847, -85533.19698967898, 0.15, 0.9540000000000001, -0.132, 192.0, 0.0, 0.0, 0.0, 0.0, 0.0, 0.0, 0.0, 0.0, 0.0, 1.7296914126757617E9, 0.0, 2024-10-23 19:20:12.675
46.0, 22891.404973435998, 4309.99747633904, 43787.022684457625, 22014.88131462113, 17394.68632873134, 24030.002835989337, 154846.71650489766, -85849.02713883248, 0.15, 0.9540000000000001, -0.132, 192.0, 0.0, 0.0, 0.0, 0.0, 0.0, 0.0, 0.0, 0.0, 0.0, 1.7296914126816597E9, 0.0, 2024-10-23 19:20:12.681
47.0, 22938.790671681247, 3526.9488128362673, 43799.830234030516, 21976.659831602556, 17398.933160177847, 24030.09224296716, 154507.57348627728, -86187.1419772079, 0.15, 0.9540000000000001, -0.132, 192.0, 0.0, 0.0, 0.0, 0.0, 0.0, 0.0, 0.0, 0.0, 0.0, 1.7296914126846375E9, 0.0, 2024-10-23 19:20:12.684
48.0, 23092.90594970059, 4247.904330242197, 43868.22657206376, 22457.423503091755, 17397.122668876968, 24202.670061906585, 154802.8400305319, -85971.71586414766, 0.15, 0.9540000000000001, -0.132, 192.0, 0.0, 0.0, 0.0, 0.0, 0.0, 0.0, 0.0, 0.0, 0.0, 1.7296914126896446E9, 0.0, 2024-10-23 19:20:12.689
49.0, 23050.616449191148, 5076.036462311324, 43863.95738887279, 22551.569050737507, 17394.52986652015, 24195.1598757696, 155197.21420970134, -85619.8099994433, 0.15, 0.9540000000000001, -0.132, 192.0, 0.0, 0.0, 0.0, 0.0, 0.0, 0.0, 0.0, 0.0, 0.0, 1.7296914126927357E9, 0.0, 2024-10-23 19:20:12.692
50.0, 22923.81500289619, 5083.881924615136, 43822.80782733057, 22288.287852798447, 17381.901130902905, 24094.375860020624, 155216.41435818846, -85582.05790305829, 0.15, 0.9540000000000001, -0.132, 192.0, 0.0, 0.0, 0.0, 0.0, 0.0, 0.0, 0.0, 0.0, 0.0, 1.7296914126976976E9, 0.0, 2024-10-23 19:20:12.697
51.0, 22896.54587466072, 4319.698133432643, 43814.60473711547, 22041.993980645417, 17405.884552703446, 24045.55965013023, 154909.90488647282, -85857.65491219221, 0.15, 0.9540000000000001, -0.132, 192.0, 0.0, 0.0, 0.0, 0.0, 0.0, 0.0, 0.0, 0.0, 0.0, 1.7296914127016957E9, 0.0, 2024-10-23 19:20:12.701
52.0, 22946.703189218428, 3552.8768364044236, 43834.18486525832, 22012.042643075307, 17415.764023752694, 24049.2253362209, 154561.99998402596, -86206.47623616175, 0.15, 0.9540000000000001, -0.132, 192.0, 0.0, 0.0, 0.0, 0.0, 0.0, 0.0, 0.0, 0.0, 0.0, 1.7296914127067893E9, 0.0, 2024-10-23 19:20:12.706
53.0, 23102.09251667172, 4284.963522549096, 43898.82611022307, 22494.147419231824, 17407.40447132641, 24222.27254179389, 154832.41138844626, -86014.31828907947, 0.15, 0.9540000000000001, -0.132, 192.0, 0.0, 0.0, 0.0, 0.0, 0.0, 0.0, 0.0, 0.0, 0.0, 1.729691412710806E9, 0.0, 2024-10-23 19:20:12.710
54.0, 23058.618373706147, 5118.460073287496, 43893.59580202053, 22591.75748726815, 17406.041014914634, 24247.12768162819, 155205.46200340535, -85681.63492460668, 0.15, 0.9580000000000001, -0.134, 192.0, 4.0, 176.0, 29.0, 240.0, 251.0, 208.0, 0.0, 0.0, 0.0, 1.7296914127137585E9, 0.0, 2024-10-23 19:20:12.713
55.0, 22931.459299499908, 5122.438683800541, 43856.98364460273, 22334.779481265483, 17415.20523014131, 24141.806261754784, 155245.896309125, -85621.9110634221, 0.15, 0.9580000000000001, -0.134, 192.0, 0.0, 0.0, 0.0, 0.0, 0.0, 0.0, 0.0, 0.0, 0.0, 1.729691412716724E9, 0.0, 2024-10-23 19:20:12.716
56.0, 22900.43507819594, 4356.399697828258, 43839.593987416505, 22079.008469463406, 17419.36265461, 24086.61980469463, 154908.40731959432, -85923.32433740191, 0.15, 0.9580000000000001, -0.134, 192.0, 0.0, 0.0, 0.0, 0.0, 0.0, 0.0, 0.0, 0.0, 0.0, 1.7296914127206876E9, 0.0, 2024-10-23 19:20:12.720
57.0, 22944.378607795075, 3578.46958380575, 43847.707670653785, 22034.662608464077, 17421.419015099887, 24074.929842344507, 154538.4188936256, -86288.66360052391, 0.15, 0.9580000000000001, -0.134, 192.0, 0.0, 0.0, 0.0, 0.0, 0.0, 0.0, 0.0, 0.0, 0.0, 1.7296914127247455E9, 0.0, 2024-10-23 19:20:12.724
58.0, 23092.347156089207, 4311.048008328439, 43908.0126771942, 22510.59830315093, 17418.245067387234, 24218.696262681042, 154825.1023680094, -86076.70200785423, 0.15, 0.9580000000000001, -0.134, 192.0, 0.0, 0.0, 0.0, 0.0, 0.0, 0.0, 0.0, 0.0, 0.0, 1.7296914127319307E9, 0.0, 2024-10-23 19:20:12.731
59.0, 23043.352132243173, 5141.661184032105, 43897.21678462229, 22600.608778072452, 17422.82717500057, 24236.018864633905, 155217.30842796667, -85720.14698030317, 0.15, 0.9580000000000001, -0.134, 192.0, 0.0, 0.0, 0.0, 0.0, 0.0, 0.0, 0.0, 0.0, 0.0, 1.7296914127357268E9, 0.0, 2024-10-23 19:20:12.735
60.0, 22909.420479466975, 5137.146131652133, 43845.85247586399, 22325.771728249994, 17417.574515053573, 24140.129880920635, 155224.77391061472, -85690.48621541097, 0.15, 0.9580000000000001, -0.134, 192.0, 0.0, 0.0, 0.0, 0.0, 0.0, 0.0, 0.0, 0.0, 0.0, 1.7296914127387464E9, 0.0, 2024-10-23 19:20:12.738
61.0, 22880.787894819725, 4358.210189129137, 43822.04786801909, 22062.40112333311, 17427.185765169354, 24060.848243337663, 154891.1070693859, -85984.38930325382, 0.15, 0.9580000000000001, -0.134, 192.0, 0.0, 0.0, 0.0, 0.0, 0.0, 0.0, 0.0, 0.0, 0.0, 1.7296914127427447E9, 0.0, 2024-10-23 19:20:12.742
62.0, 22929.715863432393, 3584.348092597496, 43828.93220531133, 22022.30209378029, 17429.35388438152, 24080.830702880707, 154541.95046924954, -86325.85690329754, 0.15, 0.9580000000000001, -0.134, 192.0, 0.0, 0.0, 0.0, 0.0, 0.0, 0.0, 0.0, 0.0, 0.0, 1.7296914127458367E9, 0.0, 2024-10-23 19:20:12.745
63.0, 23076.343307059207, 4316.971220609095, 43878.66483672438, 22484.1561894603, 17416.144003408433, 24197.909140337604, 154826.06349302095, -86115.16936006182, 0.15, 0.9580000000000001, -0.134, 192.0, 0.0, 0.0, 0.0, 0.0, 0.0, 0.0, 0.0, 0.0, 0.0, 1.7296914127487416E9, 0.0, 2024-10-23 19:20:12.748
64.0, 23032.288018737796, 5143.292861377342, 43865.27614179566, 22560.733265964183, 17407.11389864849, 24195.40574495861, 155180.98684322677, -85794.51123410597, 0.152, 0.9560000000000001, -0.14, 192.0, 4.0, 192.0, 29.0, 224.0, 251.0, 160.0, 0.0, 0.0, 0.0, 1.7296914127527263E9, 0.0, 2024-10-23 19:20:12.752
65.0, 22902.223217752366, 5128.7642274813925, 43807.40747540086, 22291.148876088726, 17385.231540826742, 24126.428261569534, 155207.60777087306, -85741.76111719145, 0.152, 0.9560000000000001, -0.14, 192.0, 0.0, 0.0, 0.0, 0.0, 0.0, 0.0, 0.0, 0.0, 0.0, 1.729691412756734E9, 0.0, 2024-10-23 19:20:12.756
66.0, 22875.468179639363, 4347.4813517905895, 43777.63495178639, 22028.962913627973, 17377.095505845013, 24038.161222715524, 154860.7981039045, -86049.87991450787, 0.152, 0.9560000000000001, -0.14, 192.0, 0.0, 0.0, 0.0, 0.0, 0.0, 0.0, 0.0, 0.0, 0.0, 1.7296914127597656E9, 0.0, 2024-10-23 19:20:12.759
67.0, 22925.089052330146, 3564.6562057323704, 43781.05476868806, 21987.76864859684, 17373.742744176718, 24037.311856426222, 154505.78534672086, -86400.60113675609, 0.152, 0.9560000000000001, -0.14, 192.0, 0.0, 0.0, 0.0, 0.0, 0.0, 0.0, 0.0, 0.0, 0.0, 1.7296914127647817E9, 0.0, 2024-10-23 19:20:12.764
68.0, 23077.03621113732, 4304.342484991847, 43843.5502461851, 22458.518738570063, 17383.421049525863, 24174.283346448345, 154786.14327742378, -86194.18277671133, 0.152, 0.9560000000000001, -0.14, 192.0, 0.0, 0.0, 0.0, 0.0, 0.0, 0.0, 0.0, 0.0, 0.0, 1.7296914127687597E9, 0.0, 2024-10-23 19:20:12.768
69.0, 23035.864297850647, 5128.987744925946, 43840.33159498353, 22545.89170764586, 17389.79129669563, 24194.042288546836, 155159.2832993607, -85853.78806040145, 0.152, 0.9560000000000001, -0.14, 192.0, 0.0, 0.0, 0.0, 0.0, 0.0, 0.0, 0.0, 0.0, 0.0, 1.7296914127737749E9, 0.0, 2024-10-23 19:20:12.773
70.0, 22905.19599976492, 5110.234631327943, 43791.783606026605, 22272.75339040201, 17374.547406977108, 24098.801505422773, 155191.49216312077, -85796.61229808477, 0.152, 0.9560000000000001, -0.14, 192.0, 0.0, 0.0, 0.0, 0.0, 0.0, 0.0, 0.0, 0.0, 0.0, 1.7296914127768197E9, 0.0, 2024-10-23 19:20:12.776
71.0, 22879.357383174585, 4329.71171494862, 43778.46196633124, 22014.523686709847, 17385.142133848924, 24023.073795208194, 154858.56292945897, -86092.3705807174, 0.152, 0.9560000000000001, -0.14, 192.0, 0.0, 0.0, 0.0, 0.0, 0.0, 0.0, 0.0, 0.0, 0.0, 1.7296914127817554E9, 0.0, 2024-10-23 19:20:12.781
72.0, 22931.973389622377, 3561.0128713861554, 43794.309353150056, 21978.425619414524, 17382.370517536463, 24020.145716684547, 154512.98260843547, -86434.24051216133, 0.152, 0.9560000000000001, -0.14, 192.0, 0.0, 0.0, 0.0, 0.0, 0.0, 0.0, 0.0, 0.0, 0.0, 1.7296914127857776E9, 0.0, 2024-10-23 19:20:12.785
73.0, 23085.149894374597, 4310.71273216161, 43863.46565049478, 22456.998819947104, 17393.658148486396, 24171.042343502326, 154802.4376991317, -86219.03791654563, 0.152, 0.9560000000000001, -0.14, 192.0, 0.0, 0.0, 0.0, 0.0, 0.0, 0.0, 0.0, 0.0, 0.0, 1.7296914127898536E9, 0.0, 2024-10-23 19:20:12.789
74.0, 23047.397797989583, 5142.152922410121, 43866.28197029614, 22555.011219383625, 17392.764078708184, 24219.635035948162, 155184.92075025092, -85869.27781930898, 0.15, 0.9540000000000001, -0.138, 192.0, 4.0, 176.0, 29.0, 208.0, 251.0, 176.0, 0.0, 0.0, 0.0, 1.7296914127928023E9, 0.0, 2024-10-23 19:20:12.792
75.0, 22927.033654097755, 5135.82737872927, 43833.06727803556, 22294.65809996821, 17407.225657370767, 24142.655628044085, 155195.96251201184, -85832.57625491337, 0.15, 0.9540000000000001, -0.138, 192.0, 0.0, 0.0, 0.0, 0.0, 0.0, 0.0, 0.0, 0.0, 0.0, 1.729691412795813E9, 0.0, 2024-10-23 19:20:12.795
76.0, 22902.133810774543, 4353.315157093425, 43824.01482153116, 22039.35647479969, 17426.559916324608, 24062.792845105272, 154860.28401378205, -86131.95552014775, 0.15, 0.9540000000000001, -0.138, 192.0, 0.0, 0.0, 0.0, 0.0, 0.0, 0.0, 0.0, 0.0, 0.0, 1.7296914128028195E9, 0.0, 2024-10-23 19:20:12.802
77.0, 22952.536994521262, 3584.728072253236, 43835.52596992564, 22007.92992209553, 17426.06817794659, 24055.461472923933, 154509.29457060035, -86481.84972785112, 0.15, 0.9540000000000001, -0.138, 192.0, 0.0, 0.0, 0.0, 0.0, 0.0, 0.0, 0.0, 0.0, 0.0, 1.7296914128068533E9, 0.0, 2024-10-23 19:20:12.806
78.0, 23104.126525417152, 4345.0226599005055, 43900.904822457414, 22497.097849499925, 17424.92823897937, 24213.04127133385, 154800.04606247498, -86266.7141874688, 0.15, 0.9540000000000001, -0.138, 192.0, 0.0, 0.0, 0.0, 0.0, 0.0, 0.0, 0.0, 0.0, 0.0, 1.729691412810893E9, 0.0, 2024-10-23 19:20:12.810
79.0, 23061.501748740884, 5170.0702512348, 43896.97091543328, 22590.52814132311, 17420.0108551992, 24240.869193180704, 155165.2735668747, -85936.04247999698, 0.15, 0.9540000000000001, -0.138, 192.0, 0.0, 0.0, 0.0, 0.0, 0.0, 0.0, 0.0, 0.0, 0.0, 1.7296914128148873E9, 0.0, 2024-10-23 19:20:12.814
80.0, 22931.0122646108, 5150.914806236602, 43851.21689453327, 22325.414100338712, 17414.82525048557, 24133.759633750873, 155195.24725618926, -85882.08536888188, 0.15, 0.9540000000000001, -0.138, 192.0, 0.0, 0.0, 0.0, 0.0, 0.0, 0.0, 0.0, 0.0, 0.0, 1.729691412817863E9, 0.0, 2024-10-23 19:20:12.817
81.0, 22903.51961893077, 4360.557122296944, 43832.24026349071, 22069.17370190307, 17420.569648810586, 24043.57034487371, 154867.16835107427, -86175.3402561355, 0.15, 0.9540000000000001, -0.138, 192.0, 0.0, 0.0, 0.0, 0.0, 0.0, 0.0, 0.0, 0.0, 0.0, 1.7296914128219764E9, 0.0, 2024-10-23 19:20:12.821
82.0, 22954.12396837759, 3591.210078145275, 43847.26063576468, 22042.284553323338, 17437.02053272969, 24065.989144562383, 154548.09719897475, -86494.18789079046, 0.15, 0.9540000000000001, -0.138, 192.0, 0.0, 0.0, 0.0, 0.0, 0.0, 0.0, 0.0, 0.0, 0.0, 1.7296914128249018E9, 0.0, 2024-10-23 19:20:12.824
83.0, 23106.227589395952, 4359.2830728629915, 43918.13801743246, 22525.864544613905, 17447.59290785705, 24248.2229171065, 154831.58437390142, -86288.03775167916, 0.15, 0.9540000000000001, -0.138, 192.0, 0.0, 0.0, 0.0, 0.0, 0.0, 0.0, 0.0, 0.0, 0.0, 1.7296914128278975E9, 0.0, 2024-10-23 19:20:12.827
84.0, 23062.552280730284, 5179.189762972565, 43912.863005741005, 22602.57573158452, 17443.703704321826, 24232.196716332044, 155189.45815437534, -85965.85970710036, 0.15, 0.9560000000000001, -0.134, 192.0, 4.0, 176.0, 29.0, 224.0, 251.0, 208.0, 0.0, 0.0, 0.0, 1.7296914128318765E9, 0.0, 2024-10-23 19:20:12.831
85.0, 22935.527316990774, 5153.172332426588, 43865.92434238486, 22325.391748594255, 17425.10705293501, 24128.506973803876, 155214.9391430544, -85920.06098271144, 0.15, 0.9560000000000001, -0.134, 192.0, 0.0, 0.0, 0.0, 0.0, 0.0, 0.0, 0.0, 0.0, 0.0, 1.7296914128368971E9, 0.0, 2024-10-23 19:20:12.836
86.0, 22906.939435832435, 4367.2626456335365, 43842.745583384705, 22065.12803615666, 17421.19549765533, 24062.323458471714, 154904.60752303692, -86200.30715469208, 0.15, 0.9560000000000001, -0.134, 192.0, 0.0, 0.0, 0.0, 0.0, 0.0, 0.0, 0.0, 0.0, 0.0, 1.7296914128409016E9, 0.0, 2024-10-23 19:20:12.840
87.0, 22958.191985868452, 3602.1624329283754, 43856.96129285828, 22033.902649152595, 17437.244050174242, 24084.20581629346, 154571.72299286403, -86538.08671690068, 0.15, 0.9560000000000001, -0.134, 192.0, 0.0, 0.0, 0.0, 0.0, 0.0, 0.0, 0.0, 0.0, 0.0, 1.7296914128438883E9, 0.0, 2024-10-23 19:20:12.843
88.0, 23105.95936846249, 4366.0332996884945, 43915.18758716436, 22505.435050181753, 17430.963209982303, 24219.88090513717, 154867.83890340794, -86320.85011253956, 0.15, 0.9560000000000001, -0.134, 192.0, 0.0, 0.0, 0.0, 0.0, 0.0, 0.0, 0.0, 0.0, 0.0, 1.729691412847862E9, 0.0, 2024-10-23 19:20:12.847
89.0, 23062.507577241373, 5189.583324144283, 43895.048665410126, 22578.927585950805, 17414.64643652993, 24209.35323349872, 155234.11693979704, -85988.1443963223, 0.15, 0.9560000000000001, -0.134, 192.0, 0.0, 0.0, 0.0, 0.0, 0.0, 0.0, 0.0, 0.0, 0.0, 1.729691412851854E9, 0.0, 2024-10-23 19:20:12.851
90.0, 22935.035578612755, 5163.722355809493, 43837.33646122652, 22300.201332593126, 17400.140154378434, 24085.546920960776, 155256.37927727454, -85943.66442485624, 0.15, 0.9560000000000001, -0.134, 192.0, 0.0, 0.0, 0.0, 0.0, 0.0, 0.0, 0.0, 0.0, 0.0, 1.7296914128558896E9, 0.0, 2024-10-23 19:20:12.855
91.0, 22911.409784723495, 4380.226657417615, 43820.10326625148, 22045.190280102528, 17418.78150925416, 24038.451795393445, 154906.84269748244, -86260.12042285448, 0.15, 0.9560000000000001, -0.134, 192.0, 0.0, 0.0, 0.0, 0.0, 0.0, 0.0, 0.0, 0.0, 0.0, 1.7296914128600116E9, 0.0, 2024-10-23 19:20:12.860
92.0, 22962.774093481792, 3612.891270266923, 43822.24903371919, 22019.239904789916, 17406.085718403545, 24078.95315634646, 154556.56851012332, -86612.04863930329, 0.15, 0.9560000000000001, -0.134, 192.0, 0.0, 0.0, 0.0, 0.0, 0.0, 0.0, 0.0, 0.0, 0.0, 1.729691412863898E9, 0.0, 2024-10-23 19:20:12.863
93.0, 23108.1051359302, 4378.907904494751, 43872.96514188828, 22492.02400350857, 17401.794183468126, 24216.93047486907, 154845.19658627472, -86399.88588093352, 0.15, 0.9560000000000001, -0.134, 192.0, 0.0, 0.0, 0.0, 0.0, 0.0, 0.0, 0.0, 0.0, 0.0, 1.729691412868939E9, 0.0, 2024-10-23 19:20:12.868
94.0, 23063.133426086122, 5199.1275190267, 43865.85728715149, 22572.75850448114, 17407.44917481532, 24207.94507359804, 155211.25110521927, -86067.94012402775, 0.152, 0.9500000000000001, -0.128, 192.0, 4.0, 192.0, 29.0, 176.0, 252.0, 0.0, 0.0, 0.0, 0.0, 1.7296914128719008E9, 0.0, 2024-10-23 19:20:12.871
95.0, 22938.388340281053, 5168.997367500945, 43819.29860345109, 22306.705690229617, 17394.1051833755, 24111.09496487319, 155241.82829163413, -86014.78767571303, 0.152, 0.9500000000000001, -0.128, 192.0, 0.0, 0.0, 0.0, 0.0, 0.0, 0.0, 0.0, 0.0, 0.0, 1.7296914128759513E9, 0.0, 2024-10-23 19:20:12.875
96.0, 22914.471973713873, 4379.466698106134, 43796.94685899578, 22059.18247213155, 17388.003157139203, 24054.99208629037, 154920.94664823374, -86304.57804257609, 0.152, 0.9500000000000001, -0.128, 192.0, 0.0, 0.0, 0.0, 0.0, 0.0, 0.0, 0.0, 0.0, 0.0, 1.72969141287991E9, 0.0, 2024-10-23 19:20:12.879
97.0, 22968.294974362252, 3614.701761567803, 43810.06733299105, 22031.6004194737, 17404.565799780583, 24056.109673513136, 154577.3332807223, -86650.15836359959, 0.152, 0.9500000000000001, -0.128, 192.0, 0.0, 0.0, 0.0, 0.0, 0.0, 0.0, 0.0, 0.0, 0.0, 1.7296914128839073E9, 0.0, 2024-10-23 19:20:12.883
98.0, 23117.358758134695, 4391.380177900813, 43878.597781491015, 22515.247465997632, 17418.40152959842, 24219.83620164826, 154884.87093268288, -86417.43200033093, 0.152, 0.9500000000000001, -0.128, 192.0, 0.0, 0.0, 0.0, 0.0, 0.0, 0.0, 0.0, 0.0, 0.0, 1.7296914128879628E9, 0.0, 2024-10-23 19:20:12.887
99.0, 23071.0459436233, 5208.202327275554, 43870.417043020374, 22591.42221110132, 17410.77958473916, 24214.06945157879, 155263.12950410004, -86070.6223333624, 0.152, 0.9500000000000001, -0.128, 192.0, 0.0, 0.0, 0.0, 0.0, 0.0, 0.0, 0.0, 0.0, 0.0, 1.7296914128919053E9, 0.0, 2024-10-23 19:20:12.891
100.0, 22945.563250251205, 5173.825344303292, 43829.64746113389, 22320.40730958072, 17409.416128327386, 24130.67509301604, 155260.49199825432, -86047.95766448471, 0.152, 0.9500000000000001, -0.128, 192.0, 0.0, 0.0, 0.0, 0.0, 0.0, 0.0, 0.0, 0.0, 0.0, 1.7296914128969152E9, 0.0, 2024-10-23 19:20:12.896
101.0, 22916.86361037059, 4378.505573094556, 43807.027495745126, 22067.430265835555, 17412.858296973503, 24065.944441073472, 154908.72024401667, -86365.12891830552, 0.152, 0.9500000000000001, -0.128, 192.0, 0.0, 0.0, 0.0, 0.0, 0.0, 0.0, 0.0, 0.0, 0.0, 1.729691412899894E9, 0.0, 2024-10-23 19:20:12.899
102.0, 22967.89264296206, 3613.8747470229564, 43818.60569937297, 22040.384655044636, 17415.62991328596, 24063.19517650547, 154555.3391641783, -86717.10183824324, 0.152, 0.9500000000000001, -0.128, 192.0, 0.0, 0.0, 0.0, 0.0, 0.0, 0.0, 0.0, 0.0, 0.0, 1.72969141290391E9, 0.0, 2024-10-23 19:20:12.903
103.0, 23111.256731898397, 4388.049767976972, 43877.43549077934, 22517.817916609994, 17406.286884103643, 24198.82556186027, 154857.71356316967, -86488.10821629861, 0.152, 0.9500000000000001, -0.128, 192.0, 0.0, 0.0, 0.0, 0.0, 0.0, 0.0, 0.0, 0.0, 0.0, 1.7296914129079683E9, 0.0, 2024-10-23 19:20:12.907
104.0, 23070.42009477855, 5212.717379655526, 43883.60457224901, 22603.67096706283, 17421.128442421967, 24252.872079953206, 155242.87882362353, -86133.27427307061, 0.152, 0.9500000000000001, -0.128, 192.0, 0.0, 0.0, 0.0, 0.0, 0.0, 0.0, 0.0, 0.0, 0.0, 1.7296914129119415E9, 0.0, 2024-10-23 19:20:12.911
105.0, 22947.284334574266, 5175.591132115261, 43850.38987998842, 22335.718254532607, 17423.587134312053, 24175.132712737646, 155255.57461447414, -86091.3647522169, 0.15, 0.9540000000000001, -0.124, 192.0, 4.0, 176.0, 29.0, 208.0, 252.0, 32.0, 0.0, 0.0, 0.0, 1.7296914129159403E9, 0.0, 2024-10-23 19:20:12.915
106.0, 22918.71880516038, 4379.243180661581, 43832.1955600018, 22078.114399685193, 17418.692102276338, 24079.42254298002, 154913.88349698586, -86396.33195356512, 0.15, 0.9540000000000001, -0.124, 192.0, 0.0, 0.0, 0.0, 0.0, 0.0, 0.0, 0.0, 0.0, 0.0, 1.729691412919972E9, 0.0, 2024-10-23 19:20:12.919
107.0, 22969.390209840563, 3614.2323749342413, 43844.354908985486, 22047.89484118162, 17421.329608122065, 24046.56547863072, 154588.21858027205, -86721.66159411211, 0.15, 0.9540000000000001, -0.124, 192.0, 0.0, 0.0, 0.0, 0.0, 0.0, 0.0, 0.0, 0.0, 0.0, 1.729691412925072E9, 0.0, 2024-10-23 19:20:12.925
108.0, 23123.304322159805, 4399.359750671358, 43915.947546475836, 22540.035550598568, 17441.580288598572, 24259.93523120108, 154913.92820047477, -86469.04217827824, 0.15, 0.9540000000000001, -0.124, 192.0, 0.0, 0.0, 0.0, 0.0, 0.0, 0.0, 0.0, 0.0, 0.0, 1.7296914129290347E9, 0.0, 2024-10-23 19:20:12.929
109.0, 23080.992469905912, 5216.763045401936, 43913.89118598595, 22624.458089406264, 17445.02245724469, 24289.551292604363, 155274.57359726116, -86137.14112486139, 0.15, 0.9540000000000001, -0.124, 192.0, 0.0, 0.0, 0.0, 0.0, 0.0, 0.0, 0.0, 0.0, 0.0, 1.7296914129319932E9, 0.0, 2024-10-23 19:20:12.931
110.0, 22949.944192164447, 5165.085812221267, 43866.97487437426, 22345.66478081522, 17439.859204275515, 24164.35917191019, 155269.81267569217, -86111.88365362688, 0.15, 0.9540000000000001, -0.124, 192.0, 0.0, 0.0, 0.0, 0.0, 0.0, 0.0, 0.0, 0.0, 0.0, 1.7296914129370084E9, 0.0, 2024-10-23 19:20:12.937
111.0, 22923.07739532917, 4369.229599145603, 43849.20523753229, 22095.235835937958, 17447.861128790515, 24095.09111584319, 154913.12353767437, -86431.75946852678, 0.15, 0.9540000000000001, -0.124, 192.0, 0.0, 0.0, 0.0, 0.0, 0.0, 0.0, 0.0, 0.0, 0.0, 1.72969141294098E9, 0.0, 2024-10-23 19:20:12.940
112.0, 22975.514587821315, 3602.631819561937, 43854.994339346216, 22070.447751337022, 17443.100207221534, 24089.659641940554, 154576.30510047736, -86768.26498130143, 0.15, 0.9540000000000001, -0.124, 192.0, 0.0, 0.0, 0.0, 0.0, 0.0, 0.0, 0.0, 0.0, 0.0, 1.7296914129451296E9, 0.0, 2024-10-23 19:20:12.945
113.0, 23122.298493659317, 4384.29467490848, 43909.17496790588, 22549.870318158904, 17438.339285652553, 24239.41632979111, 154880.1547146028, -86538.84667621215, 0.15, 0.9540000000000001, -0.124, 192.0, 0.0, 0.0, 0.0, 0.0, 0.0, 0.0, 0.0, 0.0, 0.0, 1.7296914129480348E9, 0.0, 2024-10-23 19:20:12.948
114.0, 23078.265557082363, 5195.283018980386, 43895.942735188335, 22628.615513874953, 17431.656114060417, 24251.486271796977, 155266.66107972397, -86181.88931726091, 0.15, 0.9540000000000001, -0.124, 192.0, 0.0, 0.0, 0.0, 0.0, 0.0, 0.0, 0.0, 0.0, 0.0, 1.7296914129551237E9, 0.0, 2024-10-23 19:20:12.955
115.0, 22944.915049662002, 5137.012021185401, 43833.782533858124, 22338.959257478626, 17415.093471419033, 24134.027854684336, 155285.88357995555, -86135.86707542742, 0.154, 0.96, -0.128, 192.0, 4.0, 208.0, 30.0, 0.0, 252.0, 0.0, 0.0, 0.0, 0.0, 1.7296914129590168E9, 0.0, 2024-10-23 19:20:12.959
116.0, 22929.87232564358, 4343.189816855171, 43811.72136208074, 22080.304870641812, 17422.938933722846, 24074.013420821837, 154948.1263694914, -86436.76625928478, 0.154, 0.96, -0.128, 192.0, 0.0, 0.0, 0.0, 0.0, 0.0, 0.0, 0.0, 0.0, 0.0, 1.7296914129621773E9, 0.0, 2024-10-23 19:20:12.962
117.0, 22985.50581759284, 3585.599790286993, 43816.303469694074, 22053.54983252881, 17426.895192491436, 24068.269022496825, 154604.2894845354, -86778.4350250286, 0.154, 0.96, -0.128, 192.0, 0.0, 0.0, 0.0, 0.0, 0.0, 0.0, 0.0, 0.0, 0.0, 1.7296914129651394E9, 0.0, 2024-10-23 19:20:12.965
118.0, 23127.506450117406, 4367.217942144625, 43865.812583662584, 22527.473870214686, 17413.037110929145, 24211.45429747752, 154912.94472371874, -86544.30050185925, 0.154, 0.96, -0.128, 192.0, 0.0, 0.0, 0.0, 0.0, 0.0, 0.0, 0.0, 0.0, 0.0, 1.7296914129692245E9, 0.0, 2024-10-23 19:20:12.969
119.0, 23079.71842047196, 5174.495896636951, 43851.95450210029, 22597.412478615344, 17401.92829393486, 24225.60295171773, 155279.98271941935, -86205.22453847225, 0.154, 0.96, -0.128, 192.0, 0.0, 0.0, 0.0, 0.0, 0.0, 0.0, 0.0, 0.0, 0.0, 1.7296914129720259E9, 0.0, 2024-10-23 19:20:12.972
120.0, 22962.1705963815, 5120.851709944214, 43809.84381554649, 22322.24015262606, 17413.417090584888, 24142.655628044085, 155288.2975683567, -86167.42773859832, 0.154, 0.96, -0.128, 192.0, 0.0, 0.0, 0.0, 0.0, 0.0, 0.0, 0.0, 0.0, 0.0, 1.7296914129761636E9, 0.0, 2024-10-23 19:20:12.976
121.0, 22931.68281694446, 4320.61455495531, 43782.37352161092, 22063.719876255975, 17406.957436437304, 24057.942516558473, 154948.26047995812, -86469.5562684007, 0.154, 0.96, -0.128, 192.0, 0.0, 0.0, 0.0, 0.0, 0.0, 0.0, 0.0, 0.0, 0.0, 1.7296914129810884E9, 0.0, 2024-10-23 19:20:12.981
122.0, 22982.488332091372, 3563.3374528095073, 43794.801091528076, 22034.30498055279, 17422.49189883374, 24037.311856426222, 154600.26617053346, -86815.04718244639, 0.154, 0.96, -0.128, 192.0, 0.0, 0.0, 0.0, 0.0, 0.0, 0.0, 0.0, 0.0, 0.0, 1.7296914129840484E9, 0.0, 2024-10-23 19:20:12.984
123.0, 23125.204220438507, 4355.10329664985, 43862.14689757191, 22519.896628844337, 17438.629858330474, 24223.658349950118, 154919.22556391067, -86572.3295894062, 0.154, 0.96, -0.128, 192.0, 0.0, 0.0, 0.0, 0.0, 0.0, 0.0, 0.0, 0.0, 0.0, 1.7296914129870632E9, 0.0, 2024-10-23 19:20:12.987
124.0, 23072.56586224626, 5167.566855855805, 43847.372394486956, 22593.791496013582, 17423.430672100865, 24240.757434458428, 155281.9496729314, -86241.27790227866, 0.154, 0.96, -0.128, 192.0, 0.0, 0.0, 0.0, 0.0, 0.0, 0.0, 0.0, 0.0, 0.0, 1.7296914129921975E9, 0.0, 2024-10-23 19:20:12.992
125.0, 22938.29893330323, 5116.91780292008, 43798.10914970746, 22316.831030467874, 17420.457890088306, 24127.277627858835, 155271.37729780405, -86224.89407359292, 0.15, 0.9580000000000001, -0.124, 192.0, 4.0, 176.0, 29.0, 240.0, 252.0, 32.0, 0.0, 0.0, 0.0, 1.7296914129961011E9, 0.0, 2024-10-23 19:20:12.996
126.0, 22903.139639275032, 4320.636906699766, 43771.935256950295, 22067.74319025793, 17411.226619628265, 24036.060158736727, 154944.95242177873, -86514.9750131339, 0.15, 0.9580000000000001, -0.124, 192.0, 0.0, 0.0, 0.0, 0.0, 0.0, 0.0, 0.0, 0.0, 0.0, 1.7296914130001345E9, 0.0, 2024-10-23 19:20:13.000
127.0, 22958.68372424647, 3578.246066361197, 43789.0343414586, 22053.21455636198, 17432.10314894952, 24047.66071410903, 154605.47412699152, -86854.56506664336, 0.15, 0.9580000000000001, -0.124, 192.0, 0.0, 0.0, 0.0, 0.0, 0.0, 0.0, 0.0, 0.0, 0.0, 1.72969141300413E9, 0.0, 2024-10-23 19:20:13.004
128.0, 23100.885522471133, 4377.566799827433, 43851.86509512247, 22539.387350009365, 17429.912677992903, 24228.911009897114, 154920.11963368888, -86615.75902888287, 0.15, 0.9580000000000001, -0.124, 192.0, 0.0, 0.0, 0.0, 0.0, 0.0, 0.0, 0.0, 0.0, 0.0, 1.7296914130092075E9, 0.0, 2024-10-23 19:20:13.009
129.0, 23053.477472481427, 5192.176126501099, 43845.316033997064, 22617.841973047493, 17428.281000647665, 24242.009132147927, 155295.6512922825, -86269.7093212258, 0.15, 0.9580000000000001, -0.124, 192.0, 0.0, 0.0, 0.0, 0.0, 0.0, 0.0, 0.0, 0.0, 0.0, 1.7296914130121884E9, 0.0, 2024-10-23 19:20:13.012
130.0, 22926.050177341724, 5137.459056074507, 43801.28309742011, 22345.351856392845, 17428.325704136576, 24138.900534975593, 155298.6017225506, -86239.71328016679, 0.15, 0.9580000000000001, -0.124, 192.0, 0.0, 0.0, 0.0, 0.0, 0.0, 0.0, 0.0, 0.0, 0.0, 1.7296914130150928E9, 0.0, 2024-10-23 19:20:13.015
131.0, 22906.134773032045, 4344.262700589025, 43790.33074263701, 22105.785859320862, 17439.188651941855, 24095.739316432395, 154968.95819532374, -86533.81753370972, 0.15, 0.9580000000000001, -0.124, 192.0, 0.0, 0.0, 0.0, 0.0, 0.0, 0.0, 0.0, 0.0, 0.0, 1.7296914130201056E9, 0.0, 2024-10-23 19:20:13.020
132.0, 22966.372724339097, 3601.4471771058056, 43807.47453063423, 22094.31941441529, 17443.368428154998, 24103.897703158582, 154628.63053424723, -86873.34053198583, 0.15, 0.9580000000000001, -0.124, 192.0, 0.0, 0.0, 0.0, 0.0, 0.0, 0.0, 0.0, 0.0, 0.0, 1.7296914130241182E9, 0.0, 2024-10-23 19:20:13.024
133.0, 23112.217856909974, 4403.472471651134, 43871.06524360958, 22573.47376030371, 17444.955402011325, 24253.833204964783, 154937.79986355305, -86638.69191869402, 0.15, 0.9580000000000001, -0.124, 192.0, 0.0, 0.0, 0.0, 0.0, 0.0, 0.0, 0.0, 0.0, 0.0, 1.7296914130281208E9, 0.0, 2024-10-23 19:20:13.028
134.0, 23070.80007443429, 5218.104150069255, 43869.34415928652, 22649.223822262746, 17447.92818402388, 24259.778768989894, 155312.03512096824, -86293.96096395982, 0.15, 0.9580000000000001, -0.124, 192.0, 0.0, 0.0, 0.0, 0.0, 0.0, 0.0, 0.0, 0.0, 0.0, 1.7296914130341744E9, 0.0, 2024-10-23 19:20:13.034
135.0, 22943.35042755013, 5160.548408096839, 43827.88167332193, 22369.737609593583, 17450.58804161406, 24154.524404349853, 155312.14687969052, -86264.56842000109, 0.154, 0.9500000000000001, -0.128, 192.0, 4.0, 208.0, 29.0, 176.0, 252.0, 0.0, 0.0, 0.0, 0.0, 1.7296914130371854E9, 0.0, 2024-10-23 19:20:13.037
136.0, 22928.77709016527, 4359.730107752098, 43810.447312646786, 22117.76639434891, 17441.937916509858, 24077.76851389033, 154977.98830008367, -86562.07013870122, 0.154, 0.9500000000000001, -0.128, 192.0, 0.0, 0.0, 0.0, 0.0, 0.0, 0.0, 0.0, 0.0, 0.0, 1.7296914130401852E9, 0.0, 2024-10-23 19:20:13.040
