%OpenBCI Raw EXG Data
%Number of channels = 8
%Sample Rate = 250 Hz
%Board = OpenBCI_GUI$BoardCytonSerial
Sample Index, EXG Channel 0, EXG Channel 1, EXG Channel 2, EXG Channel 3, EXG Channel 4, EXG Channel 5, EXG Channel 6, EXG Channel 7, Accel Channel 0, Accel Channel 1, Accel Channel 2, Other, Other, Other, Other, Other, Other, Other, Analog Channel 0, Analog Channel 1, Analog Channel 2, Timestamp, Other, Timestamp (Formatted)
0.0, 0.0, 0.0, 0.0, 0.0, 0.0, 0.0, 0.0, 0.0, 0.116, 0.9500000000000001, 0.168, 192.0, 3.0, 160.0, 29.0, 176.0, 5.0, 64.0, 0.0, 0.0, 0.0, 1.7297112513225543E9, 0.0, 2024-10-24 00:50:51.322
1.0, -46057.93756937237, -48724.992421268515, -40920.05383015321, -53553.19274105939, -52723.00424850038, -45435.75441071444, 16683.74439284139, 42561.85651562888, 0.116, 0.9500000000000001, 0.168, 192.0, 0.0, 0.0, 0.0, 0.0, 0.0, 0.0, 0.0, 0.0, 0.0, 1.729711251339562E9, 0.0, 2024-10-24 00:50:51.339
2.0, -46043.74421164325, -48723.248985201004, -40917.81865570768, -53558.8924358955, -52736.01296377337, -45442.191713117565, 16722.569372960257, 42627.97297572768, 0.116, 0.9500000000000001, 0.168, 192.0, 0.0, 0.0, 0.0, 0.0, 0.0, 0.0, 0.0, 0.0, 0.0, 1.729711251342565E9, 0.0, 2024-10-24 00:50:51.342
3.0, -46056.127078071484, -48737.82232258586, -40935.163609405, -53575.589189003615, -52757.940025084026, -45463.247056394466, 17078.029165033004, 43015.015782715775, 0.116, 0.9500000000000001, 0.168, 192.0, 0.0, 0.0, 0.0, 0.0, 0.0, 0.0, 0.0, 0.0, 0.0, 1.729711251346634E9, 0.0, 2024-10-24 00:50:51.346
4.0, -46078.03178763769, -48754.94375883863, -40948.48524910036, -53585.513363541766, -52763.12562979766, -45471.80777452085, 17345.937174074315, 43282.29794291234, 0.116, 0.9500000000000001, 0.168, 192.0, 0.0, 0.0, 0.0, 0.0, 0.0, 0.0, 0.0, 0.0, 0.0, 1.729711251350636E9, 0.0, 2024-10-24 00:50:51.350
5.0, -46066.40888052093, -48737.06236327438, -40928.078106412664, -53563.67570920893, -52737.48817890742, -45448.561960287334, 17107.15348805827, 42995.77093073975, 0.116, 0.9500000000000001, 0.168, 192.0, 0.0, 0.0, 0.0, 0.0, 0.0, 0.0, 0.0, 0.0, 0.0, 1.7297112513536024E9, 0.0, 2024-10-24 00:50:51.353
6.0, -46050.09210706856, -48719.8515200438, -40911.38135330455, -53548.90120612398, -52723.42893164503, -45433.47453278, 16802.09687973224, 42664.76394710111, 0.116, 0.9500000000000001, 0.168, 192.0, 0.0, 0.0, 0.0, 0.0, 0.0, 0.0, 0.0, 0.0, 0.0, 1.7297112513585792E9, 0.0, 2024-10-24 00:50:51.358
7.0, -46043.05130756513, -48721.5502526224, -40911.53781551574, -53559.18300857342, -52734.47069340595, -45445.67858525259, 16845.392208742167, 42733.495561301184, 0.116, 0.9500000000000001, 0.168, 192.0, 0.0, 0.0, 0.0, 0.0, 0.0, 0.0, 0.0, 0.0, 0.0, 1.7297112513617191E9, 0.0, 2024-10-24 00:50:51.361
8.0, -46057.0211478497, -48746.964186068086, -40936.59412105013, -53586.65330250899, -52770.233484534445, -45477.46276586804, 17201.07551825947, 43120.04662991126, 0.134, 0.962, 0.108, 192.0, 4.0, 48.0, 30.0, 16.0, 3.0, 96.0, 0.0, 0.0, 0.0, 1.7297112513656723E9, 0.0, 2024-10-24 00:50:51.365
9.0, -46065.42540376489, -48759.70468040761, -40945.19954266543, -53594.40935783498, -52769.02649033386, -45487.45399563957, 17452.286774192664, 43369.670911988134, 0.134, 0.962, 0.108, 192.0, 0.0, 0.0, 0.0, 0.0, 0.0, 0.0, 0.0, 0.0, 0.0, 1.7297112513696017E9, 0.0, 2024-10-24 00:50:51.369
10.0, -46051.85789488052, -48741.46565693208, -40921.21612086488, -53571.63293023502, -52733.50956839437, -45460.40838484864, 17201.477849659666, 43069.30816999771, 0.134, 0.962, 0.108, 192.0, 0.0, 0.0, 0.0, 0.0, 0.0, 0.0, 0.0, 0.0, 0.0, 1.729711251374684E9, 0.0, 2024-10-24 00:50:51.374
11.0, -46035.317603983596, -48720.097389232804, -40903.960574145385, -53550.622290447034, -52720.76907405485, -45436.49201828147, 16866.3804967857, 42705.93586038779, 0.134, 0.962, 0.108, 192.0, 0.0, 0.0, 0.0, 0.0, 0.0, 0.0, 0.0, 0.0, 0.0, 1.729711251378669E9, 0.0, 2024-10-24 00:50:51.378
12.0, -46032.56833941559, -48724.992421268515, -40911.515463771284, -53563.96628188685, -52730.84971080419, -45454.95455920155, 16926.283171925923, 42790.13488175093, 0.134, 0.962, 0.108, 192.0, 0.0, 0.0, 0.0, 0.0, 0.0, 0.0, 0.0, 0.0, 0.0, 1.7297112513816464E9, 0.0, 2024-10-24 00:50:51.381
13.0, -46044.83944712156, -48740.795104598415, -40929.10628665761, -53582.07119489565, -52742.6514318766, -45480.34614090278, 17289.431964091298, 43182.944438808496, 0.134, 0.962, 0.108, 192.0, 0.0, 0.0, 0.0, 0.0, 0.0, 0.0, 0.0, 0.0, 0.0, 1.729711251387782E9, 0.0, 2024-10-24 00:50:51.387
14.0, -46062.05029035214, -48751.97097682607, -40944.90896998751, -53589.022587421256, -52754.96724307147, -45484.92824851612, 17535.99405717779, 43427.56193012738, 0.134, 0.962, 0.108, 192.0, 0.0, 0.0, 0.0, 0.0, 0.0, 0.0, 0.0, 0.0, 0.0, 1.7297112513896272E9, 0.0, 2024-10-24 00:50:51.389
15.0, -46057.64699669445, -48739.07402027536, -40939.63395829606, -53573.756345958274, -52748.10525752369, -45461.66008253814, 17299.55730432955, 43142.64424355558, 0.134, 0.962, 0.108, 192.0, 0.0, 0.0, 0.0, 0.0, 0.0, 0.0, 0.0, 0.0, 0.0, 1.729711251393628E9, 0.0, 2024-10-24 00:50:51.393
16.0, -46031.741324870745, -48712.475444373544, -40916.38814406254, -53550.08584858011, -52714.46588211846, -45432.28989032387, 16971.858378870296, 42791.43128292934, 0.134, 0.962, 0.108, 192.0, 0.0, 0.0, 0.0, 0.0, 0.0, 0.0, 0.0, 0.0, 0.0, 1.729711251397694E9, 0.0, 2024-10-24 00:50:51.397
17.0, -46025.34872595653, -48712.85542402929, -40924.63593776655, -53557.59603471709, -52727.161672969065, -45432.89338742416, 17019.37818758228, 42866.82371697709, 0.134, 0.962, 0.108, 192.0, 0.0, 0.0, 0.0, 0.0, 0.0, 0.0, 0.0, 0.0, 0.0, 1.7297112514026637E9, 0.0, 2024-10-24 00:50:51.402
18.0, -46047.65576692293, -48736.12359000726, -40956.755394548825, -53584.86516295256, -52764.91376935408, -45467.04685295187, 17396.429764798853, 43272.910210241105, 0.138, 0.966, 0.076, 192.0, 4.0, 80.0, 30.0, 48.0, 2.0, 96.0, 0.0, 0.0, 0.0, 1.7297112514067116E9, 0.0, 2024-10-24 00:50:51.406
19.0, -46065.514810742716, -48745.131343022746, -40967.26071444282, -53586.496840297805, -52767.61833043317, -45468.49971634147, 17644.712942208404, 43519.58406204988, 0.138, 0.966, 0.076, 192.0, 0.0, 0.0, 0.0, 0.0, 0.0, 0.0, 0.0, 0.0, 0.0, 1.7297112514096758E9, 0.0, 2024-10-24 00:50:51.409
20.0, -46052.28257802517, -48722.93606077863, -40948.976987478374, -53561.59699697459, -52737.86815856316, -45443.242245106965, 17395.826267698558, 43223.915186395076, 0.138, 0.966, 0.076, 192.0, 0.0, 0.0, 0.0, 0.0, 0.0, 0.0, 0.0, 0.0, 0.0, 1.7297112514139097E9, 0.0, 2024-10-24 00:50:51.413
21.0, -46033.44005744935, -48705.45699661458, -40934.91774021599, -53548.45417123487, -52730.380324170634, -45431.48522752347, 17060.505397380042, 42865.683778009865, 0.138, 0.966, 0.076, 192.0, 0.0, 0.0, 0.0, 0.0, 0.0, 0.0, 0.0, 0.0, 0.0, 1.7297112514177024E9, 0.0, 2024-10-24 00:50:51.417
22.0, -46030.95901381481, -48715.984668253026, -40943.27729264228, -53567.67667146643, -52748.77580985735, -45453.747565000966, 17089.3838512163, 42923.19481649337, 0.138, 0.966, 0.076, 192.0, 0.0, 0.0, 0.0, 0.0, 0.0, 0.0, 0.0, 0.0, 0.0, 1.7297112514216776E9, 0.0, 2024-10-24 00:50:51.421
23.0, -46044.817095377104, -48733.821360328366, -40960.8681155286, -53587.90500019849, -52766.031356576845, -45479.22855368001, 17452.84556780405, 43319.334783474784, 0.138, 0.966, 0.076, 192.0, 0.0, 0.0, 0.0, 0.0, 0.0, 0.0, 0.0, 0.0, 0.0, 1.7297112514256687E9, 0.0, 2024-10-24 00:50:51.425
24.0, -46057.71405192781, -48742.71735462158, -40969.56294412172, -53589.38021533254, -52764.44438272052, -45478.31213215734, 17710.158849973544, 43576.02221679952, 0.138, 0.966, 0.076, 192.0, 0.0, 0.0, 0.0, 0.0, 0.0, 0.0, 0.0, 0.0, 0.0, 1.72971125143075E9, 0.0, 2024-10-24 00:50:51.430
25.0, -46050.78501114667, -48723.316040434365, -40953.55909509172, -53564.65918596497, -52735.32005969525, -45444.53864628538, 17452.82321605959, 43272.59728581873, 0.138, 0.966, 0.076, 192.0, 0.0, 0.0, 0.0, 0.0, 0.0, 0.0, 0.0, 0.0, 0.0, 1.729711251434836E9, 0.0, 2024-10-24 00:50:51.434
26.0, -46034.468237694295, -48708.94386874961, -40938.67283328448, -53549.68351717991, -52719.42796938753, -45424.4220762756, 17141.418712308256, 42937.49993294477, 0.138, 0.966, 0.076, 192.0, 0.0, 0.0, 0.0, 0.0, 0.0, 0.0, 0.0, 0.0, 0.0, 1.7297112514381368E9, 0.0, 2024-10-24 00:50:51.438
27.0, -46025.63929863445, -48714.576508352344, -40940.595083307635, -53562.0440318637, -52735.18594922852, -45443.3763555737, 17197.78981182454, 43023.263576419784, 0.138, 0.966, 0.076, 192.0, 0.0, 0.0, 0.0, 0.0, 0.0, 0.0, 0.0, 0.0, 0.0, 1.7297112514418173E9, 0.0, 2024-10-24 00:50:51.441
28.0, -46035.63052840597, -48730.6027091268, -40956.30835965972, -53580.86420069507, -52755.973071571956, -45467.04685295187, 17562.1455981905, 43419.224729445545, 0.14200000000000002, 0.97, 0.068, 192.0, 4.0, 112.0, 30.0, 80.0, 2.0, 32.0, 0.0, 0.0, 0.0, 1.7297112514456975E9, 0.0, 2024-10-24 00:50:51.445
29.0, -46054.115421070506, -48743.36555521078, -40963.527973118784, -53586.161564130976, -52754.74372562692, -45471.65131230967, 17785.66304274357, 43640.23877861963, 0.14200000000000002, 0.97, 0.068, 192.0, 0.0, 0.0, 0.0, 0.0, 0.0, 0.0, 0.0, 0.0, 0.0, 1.729711251449731E9, 0.0, 2024-10-24 00:50:51.449
30.0, -46040.07852555258, -48724.14305497921, -40938.38226060656, -53561.6417004635, -52722.91484152256, -45440.71649798352, 17520.437243036897, 43328.61075742373, 0.14200000000000002, 0.97, 0.068, 192.0, 0.0, 0.0, 0.0, 0.0, 0.0, 0.0, 0.0, 0.0, 0.0, 1.729711251454361E9, 0.0, 2024-10-24 00:50:51.454
31.0, -46026.95805155731, -48713.816549040865, -40923.67481275497, -53551.00227010278, -52709.5932018272, -45432.0216693904, 17204.31652120549, 42988.41720681396, 0.14200000000000002, 0.97, 0.068, 192.0, 0.0, 0.0, 0.0, 0.0, 0.0, 0.0, 0.0, 0.0, 0.0, 1.7297112514577324E9, 0.0, 2024-10-24 00:50:51.457
32.0, -46019.9619555428, -48724.05364800139, -40929.77683899127, -53568.28016856673, -52724.501815378884, -45455.267483623924, 17263.839216689972, 43076.57248694569, 0.14200000000000002, 0.97, 0.068, 192.0, 0.0, 0.0, 0.0, 0.0, 0.0, 0.0, 0.0, 0.0, 0.0, 1.7297112514627995E9, 0.0, 2024-10-24 00:50:51.462
33.0, -46028.09799052453, -48738.51522666398, -40947.30060664423, -53586.005101919785, -52748.03820229032, -45476.41223387864, 17642.321305551686, 43485.452948266626, 0.14200000000000002, 0.97, 0.068, 192.0, 0.0, 0.0, 0.0, 0.0, 0.0, 0.0, 0.0, 0.0, 0.0, 1.72971125146676E9, 0.0, 2024-10-24 00:50:51.466
34.0, -46054.0707175816, -48752.7085843931, -40966.34429292015, -53591.07894791114, -52760.48812395193, -45476.85926876775, 17893.8231341628, 43736.59714896645, 0.14200000000000002, 0.97, 0.068, 192.0, 0.0, 0.0, 0.0, 0.0, 0.0, 0.0, 0.0, 0.0, 0.0, 1.7297112514706004E9, 0.0, 2024-10-24 00:50:51.470
35.0, -46048.236912278764, -48735.78831384043, -40954.363757892104, -53568.92836915593, -52736.392943429106, -45450.7747829884, 17633.984104869854, 43430.78058132894, 0.14200000000000002, 0.97, 0.068, 192.0, 0.0, 0.0, 0.0, 0.0, 0.0, 0.0, 0.0, 0.0, 0.0, 1.7297112514737823E9, 0.0, 2024-10-24 00:50:51.473
36.0, -46025.28167072316, -48709.21208968307, -40934.89538847153, -53544.45320897737, -52713.01301872886, -45423.93033789758, 17310.934342257304, 43084.641466694055, 0.14200000000000002, 0.97, 0.068, 192.0, 0.0, 0.0, 0.0, 0.0, 0.0, 0.0, 0.0, 0.0, 0.0, 1.729711251477779E9, 0.0, 2024-10-24 00:50:51.477
37.0, -46019.42551367587, -48709.52501410544, -40944.305472887216, -53554.958528871364, -52732.615498616164, -45437.98958515997, 17355.928403845835, 43156.77054605133, 0.14200000000000002, 0.97, 0.068, 192.0, 0.0, 0.0, 0.0, 0.0, 0.0, 0.0, 0.0, 0.0, 0.0, 1.729711251481784E9, 0.0, 2024-10-24 00:50:51.481
38.0, -46038.02216506269, -48735.22952022905, -40976.35787443613, -53585.82628796414, -52765.74078389893, -45475.22759142251, 17746.56984169124, 43577.162155766746, 0.146, 0.97, 0.058, 192.0, 4.0, 144.0, 30.0, 80.0, 1.0, 208.0, 0.0, 0.0, 0.0, 1.7297112514878435E9, 0.0, 2024-10-24 00:50:51.487
39.0, -46054.62951119298, -48746.00306105651, -40990.88650833208, -53591.682445011436, -52775.687310181536, -45479.40736763566, 18009.6498739302, 43839.325766483045, 0.146, 0.97, 0.058, 192.0, 0.0, 0.0, 0.0, 0.0, 0.0, 0.0, 0.0, 0.0, 0.0, 1.729711251490775E9, 0.0, 2024-10-24 00:50:51.490
40.0, -46039.54208368565, -48720.74558982201, -40965.31611267521, -53562.2899010527, -52735.63298411763, -45441.767029972914, 17737.539736931292, 43522.199216151144, 0.146, 0.97, 0.058, 192.0, 0.0, 0.0, 0.0, 0.0, 0.0, 0.0, 0.0, 0.0, 0.0, 1.7297112514937935E9, 0.0, 2024-10-24 00:50:51.493
41.0, -46022.84533057753, -48700.71842679005, -40946.42888861047, -53543.46973222134, -52715.00232398538, -45421.94103264106, 17412.031282428656, 43174.42842417103, 0.146, 0.97, 0.058, 192.0, 0.0, 0.0, 0.0, 0.0, 0.0, 0.0, 0.0, 0.0, 0.0, 1.729711251497766E9, 0.0, 2024-10-24 00:50:51.497
42.0, -46014.39637117343, -48720.7008863331, -40948.03821421125, -53553.72918292632, -52729.687420092516, -45439.75537297194, 17477.32072798261, 43270.89855324013, 0.146, 0.97, 0.058, 192.0, 0.0, 0.0, 0.0, 0.0, 0.0, 0.0, 0.0, 0.0, 0.0, 1.7297112515020003E9, 0.0, 2024-10-24 00:50:51.502
43.0, -46037.23985400675, -48772.199305558126, -40976.939019791964, -53587.56972403166, -52765.472562965464, -45478.78151879091, 17872.656032163624, 43698.95681130372, 0.146, 0.97, 0.058, 192.0, 0.0, 0.0, 0.0, 0.0, 0.0, 0.0, 0.0, 0.0, 0.0, 1.7297112515057771E9, 0.0, 2024-10-24 00:50:51.505
44.0, -46042.090182553555, -48781.60938997381, -40976.91666804751, -53584.61929376356, -52755.66014714958, -45472.07599545432, 18120.961561317632, 43946.05534625713, 0.146, 0.97, 0.058, 192.0, 0.0, 0.0, 0.0, 0.0, 0.0, 0.0, 0.0, 0.0, 0.0, 1.7297112515098755E9, 0.0, 2024-10-24 00:50:51.509
45.0, -46028.790894602644, -48760.64345367473, -40952.91089450251, -53556.83607540561, -52726.334658424224, -45439.688317738575, 17856.607479644714, 43637.78008672954, 0.146, 0.97, 0.058, 192.0, 0.0, 0.0, 0.0, 0.0, 0.0, 0.0, 0.0, 0.0, 0.0, 1.7297112515137854E9, 0.0, 2024-10-24 00:50:51.513
46.0, -46010.37305717148, -48742.00209879901, -40935.565940805194, -53538.664107163444, -52710.95665823897, -45415.97311687149, 17535.88229845551, 43295.083140740775, 0.146, 0.97, 0.058, 192.0, 0.0, 0.0, 0.0, 0.0, 0.0, 0.0, 0.0, 0.0, 0.0, 1.729711251518825E9, 0.0, 2024-10-24 00:50:51.518
47.0, -45997.61021108749, -48743.27614823296, -40935.74475476083, -53547.04601133418, -52727.27343169134, -45425.763180942915, 17569.499322116295, 43360.506696761455, 0.146, 0.97, 0.058, 192.0, 0.0, 0.0, 0.0, 0.0, 0.0, 0.0, 0.0, 0.0, 0.0, 1.729711251521815E9, 0.0, 2024-10-24 00:50:51.521
48.0, -46007.91436528139, -48760.77756414146, -40945.53481883226, -53563.631005720024, -52745.22188248896, -45444.51629454092, 17939.666562040635, 43763.08396614599, 0.14400000000000002, 0.974, 0.06, 192.0, 4.0, 128.0, 30.0, 112.0, 1.0, 224.0, 0.0, 0.0, 0.0, 1.7297112515248463E9, 0.0, 2024-10-24 00:50:51.524
49.0, -46027.9638800578, -48771.99813985803, -40952.2179904244, -53567.27434006624, -52742.6514318766, -45447.734945742486, 18188.955567950674, 44011.70241972237, 0.14400000000000002, 0.974, 0.06, 192.0, 0.0, 0.0, 0.0, 0.0, 0.0, 0.0, 0.0, 0.0, 0.0, 1.7297112515297923E9, 0.0, 2024-10-24 00:50:51.529
50.0, -46018.48674040875, -48754.921407094174, -40931.38616459205, -53545.21316828885, -52715.00232398538, -45422.723343697, 17929.652980524657, 43707.539881174554, 0.14400000000000002, 0.974, 0.06, 192.0, 0.0, 0.0, 0.0, 0.0, 0.0, 0.0, 0.0, 0.0, 0.0, 1.7297112515337908E9, 0.0, 2024-10-24 00:50:51.533
51.0, -46003.779292557156, -48741.82328484336, -40917.5057312853, -53533.09852279408, -52701.725387778926, -45410.69810518004, 17612.302912748208, 43366.36285380874, 0.14400000000000002, 0.974, 0.06, 192.0, 0.0, 0.0, 0.0, 0.0, 0.0, 0.0, 0.0, 0.0, 0.0, 1.729711251537805E9, 0.0, 2024-10-24 00:50:51.537
52.0, -45993.40808312989, -48743.16438951068, -40922.490170298835, -53546.286052022704, -52722.19958569999, -45432.2228350905, 17673.16671290001, 43456.3062734969, 0.14400000000000002, 0.974, 0.06, 192.0, 0.0, 0.0, 0.0, 0.0, 0.0, 0.0, 0.0, 0.0, 0.0, 1.7297112515418267E9, 0.0, 2024-10-24 00:50:51.541
53.0, -46014.01639151769, -48764.97969209906, -40945.62422581008, -53572.594055246605, -52742.606728387684, -45459.08963192578, 18048.72072323808, 43862.34806327201, 0.14400000000000002, 0.974, 0.06, 192.0, 0.0, 0.0, 0.0, 0.0, 0.0, 0.0, 0.0, 0.0, 0.0, 1.7297112515468335E9, 0.0, 2024-10-24 00:50:51.546
54.0, -46028.388563202454, -48774.97092187058, -40956.15189744853, -53579.3442820721, -52744.73014411094, -45461.61537904923, 18295.39457504685, 44106.87614761307, 0.14400000000000002, 0.974, 0.06, 192.0, 0.0, 0.0, 0.0, 0.0, 0.0, 0.0, 0.0, 0.0, 0.0, 1.729711251549841E9, 0.0, 2024-10-24 00:50:51.549
55.0, -46019.649031120425, -48758.005947829006, -40942.427926352975, -53560.81468591865, -52722.93719326701, -45442.191713117565, 18051.939374439644, 43817.17518772784, 0.14400000000000002, 0.974, 0.06, 192.0, 0.0, 0.0, 0.0, 0.0, 0.0, 0.0, 0.0, 0.0, 0.0, 1.7297112515538275E9, 0.0, 2024-10-24 00:50:51.553
56.0, -46001.611173344994, -48739.11872376427, -40926.31231860069, -53541.39101998699, -52702.50769883487, -45423.32684079729, 17749.207347536965, 43491.04088438045, 0.14400000000000002, 0.974, 0.06, 192.0, 0.0, 0.0, 0.0, 0.0, 0.0, 0.0, 0.0, 0.0, 0.0, 1.7297112515578852E9, 0.0, 2024-10-24 00:50:51.557
57.0, -45996.44792037582, -48741.10802902079, -40936.19178964994, -53552.00809860326, -52717.81864378675, -45436.06733513682, 17810.96521746698, 43583.19712676968, 0.14400000000000002, 0.974, 0.06, 192.0, 0.0, 0.0, 0.0, 0.0, 0.0, 0.0, 0.0, 0.0, 0.0, 1.729711251563892E9, 0.0, 2024-10-24 00:50:51.563
58.0, -46005.165100713384, -48751.94862508162, -40957.314188160206, -53567.67667146643, -52750.67570813605, -45451.51239055543, 18175.723335233135, 43977.258381516745, 0.146, 0.97, 0.058, 192.0, 4.0, 144.0, 30.0, 80.0, 1.0, 208.0, 0.0, 0.0, 0.0, 1.7297112515668468E9, 0.0, 2024-10-24 00:50:51.566
59.0, -46032.43422894886, -48772.9145613807, -40976.08965350266, -53580.3948140615, -52757.31417623928, -45462.42004184962, 18421.927800408343, 44222.36761121364, 0.146, 0.97, 0.058, 192.0, 0.0, 0.0, 0.0, 0.0, 0.0, 0.0, 0.0, 0.0, 0.0, 1.7297112515708773E9, 0.0, 2024-10-24 00:50:51.570
60.0, -46024.94639455633, -48755.03316581645, -40959.66112132801, -53553.907996881964, -52723.65244908958, -45426.813712932315, 18170.425971797227, 43928.97861349328, 0.146, 0.97, 0.058, 192.0, 0.0, 0.0, 0.0, 0.0, 0.0, 0.0, 0.0, 0.0, 0.0, 1.729711251573888E9, 0.0, 2024-10-24 00:50:51.573
61.0, -46005.50037688022, -48734.55896789539, -40943.34434787564, -53537.54651994068, -52708.05093145978, -45414.028515103884, 17834.255735189407, 43571.23894348609, 0.146, 0.97, 0.058, 192.0, 0.0, 0.0, 0.0, 0.0, 0.0, 0.0, 0.0, 0.0, 0.0, 1.7297112515778716E9, 0.0, 2024-10-24 00:50:51.577
62.0, -45989.22830691675, -48735.564796395876, -40942.74085077534, -53548.02948809022, -52724.7476845679, -45432.066372879315, 17892.25851205093, 43659.75185152911, 0.146, 0.97, 0.058, 192.0, 0.0, 0.0, 0.0, 0.0, 0.0, 0.0, 0.0, 0.0, 0.0, 1.7297112515818715E9, 0.0, 2024-10-24 00:50:51.581
63.0, -46009.2107664598, -48760.48699146354, -40966.27723768679, -53574.38219480302, -52756.08483029423, -45462.80002150536, 18281.24592080664, 44080.09875775561, 0.146, 0.97, 0.058, 192.0, 0.0, 0.0, 0.0, 0.0, 0.0, 0.0, 0.0, 0.0, 0.0, 1.7297112515860932E9, 0.0, 2024-10-24 00:50:51.586
64.0, -46029.41674344739, -48770.32175902388, -40973.85447905713, -53578.02552914924, -52755.57074017177, -45469.4831930975, 18531.56310696162, 44327.89019678714, 0.146, 0.97, 0.058, 192.0, 0.0, 0.0, 0.0, 0.0, 0.0, 0.0, 0.0, 0.0, 0.0, 1.7297112515909019E9, 0.0, 2024-10-24 00:50:51.590
65.0, -46019.62667937597, -48750.54046518093, -40951.30156890173, -53551.76222941426, -52726.133492724126, -45440.00124216095, 18287.549112743036, 44039.329175869134, 0.146, 0.97, 0.058, 192.0, 0.0, 0.0, 0.0, 0.0, 0.0, 0.0, 0.0, 0.0, 0.0, 1.729711251593861E9, 0.0, 2024-10-24 00:50:51.593
66.0, -45994.45861511929, -48726.22176721356, -40929.30745235771, -53526.6835721354, -52705.72635003643, -45405.914831866605, 17970.154341477675, 43698.82270083699, 0.146, 0.97, 0.058, 192.0, 0.0, 0.0, 0.0, 0.0, 0.0, 0.0, 0.0, 0.0, 0.0, 1.729711251597884E9, 0.0, 2024-10-24 00:50:51.597
67.0, -45979.70646377879, -48727.808741069886, -40929.978004691366, -53537.54651994068, -52724.7476845679, -45423.19273033056, 18045.993810414533, 43803.85354803247, 0.146, 0.97, 0.058, 192.0, 0.0, 0.0, 0.0, 0.0, 0.0, 0.0, 0.0, 0.0, 0.0, 1.7297112516019309E9, 0.0, 2024-10-24 00:50:51.601
68.0, -45999.018370988175, -48751.6580524037, -40954.14024044755, -53565.55325574318, -52751.65918489209, -45453.85932372324, 18418.5973904845, 44207.101369750664, 0.15, 0.962, 0.06, 192.0, 4.0, 176.0, 30.0, 16.0, 1.0, 224.0, 0.0, 0.0, 0.0, 1.729711251607031E9, 0.0, 2024-10-24 00:50:51.607
69.0, -46014.99986827372, -48757.00011932851, -40957.85063002713, -53564.65918596497, -52743.031411532334, -45450.28304461039, 18670.70271619591, 44456.5915413608, 0.15, 0.962, 0.06, 192.0, 0.0, 0.0, 0.0, 0.0, 0.0, 0.0, 0.0, 0.0, 0.0, 1.7297112516109793E9, 0.0, 2024-10-24 00:50:51.610
70.0, -46001.857042534, -48733.41902892817, -40931.54262680324, -53534.6854966504, -52709.704960549476, -45417.04600060535, 18436.769358726666, 44177.664122303024, 0.15, 0.962, 0.06, 192.0, 0.0, 0.0, 0.0, 0.0, 0.0, 0.0, 0.0, 0.0, 0.0, 1.7297112516140754E9, 0.0, 2024-10-24 00:50:51.614
71.0, -45983.28274289164, -48714.77767405244, -40912.65540273851, -53514.97125804082, -52690.28129461781, -45393.17433752708, 18100.889694796766, 43819.455065662274, 0.15, 0.962, 0.06, 192.0, 0.0, 0.0, 0.0, 0.0, 0.0, 0.0, 0.0, 0.0, 0.0, 1.7297112516189082E9, 0.0, 2024-10-24 00:50:51.618
72.0, -45968.93292295133, -48718.26454618747, -40913.66123123899, -53527.44353144688, -52708.073283204234, -45414.25203254844, 18161.127646103818, 43910.761941762205, 0.15, 0.962, 0.06, 192.0, 0.0, 0.0, 0.0, 0.0, 0.0, 0.0, 0.0, 0.0, 0.0, 1.7297112516219852E9, 0.0, 2024-10-24 00:50:51.621
73.0, -45983.215687658274, -48737.84467433032, -40937.443487339435, -53550.39877300248, -52735.72239109545, -45440.4259253056, 18530.400816249945, 44309.71822854498, 0.15, 0.962, 0.06, 192.0, 0.0, 0.0, 0.0, 0.0, 0.0, 0.0, 0.0, 0.0, 0.0, 1.7297112516250095E9, 0.0, 2024-10-24 00:50:51.625
74.0, -46006.573260614074, -48747.34416572382, -40951.27921715727, -53555.18204631592, -52741.06445802027, -45445.052736407844, 18757.785112593785, 44532.92274867568, 0.15, 0.962, 0.06, 192.0, 0.0, 0.0, 0.0, 0.0, 0.0, 0.0, 0.0, 0.0, 0.0, 1.7297112516299727E9, 0.0, 2024-10-24 00:50:51.629
75.0, -46000.091254722036, -48726.15471198019, -40933.68839427095, -53532.807950116156, -52710.19669892749, -45420.35405878473, 18496.314405955603, 44227.21793976044, 0.15, 0.962, 0.06, 192.0, 0.0, 0.0, 0.0, 0.0, 0.0, 0.0, 0.0, 0.0, 0.0, 1.7297112516339421E9, 0.0, 2024-10-24 00:50:51.633
76.0, -45988.37894062745, -48711.35785715078, -40922.89250169903, -53521.766188355235, -52696.65154178757, -45409.89344237965, 18176.17037012224, 43886.19737460582, 0.15, 0.962, 0.06, 192.0, 0.0, 0.0, 0.0, 0.0, 0.0, 0.0, 0.0, 0.0, 0.0, 1.72971125163798E9, 0.0, 2024-10-24 00:50:51.637
77.0, -45971.32455960805, -48710.195566439106, -40924.0100889218, -53532.807950116156, -52715.71757980795, -45428.93712865557, 18255.13908328284, 43997.732579437805, 0.15, 0.962, 0.06, 192.0, 0.0, 0.0, 0.0, 0.0, 0.0, 0.0, 0.0, 0.0, 0.0, 1.729711251641955E9, 0.0, 2024-10-24 00:50:51.641
78.0, -45990.077673206055, -48731.921462049664, -40953.22381892488, -53561.79816267469, -52750.92157732506, -45465.86221049574, 18633.91174482247, 44407.7306279815, 0.146, 0.966, 0.054, 192.0, 4.0, 144.0, 30.0, 48.0, 1.0, 176.0, 0.0, 0.0, 0.0, 1.7297112516460772E9, 0.0, 2024-10-24 00:50:51.646
79.0, -46011.71416183879, -48739.78927609793, -40965.60668535312, -53565.77677318773, -52750.8992255806, -45462.15182091616, 18868.985041258937, 44640.613453461345, 0.146, 0.966, 0.054, 192.0, 0.0, 0.0, 0.0, 0.0, 0.0, 0.0, 0.0, 0.0, 0.0, 1.7297112516499505E9, 0.0, 2024-10-24 00:50:51.649
80.0, -46001.99115300073, -48717.07990373134, -40945.13248743206, -53539.78169438621, -52714.84586177419, -45425.83023617628, 18621.30536094968, 44350.51016217592, 0.146, 0.966, 0.054, 192.0, 0.0, 0.0, 0.0, 0.0, 0.0, 0.0, 0.0, 0.0, 0.0, 1.729711251652954E9, 0.0, 2024-10-24 00:50:51.652
81.0, -45982.031045202144, -48699.39967386719, -40925.79822847823, -53523.97901105631, -52692.71763476344, -45411.61452670271, 18301.228380349683, 44009.17667259892, 0.146, 0.966, 0.054, 192.0, 0.0, 0.0, 0.0, 0.0, 0.0, 0.0, 0.0, 0.0, 0.0, 1.7297112516580772E9, 0.0, 2024-10-24 00:50:51.658
82.0, -45965.24488511621, -48699.17615642264, -40922.5125220433, -53533.232633260806, -52710.19669892749, -45425.71847745401, 18376.330241719515, 44114.07340932768, 0.146, 0.966, 0.054, 192.0, 0.0, 0.0, 0.0, 0.0, 0.0, 0.0, 0.0, 0.0, 0.0, 1.7297112516620257E9, 0.0, 2024-10-24 00:50:51.662
83.0, -45981.29343763512, -48721.68436308913, -40944.797211265235, -53557.01488936125, -52740.08098126423, -45449.23251262099, 18767.70928713194, 44535.06851614339, 0.146, 0.966, 0.054, 192.0, 0.0, 0.0, 0.0, 0.0, 0.0, 0.0, 0.0, 0.0, 0.0, 1.729711251669078E9, 0.0, 2024-10-24 00:50:51.669
84.0, -46005.07569373557, -48734.871892317766, -40958.47647887188, -53561.28407255222, -52743.63490863263, -45453.90402721215, 18998.446345144075, 44760.19528629724, 0.146, 0.966, 0.054, 192.0, 0.0, 0.0, 0.0, 0.0, 0.0, 0.0, 0.0, 0.0, 0.0, 1.729711251673063E9, 0.0, 2024-10-24 00:50:51.673
85.0, -45995.91147850889, -48719.2480229435, -40938.069336184184, -53537.52416819622, -52715.225841429936, -45428.31127981082, 18733.645228582052, 44449.57309360184, 0.146, 0.966, 0.054, 192.0, 0.0, 0.0, 0.0, 0.0, 0.0, 0.0, 0.0, 0.0, 0.0, 1.7297112516761997E9, 0.0, 2024-10-24 00:50:51.676
86.0, -45976.77838525515, -48704.20529892508, -40921.305527842705, -53520.93917381039, -52702.910030235056, -45406.18305280007, 18424.051216131596, 44118.83433089666, 0.146, 0.966, 0.054, 192.0, 0.0, 0.0, 0.0, 0.0, 0.0, 0.0, 0.0, 0.0, 0.0, 1.7297112516792004E9, 0.0, 2024-10-24 00:50:51.679
87.0, -45962.13799263692, -48706.93221174863, -40918.019821407775, -53528.337601225096, -52710.08494020521, -45415.66019244912, 18508.38434796147, 44237.36563174315, 0.146, 0.966, 0.054, 192.0, 0.0, 0.0, 0.0, 0.0, 0.0, 0.0, 0.0, 0.0, 0.0, 1.7297112516830504E9, 0.0, 2024-10-24 00:50:51.683
88.0, -45975.258466632185, -48722.26550844497, -40931.363812847594, -53543.35797349906, -52724.1441874676, -45430.61350948972, 18864.604099345695, 44625.4813224651, 0.146, 0.966, 0.054, 192.0, 0.0, 0.0, 0.0, 0.0, 0.0, 0.0, 0.0, 0.0, 0.0, 1.7297112516860585E9, 0.0, 2024-10-24 00:50:51.686
89.0, -46002.5052431232, -48737.934081308136, -40944.84191475414, -53553.32685152613, -52728.48042589193, -45441.40940206163, 19090.423773577666, 44845.60130186097, 0.152, 0.964, 0.056, 192.0, 4.0, 192.0, 30.0, 32.0, 1.0, 192.0, 0.0, 0.0, 0.0, 1.729711251690079E9, 0.0, 2024-10-24 00:50:51.690
90.0, -45989.8541557615, -48721.30438343339, -40925.082972655655, -53533.74672338328, -52708.00622797087, -45418.38710527267, 18824.549773281786, 44533.727411476066, 0.152, 0.964, 0.056, 192.0, 0.0, 0.0, 0.0, 0.0, 0.0, 0.0, 0.0, 0.0, 0.0, 1.729711251693046E9, 0.0, 2024-10-24 00:50:51.693
91.0, -45976.68897827733, -48707.98274373803, -40912.09660912712, -53522.83907208909, -52697.031521443314, -45402.38325624267, 18513.011159063717, 44198.8312243022, 0.152, 0.964, 0.056, 192.0, 0.0, 0.0, 0.0, 0.0, 0.0, 0.0, 0.0, 0.0, 0.0, 1.7297112516970935E9, 0.0, 2024-10-24 00:50:51.697
92.0, -45965.28958860512, -48715.38117115274, -40919.65149875302, -53538.08296180761, -52721.77490255534, -45417.64949770564, 18624.993398784805, 44342.61999638319, 0.152, 0.964, 0.056, 192.0, 0.0, 0.0, 0.0, 0.0, 0.0, 0.0, 0.0, 0.0, 0.0, 1.7297112517021568E9, 0.0, 2024-10-24 00:50:51.702
93.0, -45976.39840559941, -48737.91172956368, -40939.47749608487, -53562.84869466409, -52742.85259757669, -45444.158666629635, 19023.212078000557, 44772.131117836376, 0.152, 0.964, 0.056, 192.0, 0.0, 0.0, 0.0, 0.0, 0.0, 0.0, 0.0, 0.0, 0.0, 1.729711251706099E9, 0.0, 2024-10-24 00:50:51.706
94.0, -45999.84538553302, -48750.74163088103, -40947.43471711096, -53567.56491274416, -52735.968260284455, -45444.69510849656, 19246.66246732026, 44990.462957675816, 0.152, 0.964, 0.056, 192.0, 0.0, 0.0, 0.0, 0.0, 0.0, 0.0, 0.0, 0.0, 0.0, 1.7297112517101731E9, 0.0, 2024-10-24 00:50:51.710
95.0, -45987.3060568936, -48727.96520328107, -40924.926510444464, -53541.90511010947, -52702.552402323774, -45417.96242212802, 18961.454208070543, 44661.98172116062, 0.152, 0.964, 0.056, 192.0, 0.0, 0.0, 0.0, 0.0, 0.0, 0.0, 0.0, 0.0, 0.0, 1.7297112517142048E9, 0.0, 2024-10-24 00:50:51.714
96.0, -45965.893085705415, -48704.0488367139, -40905.368734046075, -53522.97318255582, -52679.95478867946, -45397.68938990705, 18632.950619810894, 44313.60743208021, 0.152, 0.964, 0.056, 192.0, 0.0, 0.0, 0.0, 0.0, 0.0, 0.0, 0.0, 0.0, 0.0, 1.7297112517182152E9, 0.0, 2024-10-24 00:50:51.718
97.0, -45961.623902514446, -48715.895261275204, -40920.07618189767, -53544.140284555, -52706.59806807018, -45417.85066340574, 18747.65977235553, 44462.29123619691, 0.152, 0.964, 0.056, 192.0, 0.0, 0.0, 0.0, 0.0, 0.0, 0.0, 0.0, 0.0, 0.0, 1.729711251721097E9, 0.0, 2024-10-24 00:50:51.721
98.0, -45975.63844628793, -48737.21882548557, -40943.52316183128, -53569.80008718969, -52736.23648121792, -45444.82921896329, 19124.890163527747, 44871.88695334041, 0.152, 0.964, 0.056, 192.0, 0.0, 0.0, 0.0, 0.0, 0.0, 0.0, 0.0, 0.0, 0.0, 1.7297112517252345E9, 0.0, 2024-10-24 00:50:51.725
99.0, -45993.229269174255, -48746.62890990126, -40950.1169264456, -53573.37636630254, -52731.497911393395, -45448.629015520695, 19367.227776912187, 45111.251784712294, 0.154, 0.962, 0.054, 192.0, 4.0, 208.0, 30.0, 16.0, 1.0, 176.0, 0.0, 0.0, 0.0, 1.7297112517303631E9, 0.0, 2024-10-24 00:50:51.730
100.0, -45983.32744638055, -48727.49581664751, -40931.11794365859, -53551.404601502974, -52703.66998954654, -45426.34432629876, 19087.898026454215, 44791.30891457903, 0.154, 0.962, 0.054, 192.0, 0.0, 0.0, 0.0, 0.0, 0.0, 0.0, 0.0, 0.0, 0.0, 1.7297112517341175E9, 0.0, 2024-10-24 00:50:51.734
101.0, -45960.930998436335, -48702.81949076885, -40909.59321374813, -53529.32107798113, -52680.55828577975, -45403.947878354535, 18755.840510826172, 44440.5876923308, 0.154, 0.962, 0.054, 192.0, 0.0, 0.0, 0.0, 0.0, 0.0, 0.0, 0.0, 0.0, 0.0, 1.72971125173814E9, 0.0, 2024-10-24 00:50:51.738
102.0, -45954.58310301103, -48705.278182658934, -40919.47268479737, -53543.06740082114, -52707.22391691493, -45422.27630880789, 18842.58763105722, 44562.40469961223, 0.154, 0.962, 0.054, 192.0, 0.0, 0.0, 0.0, 0.0, 0.0, 0.0, 0.0, 0.0, 0.0, 1.7297112517421155E9, 0.0, 2024-10-24 00:50:51.742
103.0, -45972.28568461963, -48724.16540672367, -40941.13152517456, -53565.374441787535, -52731.69907709349, -45449.16545738762, 19224.020150187036, 44976.98485576926, 0.154, 0.962, 0.054, 192.0, 0.0, 0.0, 0.0, 0.0, 0.0, 0.0, 0.0, 0.0, 0.0, 1.7297112517461088E9, 0.0, 2024-10-24 00:50:51.746
104.0, -45989.89885925041, -48732.9496422946, -40947.14414443304, -53567.184933088414, -52728.68159159203, -45454.149896401155, 19459.9428129128, 45211.90168999454, 0.154, 0.962, 0.054, 192.0, 0.0, 0.0, 0.0, 0.0, 0.0, 0.0, 0.0, 0.0, 0.0, 1.729711251750142E9, 0.0, 2024-10-24 00:50:51.750
105.0, -45982.99217021372, -48714.21888044106, -40930.00035643582, -53544.07322932163, -52708.47561460443, -45429.674736222594, 19187.542103235974, 44900.608944965476, 0.154, 0.962, 0.054, 192.0, 0.0, 0.0, 0.0, 0.0, 0.0, 0.0, 0.0, 0.0, 0.0, 1.7297112517541564E9, 0.0, 2024-10-24 00:50:51.754
106.0, -45965.35664383849, -48694.83991799831, -40913.37065856107, -53522.794368600174, -52694.438719086495, -45402.562070198306, 18869.365020914676, 44564.99750196904, 0.154, 0.962, 0.054, 192.0, 0.0, 0.0, 0.0, 0.0, 0.0, 0.0, 0.0, 0.0, 0.0, 1.7297112517581499E9, 0.0, 2024-10-24 00:50:51.758
107.0, -45953.3984605549, -48698.013865710964, -40917.304565585204, -53534.26081350575, -52710.19669892749, -45421.002259373934, 18974.865254743727, 44706.70756181569, 0.154, 0.962, 0.054, 192.0, 0.0, 0.0, 0.0, 0.0, 0.0, 0.0, 0.0, 0.0, 0.0, 1.7297112517622337E9, 0.0, 2024-10-24 00:50:51.762
108.0, -45960.86394320297, -48709.748531549994, -40928.212216879394, -53548.65533693497, -52724.45711188998, -45446.23737886398, 19368.658288557326, 45134.27408150126, 0.154, 0.962, 0.054, 192.0, 0.0, 0.0, 0.0, 0.0, 0.0, 0.0, 0.0, 0.0, 0.0, 1.7297112517651331E9, 0.0, 2024-10-24 00:50:51.765
109.0, -45983.86388824748, -48714.62121184125, -40937.37643210607, -53546.53192121172, -52727.586356113716, -45437.2743293374, 19579.546997493148, 45345.05103171481, 0.154, 0.97, 0.054, 192.0, 4.0, 208.0, 30.0, 80.0, 1.0, 176.0, 0.0, 0.0, 0.0, 1.7297112517713892E9, 0.0, 2024-10-24 00:50:51.771
110.0, -45976.68897827733, -48695.979856965525, -40921.640804009534, -53523.286106978194, -52703.737044779904, -45404.4172649881, 19289.62252016336, 45015.98864984377, 0.154, 0.97, 0.054, 192.0, 0.0, 0.0, 0.0, 0.0, 0.0, 0.0, 0.0, 0.0, 0.0, 1.7297112517741673E9, 0.0, 2024-10-24 00:50:51.774
111.0, -45963.76966998216, -48678.76901373494, -40909.52615851476, -53511.39497892797, -52690.19188763999, -45396.46004396201, 18968.539711062876, 44675.146898644794, 0.154, 0.97, 0.054, 192.0, 0.0, 0.0, 0.0, 0.0, 0.0, 0.0, 0.0, 0.0, 0.0, 1.729711251778155E9, 0.0, 2024-10-24 00:50:51.778
112.0, -45953.510219277174, -48685.87686847173, -40916.81282720719, -53528.40465645846, -52709.07911170473, -45420.46581750701, 19078.53264552744, 44822.75781902765, 0.154, 0.97, 0.054, 192.0, 0.0, 0.0, 0.0, 0.0, 0.0, 0.0, 0.0, 0.0, 0.0, 1.7297112517821813E9, 0.0, 2024-10-24 00:50:51.782
113.0, -45960.10398389149, -48701.56779307935, -40929.32980410216, -53546.6883834229, -52724.70298107898, -45441.297643339356, 19481.020507934154, 45263.91419934204, 0.154, 0.97, 0.054, 192.0, 0.0, 0.0, 0.0, 0.0, 0.0, 0.0, 0.0, 0.0, 0.0, 1.729711251786378E9, 0.0, 2024-10-24 00:50:51.786
114.0, -45986.501394093204, -48714.84472928581, -40943.54551357574, -53552.03045034772, -52727.25107994689, -45438.011936904426, 19700.46993499636, 45486.20229795007, 0.154, 0.97, 0.054, 192.0, 0.0, 0.0, 0.0, 0.0, 0.0, 0.0, 0.0, 0.0, 0.0, 1.729711251790213E9, 0.0, 2024-10-24 00:50:51.790
115.0, -45977.985379455735, -48697.5444790774, -40924.457123810906, -53532.02563906022, -52700.1384139226, -45415.19080581556, 19419.97789382671, 45168.159326095505, 0.154, 0.97, 0.054, 192.0, 0.0, 0.0, 0.0, 0.0, 0.0, 0.0, 0.0, 0.0, 0.0, 1.7297112517932038E9, 0.0, 2024-10-24 00:50:51.793
116.0, -45959.947521680304, -48675.863286955755, -40903.44648402292, -53511.57379288362, -52678.68073924551, -45385.41828220109, 19073.168226858168, 44803.49061530717, 0.154, 0.97, 0.054, 192.0, 0.0, 0.0, 0.0, 0.0, 0.0, 0.0, 0.0, 0.0, 0.0, 1.7297112517972016E9, 0.0, 2024-10-24 00:50:51.797
117.0, -45946.938806407314, -48681.20535388057, -40908.90030967001, -53529.49989193677, -52707.51448959285, -45410.07225633529, 19180.32248977691, 44945.37948910946, 0.154, 0.97, 0.054, 192.0, 0.0, 0.0, 0.0, 0.0, 0.0, 0.0, 0.0, 0.0, 0.0, 1.7297112518021913E9, 0.0, 2024-10-24 00:50:51.802
118.0, -45959.76870772466, -48702.350104135294, -40926.98287093436, -53554.91382538246, -52730.26856544836, -45441.81173346183, 19579.144666092954, 45381.238505987945, 0.154, 0.97, 0.054, 192.0, 0.0, 0.0, 0.0, 0.0, 0.0, 0.0, 0.0, 0.0, 0.0, 1.7297112518063066E9, 0.0, 2024-10-24 00:50:51.806
119.0, -45983.61801905847, -48713.21305194057, -40935.990623949845, -53556.41139226096, -52719.405617643075, -45439.80007646085, 19786.85942731612, 45593.15539516871, 0.146, 0.968, 0.056, 192.0, 4.0, 144.0, 30.0, 64.0, 1.0, 192.0, 0.0, 0.0, 0.0, 1.7297112518102496E9, 0.0, 2024-10-24 00:50:51.810
120.0, -45977.29247537762, -48695.68928428761, -40915.024687650766, -53534.0372960612, -52691.018902184835, -45413.536776725865, 19516.939761273832, 45285.50598448586, 0.146, 0.968, 0.056, 192.0, 0.0, 0.0, 0.0, 0.0, 0.0, 0.0, 0.0, 0.0, 0.0, 1.7297112518142364E9, 0.0, 2024-10-24 00:50:51.814
121.0, -45959.96987342476, -48678.791365479396, -40897.47856825335, -53518.86046157604, -52679.17247762352, -45397.75644514042, 19203.56830401043, 44956.98004448176, 0.146, 0.968, 0.056, 192.0, 0.0, 0.0, 0.0, 0.0, 0.0, 0.0, 0.0, 0.0, 0.0, 1.72971125181819E9, 0.0, 2024-10-24 00:50:51.818
122.0, -45957.511181534675, -48691.06247318536, -40905.078161368154, -53538.23942401879, -52696.338617365196, -45419.59409947325, 19305.224037793167, 45099.51711887326, 0.146, 0.968, 0.056, 192.0, 0.0, 0.0, 0.0, 0.0, 0.0, 0.0, 0.0, 0.0, 0.0, 1.7297112518212333E9, 0.0, 2024-10-24 00:50:51.821
123.0, -45968.262370617675, -48705.993438481506, -40922.221949365376, -53556.38904051651, -52714.22001292944, -45441.14118112817, 19687.729440656836, 45520.847501855795, 0.146, 0.968, 0.056, 192.0, 0.0, 0.0, 0.0, 0.0, 0.0, 0.0, 0.0, 0.0, 0.0, 1.7297112518252006E9, 0.0, 2024-10-24 00:50:51.825
124.0, -45990.971742984264, -48713.92830776314, -40932.704917514915, -53556.54550272769, -52714.801158285285, -45433.251015335445, 19900.31688217126, 45735.08897245991, 0.146, 0.968, 0.056, 192.0, 0.0, 0.0, 0.0, 0.0, 0.0, 0.0, 0.0, 0.0, 0.0, 1.7297112518302011E9, 0.0, 2024-10-24 00:50:51.830
125.0, -45979.01355970068, -48688.67083652864, -40909.36969630357, -53527.17531051342, -52682.56994278073, -45400.72922715297, 19608.492506562772, 45407.81473014531, 0.146, 0.968, 0.056, 192.0, 0.0, 0.0, 0.0, 0.0, 0.0, 0.0, 0.0, 0.0, 0.0, 1.7297112518342147E9, 0.0, 2024-10-24 00:50:51.834
126.0, -45963.032062415135, -48671.77291772043, -40895.221042063364, -53514.904202807455, -52671.036442641795, -45390.89445959264, 19301.804220891503, 45085.68138905542, 0.146, 0.968, 0.056, 192.0, 0.0, 0.0, 0.0, 0.0, 0.0, 0.0, 0.0, 0.0, 0.0, 1.7297112518382258E9, 0.0, 2024-10-24 00:50:51.838
127.0, -45960.506315291685, -48683.10525215927, -40907.84977768061, -53536.20541527336, -52695.55630630926, -45420.33170704028, 19443.268411549143, 45266.596408676676, 0.146, 0.968, 0.056, 192.0, 0.0, 0.0, 0.0, 0.0, 0.0, 0.0, 0.0, 0.0, 0.0, 1.7297112518422475E9, 0.0, 2024-10-24 00:50:51.842
128.0, -45973.783251498135, -48701.1431099347, -40928.54749304623, -53555.58437771611, -52718.779768798326, -45443.309300340334, 19829.439500503482, 45692.37478880582, 0.146, 0.968, 0.056, 192.0, 0.0, 0.0, 0.0, 0.0, 0.0, 0.0, 0.0, 0.0, 0.0, 1.729711251846249E9, 0.0, 2024-10-24 00:50:51.846
129.0, -45993.72100755227, -48709.21208968307, -40940.55037981873, -53555.383212016015, -52721.14905371059, -45442.03525090638, 20025.844279032266, 45889.98656153519, 0.14400000000000002, 0.964, 0.054, 192.0, 4.0, 128.0, 30.0, 32.0, 1.0, 176.0, 0.0, 0.0, 0.0, 1.7297112518492837E9, 0.0, 2024-10-24 00:50:51.849
130.0, -45981.71812077977, -48680.62420852473, -40917.08104814065, -53523.12964476701, -52681.519410791334, -45403.90317486563, 19741.217165138383, 45568.97080766807, 0.14400000000000002, 0.964, 0.054, 192.0, 0.0, 0.0, 0.0, 0.0, 0.0, 0.0, 0.0, 0.0, 0.0, 1.7297112518532631E9, 0.0, 2024-10-24 00:50:51.853
131.0, -45961.981530425735, -48658.04894662487, -40899.95961188789, -53502.09665323456, -52663.10157336016, -45380.52325016537, 19414.300550735064, 45228.73255356939, 0.14400000000000002, 0.964, 0.054, 192.0, 0.0, 0.0, 0.0, 0.0, 0.0, 0.0, 0.0, 0.0, 0.0, 1.729711251858258E9, 0.0, 2024-10-24 00:50:51.858
132.0, -45949.68807097532, -48665.648539739675, -40912.834216694144, -53522.235574988794, -52699.0878819332, -45408.909965623614, 19518.549086874616, 45374.77885184036, 0.14400000000000002, 0.964, 0.054, 192.0, 0.0, 0.0, 0.0, 0.0, 0.0, 0.0, 0.0, 0.0, 0.0, 1.7297112518622668E9, 0.0, 2024-10-24 00:50:51.862
133.0, -45965.06607116057, -48686.92740046113, -40936.4600105834, -53550.46582823585, -52724.926498523535, -45443.33165208479, 19910.442222409514, 45806.145168083334, 0.14400000000000002, 0.964, 0.054, 192.0, 0.0, 0.0, 0.0, 0.0, 0.0, 0.0, 0.0, 0.0, 0.0, 1.7297112518662715E9, 0.0, 2024-10-24 00:50:51.866
134.0, -45995.77736804216, -48701.59014482381, -40954.520220103295, -53558.84773240659, -52727.47459739144, -45446.550303286356, 20112.524344029945, 46011.37888567196, 0.14400000000000002, 0.964, 0.054, 192.0, 0.0, 0.0, 0.0, 0.0, 0.0, 0.0, 0.0, 0.0, 0.0, 1.7297112518722713E9, 0.0, 2024-10-24 00:50:51.872
135.0, -45977.67245503336, -48676.53383928941, -40923.33953658814, -53528.896394836476, -52692.203544640965, -45410.184015057566, 19815.02262532981, 45680.0813293554, 0.14400000000000002, 0.964, 0.054, 192.0, 0.0, 0.0, 0.0, 0.0, 0.0, 0.0, 0.0, 0.0, 0.0, 1.7297112518753135E9, 0.0, 2024-10-24 00:50:51.875
136.0, -45960.41690831386, -48661.11113561525, -40905.61460323508, -53515.26183071874, -52675.88677118859, -45391.90028809313, 19503.9533977453, 45355.60105509771, 0.14400000000000002, 0.964, 0.054, 192.0, 0.0, 0.0, 0.0, 0.0, 0.0, 0.0, 0.0, 0.0, 0.0, 1.7297112518783145E9, 0.0, 2024-10-24 00:50:51.878
137.0, -45959.72400423575, -48677.91964744564, -40920.545568531226, -53543.87206362153, -52704.787576769304, -45428.82536993329, 19629.92782949541, 45521.24983325599, 0.14400000000000002, 0.964, 0.054, 192.0, 0.0, 0.0, 0.0, 0.0, 0.0, 0.0, 0.0, 0.0, 0.0, 1.7297112518812945E9, 0.0, 2024-10-24 00:50:51.881
138.0, -45967.86003921748, -48692.02359819694, -40935.05185068272, -53558.71362193985, -52726.759341568875, -45443.42105906261, 20018.11057545073, 45947.05056512959, 0.14400000000000002, 0.964, 0.054, 192.0, 0.0, 0.0, 0.0, 0.0, 0.0, 0.0, 0.0, 0.0, 0.0, 1.7297112518852844E9, 0.0, 2024-10-24 00:50:51.885
139.0, -45993.072806963064, -48707.55806059338, -40947.926455488974, -53564.30155805368, -52730.40267591509, -45444.53864628538, 20224.260714562024, 46156.55346590918, 0.14400000000000002, 0.966, 0.062, 192.0, 4.0, 128.0, 30.0, 48.0, 1.0, 240.0, 0.0, 0.0, 0.0, 1.7297112518902872E9, 0.0, 2024-10-24 00:50:51.890
140.0, -45979.34883586751, -48682.36764459225, -40921.28317609825, -53535.110179795054, -52691.53299230731, -45412.061561591814, 19934.157423276596, 45829.92742418378, 0.14400000000000002, 0.966, 0.062, 192.0, 0.0, 0.0, 0.0, 0.0, 0.0, 0.0, 0.0, 0.0, 0.0, 1.7297112518943024E9, 0.0, 2024-10-24 00:50:51.894
141.0, -45954.31488207756, -48657.400746035666, -40895.35515253009, -53511.70790335035, -52667.50486701785, -45385.2618199899, 19604.11156464953, 45484.771786304926, 0.14400000000000002, 0.966, 0.062, 192.0, 0.0, 0.0, 0.0, 0.0, 0.0, 0.0, 0.0, 0.0, 0.0, 1.729711251898328E9, 0.0, 2024-10-24 00:50:51.898
142.0, -45938.623957469936, -48663.614530994244, -40899.1549490875, -53527.37647621352, -52692.985855696905, -45407.70297142303, 19700.827562907645, 45621.20683446012, 0.14400000000000002, 0.966, 0.062, 192.0, 0.0, 0.0, 0.0, 0.0, 0.0, 0.0, 0.0, 0.0, 0.0, 1.7297112519013517E9, 0.0, 2024-10-24 00:50:51.901
143.0, -45959.96987342476, -48689.18492665111, -40921.12671388706, -53554.57854921562, -52720.187928699015, -45431.97696590149, 20092.631291464724, 46050.628548935485, 0.14400000000000002, 0.966, 0.062, 192.0, 0.0, 0.0, 0.0, 0.0, 0.0, 0.0, 0.0, 0.0, 0.0, 1.7297112519053404E9, 0.0, 2024-10-24 00:50:51.905
144.0, -45987.99896097171, -48702.17129017965, -40932.0120134368, -53558.57951147312, -52722.08782697771, -45432.73692521297, 20327.21284952317, 46285.9253628165, 0.14400000000000002, 0.966, 0.062, 192.0, 0.0, 0.0, 0.0, 0.0, 0.0, 0.0, 0.0, 0.0, 0.0, 1.7297112519093187E9, 0.0, 2024-10-24 00:50:51.909
145.0, -45972.50920206418, -48677.22674336752, -40903.535891000734, -53533.03146756071, -52682.56994278073, -45409.692276679554, 20037.62364836021, 45961.04275715861, 0.14400000000000002, 0.966, 0.062, 192.0, 0.0, 0.0, 0.0, 0.0, 0.0, 0.0, 0.0, 0.0, 0.0, 1.7297112519133515E9, 0.0, 2024-10-24 00:50:51.913
146.0, -45949.62101574195, -48656.26080706845, -40882.65936167948, -53512.40080742846, -52660.17349483651, -45384.524212422875, 19699.777030918245, 45609.919203510195, 0.14400000000000002, 0.966, 0.062, 192.0, 0.0, 0.0, 0.0, 0.0, 0.0, 0.0, 0.0, 0.0, 0.0, 1.7297112519185638E9, 0.0, 2024-10-24 00:50:51.918
147.0, -45944.16719009486, -48663.25690308296, -40886.9508966149, -53527.130607024505, -52673.830410698705, -45402.1150353092, 19819.87295387661, 45772.326978722456, 0.14400000000000002, 0.966, 0.062, 192.0, 0.0, 0.0, 0.0, 0.0, 0.0, 0.0, 0.0, 0.0, 0.0, 1.7297112519233468E9, 0.0, 2024-10-24 00:50:51.923
148.0, -45963.70261474879, -48690.97306620754, -40912.14131261603, -53557.73014518382, -52708.3415041377, -45437.14021887067, 20227.34525529686, 46217.66313524999, 0.14400000000000002, 0.966, 0.062, 192.0, 0.0, 0.0, 0.0, 0.0, 0.0, 0.0, 0.0, 0.0, 0.0, 1.729711251927386E9, 0.0, 2024-10-24 00:50:51.927
149.0, -45991.552888340106, -48702.17129017965, -40928.81571397969, -53559.11595334005, -52712.990666984406, -45434.56976825831, 20443.75484511314, 46436.2631960229, 0.14400000000000002, 0.968, 0.058, 192.0, 4.0, 128.0, 30.0, 64.0, 1.0, 208.0, 0.0, 0.0, 0.0, 1.7297112519303482E9, 0.0, 2024-10-24 00:50:51.930
150.0, -45974.498507320706, -48671.01295840895, -40901.2560130663, -53522.6826098779, -52670.79057345278, -45391.67677064858, 20143.45915835609, 46101.14349140447, 0.14400000000000002, 0.968, 0.058, 192.0, 0.0, 0.0, 0.0, 0.0, 0.0, 0.0, 0.0, 0.0, 0.0, 1.7297112519334073E9, 0.0, 2024-10-24 00:50:51.933
151.0, -45959.18756236882, -48658.11600185824, -40888.78373966023, -53516.20060398586, -52662.18515183749, -45395.65538116162, 19833.216945316428, 45776.506754935595, 0.14400000000000002, 0.968, 0.058, 192.0, 0.0, 0.0, 0.0, 0.0, 0.0, 0.0, 0.0, 0.0, 0.0, 1.7297112519374225E9, 0.0, 2024-10-24 00:50:51.937
152.0, -45956.12537337845, -48665.26856008394, -40902.03832412223, -53532.91970883843, -52689.85661147316, -45419.01295411742, 19969.964917893998, 45951.565617509565, 0.14400000000000002, 0.968, 0.058, 192.0, 0.0, 0.0, 0.0, 0.0, 0.0, 0.0, 0.0, 0.0, 0.0, 1.729711251941383E9, 0.0, 2024-10-24 00:50:51.941
153.0, -45963.367338581964, -48675.438603811104, -40918.377449319065, -53541.56983394264, -52709.14616693809, -45424.64559372015, 20341.495614230113, 46361.094279419696, 0.14400000000000002, 0.968, 0.058, 192.0, 0.0, 0.0, 0.0, 0.0, 0.0, 0.0, 0.0, 0.0, 0.0, 1.7297112519463816E9, 0.0, 2024-10-24 00:50:51.946
154.0, -45985.07088244807, -48685.9439237051, -40925.351193589115, -53542.30744150966, -52700.1384139226, -45422.768047185906, 20529.83141301053, 46552.20169451257, 0.14400000000000002, 0.968, 0.058, 192.0, 0.0, 0.0, 0.0, 0.0, 0.0, 0.0, 0.0, 0.0, 0.0, 1.7297112519503896E9, 0.0, 2024-10-24 00:50:51.950
155.0, -45973.313864864576, -48663.32395831632, -40904.8546439236, -53516.714694108334, -52673.71865197643, -45390.380369470164, 20230.832127431888, 46218.78072247276, 0.14400000000000002, 0.968, 0.058, 192.0, 0.0, 0.0, 0.0, 0.0, 0.0, 0.0, 0.0, 0.0, 0.0, 1.7297112519544692E9, 0.0, 2024-10-24 00:50:51.954
156.0, -45957.80175421259, -48646.31428078584, -40889.700161182904, -53501.001417756255, -52657.826561668706, -45374.57768614026, 19920.724024858955, 45894.52396565962, 0.14400000000000002, 0.968, 0.058, 192.0, 0.0, 0.0, 0.0, 0.0, 0.0, 0.0, 0.0, 0.0, 0.0, 1.729711251958408E9, 0.0, 2024-10-24 00:50:51.958
157.0, -45951.87854193193, -48653.17626633361, -40899.51257699878, -53518.614592387035, -52677.384338067095, -45403.74671265444, 20040.998761772964, 46058.58576996157, 0.14400000000000002, 0.968, 0.058, 192.0, 0.0, 0.0, 0.0, 0.0, 0.0, 0.0, 0.0, 0.0, 0.0, 1.72971125196144E9, 0.0, 2024-10-24 00:50:51.961
158.0, -45964.7978502271, -48677.51731604544, -40922.490170298835, -53548.051839834676, -52713.43770187351, -45440.6270910057, 20446.347647469956, 46503.78781602238, 0.14400000000000002, 0.968, 0.058, 192.0, 0.0, 0.0, 0.0, 0.0, 0.0, 0.0, 0.0, 0.0, 0.0, 1.729711251965428E9, 0.0, 2024-10-24 00:50:51.965
159.0, -45986.94842898231, -48683.97697019303, -40930.894426214036, -53545.74961015578, -52713.43770187351, -45431.015840889915, 20656.65521104994, 46711.83785341238, 0.14200000000000002, 0.968, 0.06, 192.0, 4.0, 112.0, 30.0, 64.0, 1.0, 224.0, 0.0, 0.0, 0.0, 1.7297112519694495E9, 0.0, 2024-10-24 00:50:51.969
160.0, -45970.8998764634, -48656.52902800191, -40901.47953051085, -53511.77495858371, -52676.51262003334, -45388.726340380475, 20375.403210568813, 46393.37019841316, 0.14200000000000002, 0.968, 0.06, 192.0, 0.0, 0.0, 0.0, 0.0, 0.0, 0.0, 0.0, 0.0, 0.0, 1.7297112519734485E9, 0.0, 2024-10-24 00:50:51.973
161.0, -45947.60935874097, -48636.211292292035, -40881.67588492345, -53495.86051653153, -52664.95676814995, -45379.428014687066, 20063.10463703926, 46068.085261355074, 0.14200000000000002, 0.968, 0.06, 192.0, 0.0, 0.0, 0.0, 0.0, 0.0, 0.0, 0.0, 0.0, 0.0, 1.7297112519784386E9, 0.0, 2024-10-24 00:50:51.978
162.0, -45941.55203599358, -48644.034402851394, -40893.45525425139, -53514.0324847737, -52698.46203308845, -45404.84194813275, 20172.382315681258, 46219.96536492889, 0.14200000000000002, 0.968, 0.06, 192.0, 0.0, 0.0, 0.0, 0.0, 0.0, 0.0, 0.0, 0.0, 0.0, 1.7297112519824624E9, 0.0, 2024-10-24 00:50:51.982
163.0, -45958.29349259061, -48669.738908975, -40917.751600474316, -53543.46973222134, -52733.15194048309, -45439.24128284947, 20556.742913334718, 46640.62519557777, 0.14200000000000002, 0.968, 0.06, 192.0, 0.0, 0.0, 0.0, 0.0, 0.0, 0.0, 0.0, 0.0, 0.0, 1.7297112519857347E9, 0.0, 2024-10-24 00:50:51.985
164.0, -45982.14280392442, -48683.66404577065, -40928.74865874632, -53550.73404916931, -52729.195681714504, -45447.95846318704, 20748.81145343917, 46830.48091298115, 0.14200000000000002, 0.968, 0.06, 192.0, 0.0, 0.0, 0.0, 0.0, 0.0, 0.0, 0.0, 0.0, 0.0, 1.7297112519894855E9, 0.0, 2024-10-24 00:50:51.989
165.0, -45977.89597247791, -48663.703937972066, -40904.72053345687, -53525.00719130125, -52691.62239928513, -45413.670887192595, 20452.98611557318, 46498.4233973531, 0.14200000000000002, 0.968, 0.06, 192.0, 0.0, 0.0, 0.0, 0.0, 0.0, 0.0, 0.0, 0.0, 0.0, 1.7297112519935153E9, 0.0, 2024-10-24 00:50:51.993
166.0, -45940.81442842656, -48638.22294929301, -40871.63995166301, -53498.878002033, -52662.028689626306, -45384.30069497832, 20129.288152371428, 46160.576779911135, 0.14200000000000002, 0.968, 0.06, 192.0, 0.0, 0.0, 0.0, 0.0, 0.0, 0.0, 0.0, 0.0, 0.0, 1.7297112519974911E9, 0.0, 2024-10-24 00:50:51.997
167.0, -45941.73084994923, -48654.115039600736, -40888.314353026675, -53525.186005256895, -52692.5388208078, -45418.34240178375, 20272.71929654113, 46343.90578793357, 0.14200000000000002, 0.968, 0.06, 192.0, 0.0, 0.0, 0.0, 0.0, 0.0, 0.0, 0.0, 0.0, 0.0, 1.729711252002483E9, 0.0, 2024-10-24 00:50:52.002
168.0, -45962.85324845949, -48674.99156892199, -40912.14131261603, -53551.35989801406, -52717.01398098636, -45450.05952716584, 20675.341269414577, 46782.40231065778, 0.14200000000000002, 0.968, 0.06, 192.0, 0.0, 0.0, 0.0, 0.0, 0.0, 0.0, 0.0, 0.0, 0.0, 1.729711252006483E9, 0.0, 2024-10-24 00:50:52.006
169.0, -45980.82405100156, -48676.265618355945, -40913.19184460543, -53542.21803453184, -52701.70303603447, -45427.3725065437, 20874.60707123364, 46978.29299906409, 0.146, 0.966, 0.06, 192.0, 4.0, 144.0, 30.0, 48.0, 1.0, 224.0, 0.0, 0.0, 0.0, 1.7297112520104675E9, 0.0, 2024-10-24 00:50:52.010
170.0, -45966.943617694815, -48652.97510063352, -40889.18607106043, -53513.40663592895, -52664.867361172124, -45392.59319217124, 20554.64184935592, 46620.82154999037, 0.146, 0.966, 0.06, 192.0, 0.0, 0.0, 0.0, 0.0, 0.0, 0.0, 0.0, 0.0, 0.0, 1.7297112520135243E9, 0.0, 2024-10-24 00:50:52.013
171.0, -45948.52578026364, -48640.21225454954, -40875.81972787616, -53504.06360674663, -52652.909177888534, -45386.26764849039, 20229.602781486843, 46282.863173826125, 0.146, 0.966, 0.06, 192.0, 0.0, 0.0, 0.0, 0.0, 0.0, 0.0, 0.0, 0.0, 0.0, 1.7297112520176048E9, 0.0, 2024-10-24 00:50:52.017
172.0, -45945.821219184545, -48654.29385355638, -40890.63893445003, -53526.370647713025, -52685.67683526002, -45406.58538420026, 20378.80067572602, 46473.858830196725, 0.146, 0.966, 0.06, 192.0, 0.0, 0.0, 0.0, 0.0, 0.0, 0.0, 0.0, 0.0, 0.0, 1.7297112520215132E9, 0.0, 2024-10-24 00:50:52.021
173.0, -45957.354719323484, -48668.218990352034, -40905.54754800171, -53542.62036593204, -52697.61266679915, -45424.35502104223, 20772.43724732843, 46900.97831499318, 0.146, 0.966, 0.06, 192.0, 0.0, 0.0, 0.0, 0.0, 0.0, 0.0, 0.0, 0.0, 0.0, 1.7297112520257173E9, 0.0, 2024-10-24 00:50:52.025
174.0, -45984.71325453678, -48681.3394643473, -40918.89153944153, -53549.79527590219, -52697.85853598816, -45432.71457346852, 20953.28521171632, 47074.74077638874, 0.146, 0.966, 0.06, 192.0, 0.0, 0.0, 0.0, 0.0, 0.0, 0.0, 0.0, 0.0, 0.0, 1.729711252029699E9, 0.0, 2024-10-24 00:50:52.029
175.0, -45969.75993749618, -48655.56790299033, -40895.176338574456, -53520.67095287692, -52666.99077689538, -45400.393950986145, 20671.295603668168, 46753.54620856598, 0.146, 0.966, 0.06, 192.0, 0.0, 0.0, 0.0, 0.0, 0.0, 0.0, 0.0, 0.0, 0.0, 1.7297112520346391E9, 0.0, 2024-10-24 00:50:52.034
176.0, -45946.20119884029, -48635.11605681373, -40874.746844142304, -53501.761377067734, -52650.98692786538, -45384.4124537006, 20361.947460406718, 46429.311803497294, 0.146, 0.966, 0.06, 192.0, 0.0, 0.0, 0.0, 0.0, 0.0, 0.0, 0.0, 0.0, 0.0, 1.7297112520384965E9, 0.0, 2024-10-24 00:50:52.038
177.0, -45937.46166675826, -48642.5815394618, -40881.56412620117, -53516.513528408235, -52677.674910745016, -45399.008142829916, 20493.219255592736, 46601.97902941454, 0.146, 0.966, 0.06, 192.0, 0.0, 0.0, 0.0, 0.0, 0.0, 0.0, 0.0, 0.0, 0.0, 1.7297112520416763E9, 0.0, 2024-10-24 00:50:52.041
178.0, -45959.165210624364, -48669.291874085895, -40911.40370504901, -53548.00713634576, -52716.23166993042, -45436.6261287482, 20881.1784841035, 47026.08102870954, 0.146, 0.966, 0.06, 192.0, 0.0, 0.0, 0.0, 0.0, 0.0, 0.0, 0.0, 0.0, 0.0, 1.7297112520455763E9, 0.0, 2024-10-24 00:50:52.045
179.0, -45983.48390859174, -48679.61838002424, -40918.48920804134, -53547.202473545374, -52704.00526571337, -45428.75831469993, 21079.46080916653, 47220.16122581497, 0.146, 0.968, 0.056, 192.0, 4.0, 144.0, 30.0, 64.0, 1.0, 192.0, 0.0, 0.0, 0.0, 1.7297112520495787E9, 0.0, 2024-10-24 00:50:52.049
180.0, -45974.990245698726, -48658.026594880415, -40897.94795488691, -53522.25792673325, -52671.34936706417, -45400.79628238634, 20775.387677596533, 46878.89479147134, 0.146, 0.968, 0.056, 192.0, 0.0, 0.0, 0.0, 0.0, 0.0, 0.0, 0.0, 0.0, 0.0, 1.7297112520535812E9, 0.0, 2024-10-24 00:50:52.053
181.0, -45948.346966307996, -48634.467856224524, -40875.23858252032, -53501.67197008991, -52654.69731744496, -45382.959590311, 20459.490473209677, 46547.01608979894, 0.146, 0.968, 0.056, 192.0, 0.0, 0.0, 0.0, 0.0, 0.0, 0.0, 0.0, 0.0, 0.0, 1.7297112520575583E9, 0.0, 2024-10-24 00:50:52.057
182.0, -45938.78041968113, -48640.279309782905, -40881.385312245526, -53516.91585980843, -52676.982006666905, -45406.49597722245, 20603.12278307948, 46730.74742922156, 0.146, 0.968, 0.056, 192.0, 0.0, 0.0, 0.0, 0.0, 0.0, 0.0, 0.0, 0.0, 0.0, 1.7297112520625713E9, 0.0, 2024-10-24 00:50:52.062
183.0, -45954.87367568895, -48661.11113561525, -40903.37942878955, -53539.06643856364, -52701.45716684547, -45427.66307922162, 21006.68352922005, 47166.53939086669, 0.146, 0.968, 0.056, 192.0, 0.0, 0.0, 0.0, 0.0, 0.0, 0.0, 0.0, 0.0, 0.0, 1.7297112520655217E9, 0.0, 2024-10-24 00:50:52.065
184.0, -45977.851268989005, -48670.09653688628, -40914.801170206214, -53540.40754323096, -52703.4911755909, -45424.4220762756, 21204.787040327436, 47355.210465813936, 0.146, 0.968, 0.056, 192.0, 0.0, 0.0, 0.0, 0.0, 0.0, 0.0, 0.0, 0.0, 0.0, 1.7297112520695546E9, 0.0, 2024-10-24 00:50:52.069
185.0, -45963.25557985969, -48648.41534476463, -40889.67780943845, -53516.871156319525, -52669.985910652395, -45400.50570970842, 20906.503010571363, 47018.25791815018, 0.146, 0.968, 0.056, 192.0, 0.0, 0.0, 0.0, 0.0, 0.0, 0.0, 0.0, 0.0, 0.0, 1.72971125207363E9, 0.0, 2024-10-24 00:50:52.073
186.0, -45936.27702430213, -48628.05290556585, -40865.62733240454, -53500.73319682279, -52649.5787679647, -45385.2618199899, 20594.003271341717, 46693.1741467922, 0.146, 0.968, 0.056, 192.0, 0.0, 0.0, 0.0, 0.0, 0.0, 0.0, 0.0, 0.0, 0.0, 1.729711252077744E9, 0.0, 2024-10-24 00:50:52.077
187.0, -45931.27023354414, -48637.06065858134, -40876.73614939882, -53519.531013909706, -52677.56315202274, -45408.23941328996, 20730.66183694146, 46871.362253589905, 0.146, 0.968, 0.056, 192.0, 0.0, 0.0, 0.0, 0.0, 0.0, 0.0, 0.0, 0.0, 0.0, 1.7297112520816002E9, 0.0, 2024-10-24 00:50:52.081
188.0, -45957.846457701504, -48662.31812981584, -40905.905175913, -53549.8399793911, -52704.00526571337, -45439.10717238273, 21125.684216700105, 47300.06871224269, 0.146, 0.968, 0.056, 192.0, 0.0, 0.0, 0.0, 0.0, 0.0, 0.0, 0.0, 0.0, 0.0, 1.7297112520856516E9, 0.0, 2024-10-24 00:50:52.085
189.0, -45975.616094543475, -48668.73308047451, -40907.738018958335, -53546.420162489434, -52694.50577431986, -45426.99252688796, 21321.776070806514, 47489.49974650142, 0.146, 0.964, 0.048, 192.0, 4.0, 144.0, 30.0, 32.0, 1.0, 128.0, 0.0, 0.0, 0.0, 1.7297112520908396E9, 0.0, 2024-10-24 00:50:52.090
190.0, -45954.00195765519, -48637.95472835955, -40878.21136453287, -53512.959601039845, -52654.36204127813, -45392.25791600441, 21022.553267783318, 47152.56955058212, 0.146, 0.964, 0.048, 192.0, 0.0, 0.0, 0.0, 0.0, 0.0, 0.0, 0.0, 0.0, 0.0, 1.7297112520937653E9, 0.0, 2024-10-24 00:50:52.093
191.0, -45929.01270735416, -48615.69239088207, -40856.59722764459, -53493.580638597094, -52638.93933760397, -45369.772061082374, 20712.44516521039, 46827.32931701295, 0.146, 0.964, 0.048, 192.0, 0.0, 0.0, 0.0, 0.0, 0.0, 0.0, 0.0, 0.0, 0.0, 1.7297112520977724E9, 0.0, 2024-10-24 00:50:52.097
192.0, -45925.70464917477, -48623.80607411934, -40868.06367255017, -53512.62432487301, -52666.09670711717, -45398.33759049626, 20835.715035881407, 46992.799281215586, 0.146, 0.964, 0.048, 192.0, 0.0, 0.0, 0.0, 0.0, 0.0, 0.0, 0.0, 0.0, 0.0, 1.729711252101828E9, 0.0, 2024-10-24 00:50:52.101
193.0, -45945.21772208426, -48648.81767616483, -40895.55631823019, -53541.79335138719, -52699.66902728904, -45433.58629150227, 21231.050340062422, 47420.09757996769, 0.146, 0.964, 0.048, 192.0, 0.0, 0.0, 0.0, 0.0, 0.0, 0.0, 0.0, 0.0, 0.0, 1.7297112521056209E9, 0.0, 2024-10-24 00:50:52.105
194.0, -45976.68897827733, -48663.882751927704, -40910.263766081785, -53546.93425261191, -52702.842975001695, -45433.42982929109, 21403.784621213035, 47582.9300383246, 0.146, 0.964, 0.048, 192.0, 0.0, 0.0, 0.0, 0.0, 0.0, 0.0, 0.0, 0.0, 0.0, 1.7297112521096175E9, 0.0, 2024-10-24 00:50:52.109
195.0, -45948.65989073037, -48630.89157711167, -40875.37269298705, -53507.63988585948, -52658.49711400236, -45386.15588976812, 21091.620158150217, 47231.11358059807, 0.146, 0.964, 0.048, 192.0, 0.0, 0.0, 0.0, 0.0, 0.0, 0.0, 0.0, 0.0, 0.0, 1.7297112521138637E9, 0.0, 2024-10-24 00:50:52.113
196.0, -45923.82710264053, -48608.80805358983, -40847.56712288465, -53485.69047280437, -52629.95393633294, -45362.574799367765, 20789.581035325653, 46913.4729401437, 0.146, 0.964, 0.048, 192.0, 0.0, 0.0, 0.0, 0.0, 0.0, 0.0, 0.0, 0.0, 0.0, 1.729711252118846E9, 0.0, 2024-10-24 00:50:52.118
197.0, -45919.15558804937, -48616.60881240473, -40855.05495727718, -53503.63892360198, -52656.17253257901, -45390.29096249235, 20927.558353848264, 47093.18096556437, 0.146, 0.964, 0.048, 192.0, 0.0, 0.0, 0.0, 0.0, 0.0, 0.0, 0.0, 0.0, 0.0, 1.7297112521216395E9, 0.0, 2024-10-24 00:50:52.121
198.0, -45942.44610577179, -48642.939167373086, -40886.59326870362, -53529.991630314784, -52690.92949520701, -45415.704895938026, 21326.492288886584, 47523.40734284012, 0.146, 0.964, 0.048, 192.0, 0.0, 0.0, 0.0, 0.0, 0.0, 0.0, 0.0, 0.0, 0.0, 1.7297112521246328E9, 0.0, 2024-10-24 00:50:52.124
199.0, -45972.755071253196, -48653.422135522625, -40902.17243458897, -53534.59608967258, -52693.99168419739, -45421.426942518585, 21507.183791063286, 47695.62753386826, 0.146, 0.964, 0.048, 192.0, 4.0, 144.0, 30.0, 32.0, 1.0, 128.0, 0.0, 0.0, 0.0, 1.7297112521297004E9, 0.0, 2024-10-24 00:50:52.129
200.0, -45963.27793160414, -48631.182149789594, -40879.06073082217, -53509.316266693626, -52659.41353552503, -45392.39202647114, 21222.1096422803, 47370.94609391047, 0.146, 0.964, 0.048, 192.0, 0.0, 0.0, 0.0, 0.0, 0.0, 0.0, 0.0, 0.0, 0.0, 1.7297112521338594E9, 0.0, 2024-10-24 00:50:52.133
201.0, -45943.60839648347, -48611.15498675764, -40860.195858501895, -53491.43487112938, -52644.191997550966, -45375.091776262736, 20903.440821580985, 47036.07225848106, 0.146, 0.964, 0.048, 192.0, 0.0, 0.0, 0.0, 0.0, 0.0, 0.0, 0.0, 0.0, 0.0, 1.729711252137678E9, 0.0, 2024-10-24 00:50:52.137
202.0, -45934.13125683442, -48618.55341417235, -40870.52236444025, -53508.131624237496, -52670.79057345278, -45395.25304976142, 21041.775768014882, 47213.701571667385, 0.146, 0.964, 0.048, 192.0, 0.0, 0.0, 0.0, 0.0, 0.0, 0.0, 0.0, 0.0, 0.0, 1.7297112521416848E9, 0.0, 2024-10-24 00:50:52.141
203.0, -45938.46749525875, -48634.64667018017, -40882.771120401754, -53525.29776397917, -52687.688492261, -45411.994506358446, 21429.466775592184, 47629.19814934709, 0.146, 0.964, 0.048, 192.0, 0.0, 0.0, 0.0, 0.0, 0.0, 0.0, 0.0, 0.0, 0.0, 1.729711252146902E9, 0.0, 2024-10-24 00:50:52.146
204.0, -45965.602513027494, -48650.06937385433, -40897.03153336424, -53532.07034254913, -52685.229800370915, -45415.19080581556, 21604.927969566343, 47790.242468147575, 0.146, 0.964, 0.048, 192.0, 0.0, 0.0, 0.0, 0.0, 0.0, 0.0, 0.0, 0.0, 0.0, 1.729711252149796E9, 0.0, 2024-10-24 00:50:52.149
205.0, -45947.11762036296, -48622.19674851856, -40870.99175107381, -53504.24242070227, -52655.4796285009, -45386.625276401675, 21281.855855209335, 47425.01496374786, 0.146, 0.964, 0.048, 192.0, 0.0, 0.0, 0.0, 0.0, 0.0, 0.0, 0.0, 0.0, 0.0, 1.729711252152705E9, 0.0, 2024-10-24 00:50:52.152
206.0, -45928.23039629822, -48603.66715236511, -40854.116184010054, -53490.093766462065, -52643.23087253939, -45375.51645940739, 20953.396970438596, 47079.680511913364, 0.146, 0.964, 0.048, 192.0, 0.0, 0.0, 0.0, 0.0, 0.0, 0.0, 0.0, 0.0, 0.0, 1.7297112521579144E9, 0.0, 2024-10-24 00:50:52.157
207.0, -45923.62593694043, -48618.21813800551, -40870.18708827342, -53514.45716791835, -52676.37850956661, -45407.92648886758, 21107.28873101339, 47272.844287496126, 0.146, 0.964, 0.048, 192.0, 0.0, 0.0, 0.0, 0.0, 0.0, 0.0, 0.0, 0.0, 0.0, 1.7297112521617792E9, 0.0, 2024-10-24 00:50:52.161
208.0, -45942.31199530506, -48642.782705161895, -40894.729303685344, -53539.04408681919, -52704.787576769304, -45431.75344845694, 21497.617244436413, 47693.548821633914, 0.146, 0.964, 0.048, 192.0, 0.0, 0.0, 0.0, 0.0, 0.0, 0.0, 0.0, 0.0, 0.0, 1.7297112521659544E9, 0.0, 2024-10-24 00:50:52.165
209.0, -45961.57919902554, -48646.426039508115, -40897.16564383097, -53535.601918173066, -52690.258942873355, -45421.24812856295, 21659.443874292836, 47842.187922261706, 0.146, 0.964, 0.048, 192.0, 0.0, 0.0, 0.0, 0.0, 0.0, 0.0, 0.0, 0.0, 0.0, 1.7297112521697364E9, 0.0, 2024-10-24 00:50:52.169
210.0, -45951.81148669857, -48626.01889682042, -40879.19484128891, -53513.45133941786, -52666.36492805063, -45391.587363670755, 21376.671955188747, 47516.63476427016, 0.15, 0.968, 0.054, 192.0, 4.0, 176.0, 30.0, 64.0, 1.0, 176.0, 0.0, 0.0, 0.0, 1.7297112521737368E9, 0.0, 2024-10-24 00:50:52.173
211.0, -45937.88634990291, -48613.837196092274, -40867.70604463888, -53503.19188871287, -52653.91500638903, -45381.55143041032, 21062.473483380498, 47185.15839399796, 0.15, 0.968, 0.054, 192.0, 0.0, 0.0, 0.0, 0.0, 0.0, 0.0, 0.0, 0.0, 0.0, 1.7297112521787972E9, 0.0, 2024-10-24 00:50:52.178
212.0, -45924.81057939656, -48624.476626453004, -40871.48348945183, -53522.235574988794, -52668.80126819626, -45411.234547046966, 21201.546037381417, 47362.58654148418, 0.15, 0.968, 0.054, 192.0, 0.0, 0.0, 0.0, 0.0, 0.0, 0.0, 0.0, 0.0, 0.0, 1.7297112521817086E9, 0.0, 2024-10-24 00:50:52.181
213.0, -45938.4451435143, -48647.25305405296, -40896.51744324177, -53547.627156690025, -52707.872117504136, -45436.55907351483, 21600.12234450845, 47790.01895070302, 0.15, 0.968, 0.054, 192.0, 0.0, 0.0, 0.0, 0.0, 0.0, 0.0, 0.0, 0.0, 0.0, 1.7297112521857882E9, 0.0, 2024-10-24 00:50:52.185
214.0, -45964.19435312681, -48654.115039600736, -40902.82063517817, -53541.90511010947, -52693.410538841556, -45417.53773898337, 21774.533006493213, 47949.498647391636, 0.15, 0.968, 0.054, 192.0, 0.0, 0.0, 0.0, 0.0, 0.0, 0.0, 0.0, 0.0, 0.0, 1.7297112521897407E9, 0.0, 2024-10-24 00:50:52.189
215.0, -45954.38193731093, -48629.17049278862, -40881.251201778796, -53514.770092340725, -52658.20654132444, -45385.775910112374, 21454.746598571135, 47588.29445699388, 0.15, 0.968, 0.054, 192.0, 0.0, 0.0, 0.0, 0.0, 0.0, 0.0, 0.0, 0.0, 0.0, 1.72971125219386E9, 0.0, 2024-10-24 00:50:52.193
216.0, -45921.72603866173, -48607.24343147796, -40860.59818990209, -53498.18509795488, -52641.12980856059, -45370.97905528296, 21168.264289887466, 47284.46719461289, 0.15, 0.968, 0.054, 192.0, 0.0, 0.0, 0.0, 0.0, 0.0, 0.0, 0.0, 0.0, 0.0, 1.7297112521980312E9, 0.0, 2024-10-24 00:50:52.198
217.0, -45909.61139316695, -48612.49609142495, -40865.22500100434, -53508.91393529343, -52656.3289947902, -45383.74190136694, 21327.8333935539, 47483.487127242945, 0.15, 0.968, 0.054, 192.0, 0.0, 0.0, 0.0, 0.0, 0.0, 0.0, 0.0, 0.0, 0.0, 1.7297112522020607E9, 0.0, 2024-10-24 00:50:52.202
218.0, -45928.61037595396, -48638.62528069321, -40890.21425130538, -53535.803083873165, -52681.921742191524, -45416.755427927426, 21720.933523289386, 47907.47736781566, 0.15, 0.968, 0.054, 192.0, 0.0, 0.0, 0.0, 0.0, 0.0, 0.0, 0.0, 0.0, 0.0, 1.729711252205763E9, 0.0, 2024-10-24 00:50:52.205
219.0, -45956.5500565231, -48648.21417906454, -40901.323068299665, -53535.244290261784, -52677.51844853383, -45414.3190877818, 21886.135266558562, 48058.17282893334, 0.15, 0.968, 0.054, 192.0, 0.0, 0.0, 0.0, 0.0, 0.0, 0.0, 0.0, 0.0, 0.0, 1.7297112522088263E9, 0.0, 2024-10-24 00:50:52.208
220.0, -45942.2449400717, -48624.409571219636, -40883.10639656859, -53510.12092949402, -52654.4290965115, -45388.83809910275, 21581.436286143817, 47711.67608638717, 0.154, 0.966, 0.062, 192.0, 4.0, 208.0, 30.0, 48.0, 1.0, 240.0, 0.0, 0.0, 0.0, 1.7297112522138827E9, 0.0, 2024-10-24 00:50:52.213
221.0, -45909.969021078236, -48593.45240514904, -40859.70412012388, -53482.51652509171, -52637.531177703284, -45361.658377845095, 21264.555605000925, 47378.18805911399, 0.154, 0.966, 0.062, 192.0, 0.0, 0.0, 0.0, 0.0, 0.0, 0.0, 0.0, 0.0, 0.0, 1.729711252218007E9, 0.0, 2024-10-24 00:50:52.218
222.0, -45901.94474481878, -48602.303695953335, -40869.427128961936, -53500.17440321141, -52657.960672135436, -45385.2618199899, 21422.873010977866, 47575.553962654354, 0.154, 0.966, 0.062, 192.0, 0.0, 0.0, 0.0, 0.0, 0.0, 0.0, 0.0, 0.0, 0.0, 1.729711252221776E9, 0.0, 2024-10-24 00:50:52.221
223.0, -45917.76977989314, -48628.09760905476, -40897.03153336424, -53529.61165065905, -52694.438719086495, -45421.35988728522, 21826.567867585167, 48006.65205796386, 0.154, 0.966, 0.062, 192.0, 0.0, 0.0, 0.0, 0.0, 0.0, 0.0, 0.0, 0.0, 0.0, 1.7297112522258844E9, 0.0, 2024-10-24 00:50:52.225
224.0, -45939.115695847955, -48640.30166152736, -40908.05094338071, -53531.623307660026, -52693.81287024175, -45420.44346576255, 21979.364392681648, 48143.690603219344, 0.154, 0.966, 0.062, 192.0, 0.0, 0.0, 0.0, 0.0, 0.0, 0.0, 0.0, 0.0, 0.0, 1.7297112522298436E9, 0.0, 2024-10-24 00:50:52.229
225.0, -45922.128370061924, -48616.228832748995, -40883.10639656859, -53505.315304436124, -52659.16766633603, -45390.17920377007, 21666.216452862795, 47789.46015709164, 0.154, 0.966, 0.062, 192.0, 0.0, 0.0, 0.0, 0.0, 0.0, 0.0, 0.0, 0.0, 0.0, 1.7297112522337909E9, 0.0, 2024-10-24 00:50:52.233
226.0, -45908.22558501072, -48604.22594597649, -40871.30467549618, -53497.3804351545, -52647.00831735234, -45380.88087807666, 21383.42218201425, 47487.80101392281, 0.154, 0.966, 0.062, 192.0, 0.0, 0.0, 0.0, 0.0, 0.0, 0.0, 0.0, 0.0, 0.0, 1.7297112522367895E9, 0.0, 2024-10-24 00:50:52.236
227.0, -45903.4870151862, -48610.43973093507, -40879.82069013366, -53512.35610393955, -52667.57192225122, -45398.717570151995, 21537.31394258904, 47679.69074007163, 0.154, 0.966, 0.062, 192.0, 0.0, 0.0, 0.0, 0.0, 0.0, 0.0, 0.0, 0.0, 0.0, 1.7297112522407792E9, 0.0, 2024-10-24 00:50:52.240
228.0, -45925.39172475239, -48636.65832718114, -40911.38135330455, -53540.3851914865, -52699.57962031122, -45427.08193386578, 21935.44321482697, 48107.972515579764, 0.154, 0.966, 0.062, 192.0, 0.0, 0.0, 0.0, 0.0, 0.0, 0.0, 0.0, 0.0, 0.0, 1.7297112522460985E9, 0.0, 2024-10-24 00:50:52.246
229.0, -45946.804695940584, -48642.26861503942, -40918.19863536342, -53534.774903628226, -52690.79538474028, -45414.028515103884, 22105.94232153205, 48262.28895929921, 0.154, 0.966, 0.062, 192.0, 0.0, 0.0, 0.0, 0.0, 0.0, 0.0, 0.0, 0.0, 0.0, 1.7297112522498157E9, 0.0, 2024-10-24 00:50:52.249
230.0, -45927.47043698674, -48613.43486469208, -40892.80705366219, -53505.36000792504, -52662.431021026496, -45382.5125554219, 21788.547550266692, 47902.872908457866, 0.154, 0.97, 0.06, 192.0, 4.0, 208.0, 30.0, 80.0, 1.0, 224.0, 0.0, 0.0, 0.0, 1.7297112522540936E9, 0.0, 2024-10-24 00:50:52.254
231.0, -45903.19644250828, -48597.90040229564, -40874.880954609034, -53492.50775486324, -52645.77897140729, -45370.263799460394, 21459.082836995465, 47557.00201475644, 0.154, 0.97, 0.06, 192.0, 0.0, 0.0, 0.0, 0.0, 0.0, 0.0, 0.0, 0.0, 0.0, 1.729711252257936E9, 0.0, 2024-10-24 00:50:52.257
232.0, -45906.392741965385, -48618.039324049874, -40897.79149267572, -53524.44839768987, -52683.57577128122, -45405.020762088396, 21633.873478635967, 47770.952912682646, 0.154, 0.97, 0.06, 192.0, 0.0, 0.0, 0.0, 0.0, 0.0, 0.0, 0.0, 0.0, 0.0, 1.7297112522619107E9, 0.0, 2024-10-24 00:50:52.261
233.0, -45928.23039629822, -48649.7340976875, -40928.636900024045, -53560.03237486272, -52719.60678334317, -45442.45993405103, 22039.624695733153, 48204.375589415504, 0.154, 0.97, 0.06, 192.0, 0.0, 0.0, 0.0, 0.0, 0.0, 0.0, 0.0, 0.0, 0.0, 1.7297112522648382E9, 0.0, 2024-10-24 00:50:52.264
234.0, -45946.178847095834, -48655.88082741271, -40927.452257567915, -53555.91965388294, -52702.284181390314, -45432.46870427951, 22189.87312196173, 48336.76497182429, 0.154, 0.97, 0.06, 192.0, 0.0, 0.0, 0.0, 0.0, 0.0, 0.0, 0.0, 0.0, 0.0, 1.7297112522688801E9, 0.0, 2024-10-24 00:50:52.268
235.0, -45926.44225674179, -48630.51159745593, -40892.784701917735, -53523.643734889476, -52655.39022152308, -45392.88376484916, 21881.039068822753, 47987.47426122121, 0.154, 0.97, 0.06, 192.0, 0.0, 0.0, 0.0, 0.0, 0.0, 0.0, 0.0, 0.0, 0.0, 1.7297112522738228E9, 0.0, 2024-10-24 00:50:52.273
236.0, -45901.430654696305, -48609.299791967846, -40868.577762672634, -53498.43096714389, -52632.63614566757, -45361.233694700444, 21565.678306302823, 47655.461449082075, 0.154, 0.97, 0.06, 192.0, 0.0, 0.0, 0.0, 0.0, 0.0, 0.0, 0.0, 0.0, 0.0, 1.7297112522778735E9, 0.0, 2024-10-24 00:50:52.277
237.0, -45886.253820211154, -48615.11124552623, -40871.37173072955, -53513.384284184496, -52651.14339007657, -45387.3628839687, 21720.01710176672, 47847.44058220871, 0.154, 0.97, 0.06, 192.0, 0.0, 0.0, 0.0, 0.0, 0.0, 0.0, 0.0, 0.0, 0.0, 1.7297112522818673E9, 0.0, 2024-10-24 00:50:52.281
238.0, -45906.45979719875, -48643.36385051774, -40898.372638031564, -53544.09558106609, -52680.692396246486, -45423.259785563925, 22115.017129780907, 48267.653377968476, 0.154, 0.97, 0.06, 192.0, 0.0, 0.0, 0.0, 0.0, 0.0, 0.0, 0.0, 0.0, 0.0, 1.729711252285894E9, 0.0, 2024-10-24 00:50:52.285
239.0, -45944.05543137258, -48663.77099320543, -40918.9585946749, -53551.337546269606, -52687.62143702763, -45423.01391637491, 22279.905948627707, 48413.38675181708, 0.154, 0.97, 0.06, 192.0, 0.0, 0.0, 0.0, 0.0, 0.0, 0.0, 0.0, 0.0, 0.0, 1.7297112522899864E9, 0.0, 2024-10-24 00:50:52.289
240.0, -45929.70561143227, -48642.13450457269, -40894.326972285155, -53519.508662165244, -52654.607910467144, -45386.066482790295, 21962.555880851258, 48052.2943201416, 0.152, 0.968, 0.056, 192.0, 4.0, 192.0, 30.0, 64.0, 1.0, 192.0, 0.0, 0.0, 0.0, 1.7297112522929573E9, 0.0, 2024-10-24 00:50:52.292
241.0, -45904.157567519855, -48621.16856827361, -40872.73518714133, -53499.30268517765, -52636.30183175825, -45372.05193901681, 21665.210624362306, 47736.82179889939, 0.152, 0.968, 0.056, 192.0, 0.0, 0.0, 0.0, 0.0, 0.0, 0.0, 0.0, 0.0, 0.0, 1.729711252297032E9, 0.0, 2024-10-24 00:50:52.297
242.0, -45898.927259317315, -48630.51159745593, -40884.402797746996, -53514.63598187399, -52660.48641925889, -45388.79339561384, 21845.65625735, 47955.28774920556, 0.152, 0.968, 0.056, 192.0, 0.0, 0.0, 0.0, 0.0, 0.0, 0.0, 0.0, 0.0, 0.0, 1.7297112523021536E9, 0.0, 2024-10-24 00:50:52.302
243.0, -45918.73090490472, -48656.26080706845, -40911.29194632673, -53540.31813625314, -52688.96254169495, -45416.48720699397, 22265.10909379829, 48400.825071433195, 0.152, 0.968, 0.056, 192.0, 0.0, 0.0, 0.0, 0.0, 0.0, 0.0, 0.0, 0.0, 0.0, 1.7297112523062177E9, 0.0, 2024-10-24 00:50:52.306
244.0, -45934.73475393472, -48658.49598151398, -40915.53877777324, -53531.57860417111, -52674.120983376626, -45403.32202950979, 22394.61510117234, 48509.38749425262, 0.152, 0.968, 0.056, 192.0, 0.0, 0.0, 0.0, 0.0, 0.0, 0.0, 0.0, 0.0, 0.0, 1.7297112523101044E9, 0.0, 2024-10-24 00:50:52.310
245.0, -45928.61037595396, -48642.223911550514, -40902.17243458897, -53511.50673765025, -52657.51363724633, -45375.44940417402, 22078.069696196282, 48148.809152699614, 0.152, 0.968, 0.056, 192.0, 0.0, 0.0, 0.0, 0.0, 0.0, 0.0, 0.0, 0.0, 0.0, 1.729711252314083E9, 0.0, 2024-10-24 00:50:52.314
246.0, -45906.884480343404, -48625.035420064385, -40888.89549838251, -53499.168574710915, -52648.37177376411, -45366.978093025464, 21782.713744963854, 47836.28706172551, 0.152, 0.968, 0.056, 192.0, 0.0, 0.0, 0.0, 0.0, 0.0, 0.0, 0.0, 0.0, 0.0, 1.729711252318038E9, 0.0, 2024-10-24 00:50:52.318
247.0, -45904.582250664505, -48639.31818477133, -40903.49118751183, -53522.99553430027, -52670.8799804306, -45400.63982017515, 21961.818273284232, 48055.55767483207, 0.152, 0.968, 0.056, 192.0, 0.0, 0.0, 0.0, 0.0, 0.0, 0.0, 0.0, 0.0, 0.0, 1.7297112523209372E9, 0.0, 2024-10-24 00:50:52.320
248.0, -45919.334402005006, -48661.513467015444, -40925.46295231139, -53544.967299099844, -52696.04804468728, -45419.23647156197, 22363.36736242382, 48485.47112768544, 0.152, 0.968, 0.056, 192.0, 0.0, 0.0, 0.0, 0.0, 0.0, 0.0, 0.0, 0.0, 0.0, 1.7297112523249323E9, 0.0, 2024-10-24 00:50:52.324
249.0, -45937.573425480536, -48668.174286863126, -40926.51348430079, -53540.273432764225, -52681.13943113559, -45407.390047000656, 22502.998710036125, 48604.49416690996, 0.152, 0.968, 0.056, 192.0, 0.0, 0.0, 0.0, 0.0, 0.0, 0.0, 0.0, 0.0, 0.0, 1.7297112523298867E9, 0.0, 2024-10-24 00:50:52.329
250.0, -45925.1905590523, -48644.92847262961, -40903.535891000734, -53517.04997027516, -52653.64678545556, -45384.032474044856, 22179.01017415645, 48236.02565956422, 0.14200000000000002, 0.97, 0.06, 192.0, 4.0, 112.0, 30.0, 80.0, 1.0, 224.0, 0.0, 0.0, 0.0, 1.729711252334054E9, 0.0, 2024-10-24 00:50:52.334
251.0, -45900.804805851556, -48621.14621652916, -40884.0004663468, -53500.82260380061, -52635.161892791024, -45369.81676457128, 21867.225690749372, 47905.7562834926, 0.14200000000000002, 0.97, 0.06, 192.0, 0.0, 0.0, 0.0, 0.0, 0.0, 0.0, 0.0, 0.0, 0.0, 1.729711252337966E9, 0.0, 2024-10-24 00:50:52.337
252.0, -45898.0331895391, -48630.623356178214, -40899.02083862077, -53521.8332435886, -52663.0792216157, -45393.55431718282, 22039.244716077414, 48113.82867262705, 0.14200000000000002, 0.97, 0.06, 192.0, 0.0, 0.0, 0.0, 0.0, 0.0, 0.0, 0.0, 0.0, 0.0, 1.7297112523419619E9, 0.0, 2024-10-24 00:50:52.341
253.0, -45911.623050167924, -48650.829333165806, -40922.1101906431, -53546.017831089244, -52690.77303299583, -45421.4716460075, 22433.730653969127, 48532.74506720842, 0.14200000000000002, 0.97, 0.06, 192.0, 0.0, 0.0, 0.0, 0.0, 0.0, 0.0, 0.0, 0.0, 0.0, 1.7297112523462453E9, 0.0, 2024-10-24 00:50:52.346
254.0, -45933.48305624522, -48662.47459202702, -40927.63107152356, -53550.71169742486, -52685.3862625821, -45432.625166490696, 22585.74486800967, 48664.307435072355, 0.14200000000000002, 0.97, 0.06, 192.0, 0.0, 0.0, 0.0, 0.0, 0.0, 0.0, 0.0, 0.0, 0.0, 1.7297112523509593E9, 0.0, 2024-10-24 00:50:52.350
255.0, -45922.91068111786, -48639.429943493604, -40906.53102475775, -53524.40369420096, -52657.3795267796, -45394.314276494304, 22263.63387866424, 48298.31997136116, 0.14200000000000002, 0.97, 0.06, 192.0, 0.0, 0.0, 0.0, 0.0, 0.0, 0.0, 0.0, 0.0, 0.0, 1.7297112523540244E9, 0.0, 2024-10-24 00:50:52.354
0.0, -45898.65903838385, -48616.988792060474, -40887.822614648656, -53505.58352536959, -52647.2765382858, -45370.822593071774, 21957.81731102673, 47973.79499361456, 0.14200000000000002, 0.97, 0.06, 192.0, 0.0, 0.0, 0.0, 0.0, 0.0, 0.0, 0.0, 0.0, 0.0, 1.7297112523590624E9, 0.0, 2024-10-24 00:50:52.359
1.0, -45889.45011966826, -48623.38139097469, -40896.02570486376, -53522.41438894444, -52673.94216942098, -45396.52709919537, 22133.90435384564, 48187.477670607295, 0.14200000000000002, 0.97, 0.06, 192.0, 0.0, 0.0, 0.0, 0.0, 0.0, 0.0, 0.0, 0.0, 0.0, 1.7297112523629448E9, 0.0, 2024-10-24 00:50:52.362
2.0, -45904.47049194223, -48643.699126684565, -40911.47076028237, -53543.000345587774, -52691.84591672968, -45420.46581750701, 22541.086082587968, 48619.00044906145, 0.14200000000000002, 0.97, 0.06, 192.0, 0.0, 0.0, 0.0, 0.0, 0.0, 0.0, 0.0, 0.0, 0.0, 1.7297112523669653E9, 0.0, 2024-10-24 00:50:52.366
3.0, -45930.6890881883, -48656.707841957556, -40921.10436214261, -53541.90511010947, -52683.01697766984, -45411.74863716944, 22699.470543798274, 48754.31790999388, 0.14200000000000002, 0.97, 0.06, 192.0, 0.0, 0.0, 0.0, 0.0, 0.0, 0.0, 0.0, 0.0, 0.0, 1.7297112523719623E9, 0.0, 2024-10-24 00:50:52.371
4.0, -45905.65513439836, -48627.06942880982, -40887.75555941529, -53508.332789937594, -52644.77314290681, -45372.18604948355, 22363.09914149036, 48374.45001297593, 0.146, 0.968, 0.058, 192.0, 4.0, 144.0, 30.0, 64.0, 1.0, 208.0, 0.0, 0.0, 0.0, 1.7297112523761122E9, 0.0, 2024-10-24 00:50:52.376
5.0, -45884.7786050771, -48609.366847201214, -40871.885820852025, -53494.4747083753, -52633.5749189347, -45355.39988939761, 22056.343800585724, 48052.540189330604, 0.146, 0.968, 0.058, 192.0, 0.0, 0.0, 0.0, 0.0, 0.0, 0.0, 0.0, 0.0, 0.0, 1.7297112523791814E9, 0.0, 2024-10-24 00:50:52.379
6.0, -45876.44140439527, -48617.36877171621, -40878.881916866536, -53511.66319986143, -52657.35717503514, -45382.356093210714, 22224.428918889633, 48259.56204647566, 0.146, 0.968, 0.058, 192.0, 0.0, 0.0, 0.0, 0.0, 0.0, 0.0, 0.0, 0.0, 0.0, 1.7297112523841023E9, 0.0, 2024-10-24 00:50:52.384
7.0, -45888.645456867875, -48638.96055686004, -40898.037361864735, -53533.74672338328, -52686.79442248278, -45411.18984355806, 22611.941112511293, 48672.555228776364, 0.146, 0.968, 0.058, 192.0, 0.0, 0.0, 0.0, 0.0, 0.0, 0.0, 0.0, 0.0, 0.0, 1.7297112523871517E9, 0.0, 2024-10-24 00:50:52.387
8.0, -45920.96607935025, -48652.6845279556, -40910.44258003743, -53536.160711784454, -52682.972274180924, -45410.85456739123, 22751.192480467857, 48790.438329033655, 0.146, 0.968, 0.058, 192.0, 0.0, 0.0, 0.0, 0.0, 0.0, 0.0, 0.0, 0.0, 0.0, 1.729711252391072E9, 0.0, 2024-10-24 00:50:52.391
9.0, -45901.45300644076, -48621.10151304025, -40877.94314359941, -53500.62143810051, -52645.26488128482, -45372.02958727236, 22432.657770235273, 48427.3789438461, 0.146, 0.968, 0.058, 192.0, 0.0, 0.0, 0.0, 0.0, 0.0, 0.0, 0.0, 0.0, 0.0, 1.7297112523941762E9, 0.0, 2024-10-24 00:50:52.394
10.0, -45869.8252880365, -48589.49614638044, -40847.18714322891, -53469.55251330764, -52616.54288965975, -45337.36203162218, 22131.870345100207, 48108.531309191145, 0.146, 0.968, 0.058, 192.0, 0.0, 0.0, 0.0, 0.0, 0.0, 0.0, 0.0, 0.0, 0.0, 1.729711252398199E9, 0.0, 2024-10-24 00:50:52.398
11.0, -45868.864163024926, -48604.42711167659, -40863.68273063692, -53494.80998454213, -52648.01414585282, -45371.18022098306, 22320.74258574755, 48335.44621890142, 0.146, 0.968, 0.058, 192.0, 0.0, 0.0, 0.0, 0.0, 0.0, 0.0, 0.0, 0.0, 0.0, 1.729711252401068E9, 0.0, 2024-10-24 00:50:52.401
12.0, -45898.010837794645, -48638.62528069321, -40899.914908398976, -53532.62913616051, -52682.18996312499, -45413.246204047944, 22732.238201169755, 48774.23331430356, 0.146, 0.968, 0.058, 192.0, 0.0, 0.0, 0.0, 0.0, 0.0, 0.0, 0.0, 0.0, 0.0, 1.7297112524051068E9, 0.0, 2024-10-24 00:50:52.405
13.0, -45923.71534391825, -48646.3813360192, -40908.76619920328, -53533.433798960905, -52674.456259543455, -45409.44640749054, 22852.557641572672, 48872.26806548453, 0.146, 0.968, 0.058, 192.0, 0.0, 0.0, 0.0, 0.0, 0.0, 0.0, 0.0, 0.0, 0.0, 1.7297112524091945E9, 0.0, 2024-10-24 00:50:52.409
14.0, -45901.47535818522, -48619.53689092838, -40879.641876178015, -53504.5776968691, -52642.56032020573, -45369.99557852693, 22499.02009952308, 48473.87057231314, 0.148, 0.964, 0.056, 192.0, 4.0, 160.0, 30.0, 32.0, 1.0, 192.0, 0.0, 0.0, 0.0, 1.7297112524130821E9, 0.0, 2024-10-24 00:50:52.413
15.0, -45881.73876783118, -48605.164719243614, -40860.12880326853, -53491.05489147364, -52622.91313682951, -45347.64383407162, 22190.09663940628, 48147.35628931002, 0.148, 0.964, 0.056, 192.0, 0.0, 0.0, 0.0, 0.0, 0.0, 0.0, 0.0, 0.0, 0.0, 1.7297112524180937E9, 0.0, 2024-10-24 00:50:52.418
16.0, -45882.36461667593, -48625.169530531115, -40877.78668138822, -53520.20156624336, -52655.74784943436, -45379.003331542415, 22382.165179510735, 48378.36156825561, 0.148, 0.964, 0.056, 192.0, 0.0, 0.0, 0.0, 0.0, 0.0, 0.0, 0.0, 0.0, 0.0, 1.7297112524221463E9, 0.0, 2024-10-24 00:50:52.422
17.0, -45907.71149488825, -48657.35604254676, -40906.687486968935, -53556.36668877205, -52688.06847191673, -45421.40459077413, 22808.927036395915, 48828.5257015855, 0.148, 0.964, 0.056, 192.0, 0.0, 0.0, 0.0, 0.0, 0.0, 0.0, 0.0, 0.0, 0.0, 1.7297112524260857E9, 0.0, 2024-10-24 00:50:52.426
18.0, -45929.951480621276, -48659.92649315912, -40910.107303870594, -53549.21413054635, -52676.17734386651, -45411.63687844716, 22942.232840327364, 48936.66344126027, 0.148, 0.964, 0.056, 192.0, 0.0, 0.0, 0.0, 0.0, 0.0, 0.0, 0.0, 0.0, 0.0, 1.729711252430078E9, 0.0, 2024-10-24 00:50:52.430
19.0, -45914.998163580676, -48635.00429809145, -40887.5990972041, -53522.90612732246, -52646.985965607884, -45380.23267748746, 22625.37451092893, 48576.33096889627, 0.148, 0.964, 0.056, 192.0, 0.0, 0.0, 0.0, 0.0, 0.0, 0.0, 0.0, 0.0, 0.0, 1.7297112524341555E9, 0.0, 2024-10-24 00:50:52.434
20.0, -45885.493860899674, -48616.96644031602, -40866.40964346047, -53508.44454865987, -52634.75956139083, -45367.91686629258, 22320.3179026029, 48254.085869084105, 0.148, 0.964, 0.056, 192.0, 0.0, 0.0, 0.0, 0.0, 0.0, 0.0, 0.0, 0.0, 0.0, 1.7297112524380736E9, 0.0, 2024-10-24 00:50:52.438
21.0, -45890.90298305786, -48635.227815536, -40885.27451578075, -53537.904147851965, -52667.79543969577, -45408.06059933431, 22502.529323402563, 48473.11061300166, 0.148, 0.964, 0.056, 192.0, 0.0, 0.0, 0.0, 0.0, 0.0, 0.0, 0.0, 0.0, 0.0, 1.729711252443106E9, 0.0, 2024-10-24 00:50:52.443
22.0, -45906.951535576765, -48650.739926187984, -40905.2569753238, -53557.37251727254, -52692.695283018984, -45435.419134547614, 22880.51967388626, 48875.15144051927, 0.148, 0.964, 0.056, 192.0, 0.0, 0.0, 0.0, 0.0, 0.0, 0.0, 0.0, 0.0, 0.0, 1.7297112524470816E9, 0.0, 2024-10-24 00:50:52.447
23.0, -45931.33728877751, -48650.829333165806, -40907.268632324776, -53545.74961015578, -52678.792497967785, -45414.92258488209, 23012.50672489485, 48983.44564240523, 0.148, 0.964, 0.056, 192.0, 0.0, 0.0, 0.0, 0.0, 0.0, 0.0, 0.0, 0.0, 0.0, 1.729711252451178E9, 0.0, 2024-10-24 00:50:52.451
24.0, -45907.309163488055, -48623.47079795251, -40874.90330635349, -53512.669028361925, -52642.69443067246, -45378.28807571984, 22707.941854946836, 48635.8313126363, 0.146, 0.968, 0.054, 192.0, 4.0, 144.0, 30.0, 64.0, 1.0, 176.0, 0.0, 0.0, 0.0, 1.7297112524551435E9, 0.0, 2024-10-24 00:50:52.455
25.0, -45878.74363407417, -48604.069483765306, -40852.864486320555, -53494.80998454213, -52625.26006999732, -45361.41250865609, 22408.473182734633, 48319.397666382516, 0.146, 0.968, 0.054, 192.0, 0.0, 0.0, 0.0, 0.0, 0.0, 0.0, 0.0, 0.0, 0.0, 1.7297112524591372E9, 0.0, 2024-10-24 00:50:52.459
26.0, -45870.674654325805, -48612.69725712505, -40859.41354744596, -53508.39984517096, -52648.63999469757, -45382.69136937754, 22585.90133022086, 48533.79559919782, 0.146, 0.968, 0.054, 192.0, 0.0, 0.0, 0.0, 0.0, 0.0, 0.0, 0.0, 0.0, 0.0, 1.7297112524621253E9, 0.0, 2024-10-24 00:50:52.462
27.0, -45894.54631740407, -48635.317222513826, -40885.4980332253, -53530.32690648162, -52680.22300961292, -45412.66505869211, 22967.40090458404, 48938.0492494165, 0.146, 0.968, 0.054, 192.0, 0.0, 0.0, 0.0, 0.0, 0.0, 0.0, 0.0, 0.0, 0.0, 1.7297112524651124E9, 0.0, 2024-10-24 00:50:52.465
28.0, -45911.578346679016, -48632.791475390375, -40885.296867525205, -53515.59710688557, -52670.34353856368, -45395.70008465053, 23072.454103523985, 49019.07432306699, 0.146, 0.968, 0.054, 192.0, 0.0, 0.0, 0.0, 0.0, 0.0, 0.0, 0.0, 0.0, 0.0, 1.7297112524691174E9, 0.0, 2024-10-24 00:50:52.469
29.0, -45885.65032311086, -48599.04034126286, -40851.188105486406, -53474.559304065624, -52625.55064267524, -45349.722546305966, 22746.83389029907, 48651.20931282155, 0.146, 0.968, 0.054, 192.0, 0.0, 0.0, 0.0, 0.0, 0.0, 0.0, 0.0, 0.0, 0.0, 1.729711252476172E9, 0.0, 2024-10-24 00:50:52.476
30.0, -45862.53861934407, -48582.14242245465, -40833.641986088995, -53459.98596668077, -52612.40781693552, -45335.529188576846, 22455.411846090778, 48342.21879747138, 0.146, 0.968, 0.054, 192.0, 0.0, 0.0, 0.0, 0.0, 0.0, 0.0, 0.0, 0.0, 0.0, 1.7297112524812472E9, 0.0, 2024-10-24 00:50:52.481
31.0, -45856.25777915213, -48591.44074814806, -40843.7896780717, -53479.38728086797, -52635.05013406875, -45365.726395335965, 22646.027522805634, 48569.35722462621, 0.146, 0.968, 0.054, 192.0, 0.0, 0.0, 0.0, 0.0, 0.0, 0.0, 0.0, 0.0, 0.0, 1.7297112524843469E9, 0.0, 2024-10-24 00:50:52.484
32.0, -45880.5764771195, -48618.039324049874, -40874.45627146438, -53511.01499927223, -52672.89163743158, -45407.1665295561, 23031.75157687087, 48979.17645921427, 0.146, 0.968, 0.054, 192.0, 0.0, 0.0, 0.0, 0.0, 0.0, 0.0, 0.0, 0.0, 0.0, 1.7297112524871416E9, 0.0, 2024-10-24 00:50:52.487
33.0, -45908.40439896636, -48622.84494910776, -40886.347399514605, -53507.61753411502, -52668.66715772953, -45394.49309044994, 23165.526767435884, 49085.2354866547, 0.146, 0.968, 0.054, 192.0, 0.0, 0.0, 0.0, 0.0, 0.0, 0.0, 0.0, 0.0, 0.0, 1.729711252490256E9, 0.0, 2024-10-24 00:50:52.490
34.0, -45882.96811377622, -48582.947085255044, -40848.17061998494, -53464.05398417163, -52618.50984317182, -45334.0986769317, 22829.155365127965, 48705.412293125664, 0.14400000000000002, 0.974, 0.048, 192.0, 4.0, 128.0, 30.0, 112.0, 1.0, 128.0, 0.0, 0.0, 0.0, 1.7297112524942832E9, 0.0, 2024-10-24 00:50:52.494
35.0, -45867.947741502256, -48575.950989240526, -40837.352375668575, -53460.656519014425, -52606.26108721031, -45332.55640656429, 22539.49910873164, 48401.182699344485, 0.14400000000000002, 0.974, 0.048, 192.0, 0.0, 0.0, 0.0, 0.0, 0.0, 0.0, 0.0, 0.0, 0.0, 1.7297112524971817E9, 0.0, 2024-10-24 00:50:52.497
36.0, -45867.79127929107, -48595.464062150015, -40853.780907843226, -53488.19386818336, -52640.63807018258, -45372.34251169473, 22723.92335223238, 48623.13552178568, 0.14400000000000002, 0.974, 0.048, 192.0, 0.0, 0.0, 0.0, 0.0, 0.0, 0.0, 0.0, 0.0, 0.0, 1.7297112525012228E9, 0.0, 2024-10-24 00:50:52.501
37.0, -45892.02057028062, -48621.03445780688, -40881.80999539018, -53514.50187140726, -52670.00826239685, -45396.30358175082, 23092.347156089207, 49014.40280847583, 0.14400000000000002, 0.974, 0.048, 192.0, 0.0, 0.0, 0.0, 0.0, 0.0, 0.0, 0.0, 0.0, 0.0, 1.7297112525061977E9, 0.0, 2024-10-24 00:50:52.506
38.0, -45923.447122984784, -48634.87018762472, -40896.11511184157, -53519.44160693188, -52667.66132922904, -45392.59319217124, 23226.45762282105, 49122.71936210625, 0.14400000000000002, 0.974, 0.048, 192.0, 0.0, 0.0, 0.0, 0.0, 0.0, 0.0, 0.0, 0.0, 0.0, 1.7297112525102956E9, 0.0, 2024-10-24 00:50:52.510
39.0, -45906.61625940994, -48608.65159137864, -40870.36590222906, -53492.91008626343, -52637.30766025873, -45359.82553479976, 22917.221238281876, 48770.07588983487, 0.14400000000000002, 0.974, 0.048, 192.0, 0.0, 0.0, 0.0, 0.0, 0.0, 0.0, 0.0, 0.0, 0.0, 1.7297112525142772E9, 0.0, 2024-10-24 00:50:52.514
40.0, -45885.98559927769, -48592.178355715085, -40854.51851541025, -53478.828487256586, -52625.81886360871, -45342.65939505809, 22636.48332792322, 48473.02120602384, 0.14400000000000002, 0.974, 0.048, 192.0, 0.0, 0.0, 0.0, 0.0, 0.0, 0.0, 0.0, 0.0, 0.0, 1.7297112525202076E9, 0.0, 2024-10-24 00:50:52.520
41.0, -45882.18580272029, -48607.22107973351, -40867.84015510561, -53502.23076370129, -52654.8314279117, -45373.84007857324, 22817.733623711305, 48691.867135985754, 0.14400000000000002, 0.974, 0.048, 192.0, 0.0, 0.0, 0.0, 0.0, 0.0, 0.0, 0.0, 0.0, 0.0, 1.7297112525233903E9, 0.0, 2024-10-24 00:50:52.523
42.0, -45901.34124771848, -48634.62431843571, -40890.683637938935, -53531.824473360124, -52680.71474799094, -45406.071294077796, 23207.324529567308, 49104.63680084191, 0.14400000000000002, 0.974, 0.048, 192.0, 0.0, 0.0, 0.0, 0.0, 0.0, 0.0, 0.0, 0.0, 0.0, 1.7297112525261762E9, 0.0, 2024-10-24 00:50:52.526
43.0, -45920.60845143896, -48640.703992927556, -40893.92464088496, -53527.3317727246, -52669.89650367457, -45398.82932887427, 23293.08817304232, 49163.82422015956, 0.14400000000000002, 0.974, 0.048, 192.0, 0.0, 0.0, 0.0, 0.0, 0.0, 0.0, 0.0, 0.0, 0.0, 1.729711252530229E9, 0.0, 2024-10-24 00:50:52.530
44.0, -45900.7824541071, -48610.10445476824, -40866.81197486067, -53494.76528105322, -52633.418456723506, -45367.179258725555, 22955.55448002273, 48782.65992196321, 0.148, 0.972, 0.052000000000000005, 192.0, 4.0, 160.0, 30.0, 96.0, 1.0, 160.0, 0.0, 0.0, 0.0, 1.729711252534232E9, 0.0, 2024-10-24 00:50:52.534
45.0, -45877.04490149557, -48585.96457075651, -40844.124954238534, -53472.122963919996, -52617.03462803777, -45340.11129619018, 22664.132435814434, 48476.195153736495, 0.148, 0.972, 0.052000000000000005, 192.0, 0.0, 0.0, 0.0, 0.0, 0.0, 0.0, 0.0, 0.0, 0.0, 1.7297112525382657E9, 0.0, 2024-10-24 00:50:52.538
46.0, -45872.418090393316, -48600.96259128602, -40859.145326512495, -53494.58646709758, -52649.19878830895, -45367.78275582585, 22849.137824671012, 48702.7971390244, 0.148, 0.972, 0.052000000000000005, 192.0, 0.0, 0.0, 0.0, 0.0, 0.0, 0.0, 0.0, 0.0, 0.0, 1.7297112525413716E9, 0.0, 2024-10-24 00:50:52.541
47.0, -45894.36750344843, -48627.36000148774, -40887.17441405945, -53521.967354055334, -52681.11707939114, -45398.82932887427, 23245.724826541526, 49122.495844661695, 0.148, 0.972, 0.052000000000000005, 192.0, 0.0, 0.0, 0.0, 0.0, 0.0, 0.0, 0.0, 0.0, 0.0, 1.7297112525452223E9, 0.0, 2024-10-24 00:50:52.545
48.0, -45916.31691650354, -48632.83617887928, -40890.01308560528, -53515.664162118934, -52671.304663575254, -45387.42993920207, 23341.010313154497, 49190.802775717115, 0.148, 0.972, 0.052000000000000005, 192.0, 0.0, 0.0, 0.0, 0.0, 0.0, 0.0, 0.0, 0.0, 0.0, 1.7297112525492609E9, 0.0, 2024-10-24 00:50:52.549
49.0, -45885.8291370665, -48600.38144593018, -40855.90432356648, -53479.811964012624, -52634.29017475727, -45352.49416261842, 23006.94114052548, 48813.28181186698, 0.148, 0.972, 0.052000000000000005, 192.0, 0.0, 0.0, 0.0, 0.0, 0.0, 0.0, 0.0, 0.0, 0.0, 1.7297112525535457E9, 0.0, 2024-10-24 00:50:52.553
50.0, -45854.98372971818, -48576.71094855201, -40828.74695405328, -53458.75662073572, -52610.99965703484, -45335.39507811011, 22697.72710773076, 48490.16499402106, 0.148, 0.972, 0.052000000000000005, 192.0, 0.0, 0.0, 0.0, 0.0, 0.0, 0.0, 0.0, 0.0, 0.0, 1.7297112525571978E9, 0.0, 2024-10-24 00:50:52.557
51.0, -45862.2256949217, -48602.23664071997, -40848.28237870722, -53489.40086238395, -52642.76148590583, -45370.062633760295, 22904.614854409083, 48736.61532838528, 0.148, 0.972, 0.052000000000000005, 192.0, 0.0, 0.0, 0.0, 0.0, 0.0, 0.0, 0.0, 0.0, 0.0, 1.72971125256435E9, 0.0, 2024-10-24 00:50:52.564
52.0, -45885.359750432945, -48626.980021831994, -40875.797376131704, -53513.585449884595, -52674.79153571028, -45395.23069801697, 23295.0998300433, 49149.139124052424, 0.148, 0.972, 0.052000000000000005, 192.0, 0.0, 0.0, 0.0, 0.0, 0.0, 0.0, 0.0, 0.0, 0.0, 1.7297112525683076E9, 0.0, 2024-10-24 00:50:52.568
53.0, -45902.32472447452, -48622.5767281743, -40873.27162900825, -53499.325036922106, -52659.45823901394, -45376.209363485505, 23398.163723726717, 49224.66566856691, 0.148, 0.972, 0.052000000000000005, 192.0, 0.0, 0.0, 0.0, 0.0, 0.0, 0.0, 0.0, 0.0, 0.0, 1.7297112525712347E9, 0.0, 2024-10-24 00:50:52.571
54.0, -45885.33739868848, -48599.35326568523, -40844.37082342754, -53475.18515291037, -52624.3212967302, -45351.19776144002, 23069.257804066874, 48851.99503326357, 0.14400000000000002, 0.974, 0.048, 192.0, 4.0, 128.0, 30.0, 112.0, 1.0, 128.0, 0.0, 0.0, 0.0, 1.729711252574292E9, 0.0, 2024-10-24 00:50:52.574
55.0, -45871.83694503748, -48590.077291736285, -40830.021003487236, -53472.01120519772, -52608.00452327783, -45345.96745323747, 22772.516044678217, 48539.58470101174, 0.14400000000000002, 0.974, 0.048, 192.0, 0.0, 0.0, 0.0, 0.0, 0.0, 0.0, 0.0, 0.0, 0.0, 1.7297112525784287E9, 0.0, 2024-10-24 00:50:52.578
56.0, -45871.2781514261, -48603.66715236511, -40842.53798038221, -53499.034464244185, -52637.93350910348, -45377.84104083074, 22975.64869828805, 48783.308122552415, 0.14400000000000002, 0.974, 0.048, 192.0, 0.0, 0.0, 0.0, 0.0, 0.0, 0.0, 0.0, 0.0, 0.0, 1.7297112525833805E9, 0.0, 2024-10-24 00:50:52.583
57.0, -45892.31114295854, -48623.627260163696, -40869.13655628402, -53521.94500231087, -52668.48834377389, -45399.49988120793, 23379.879996762276, 49215.054418451124, 0.14400000000000002, 0.974, 0.048, 192.0, 0.0, 0.0, 0.0, 0.0, 0.0, 0.0, 0.0, 0.0, 0.0, 1.729711252586328E9, 0.0, 2024-10-24 00:50:52.586
58.0, -45916.83100662602, -48627.98585033249, -40874.411567975476, -53515.86532781903, -52653.84795115566, -45384.390101956145, 23498.701870286688, 49308.19413759639, 0.14400000000000002, 0.974, 0.048, 192.0, 0.0, 0.0, 0.0, 0.0, 0.0, 0.0, 0.0, 0.0, 0.0, 1.7297112525902643E9, 0.0, 2024-10-24 00:50:52.590
59.0, -45895.641552882385, -48597.98980927346, -40847.16479148445, -53487.05392921614, -52626.154139775535, -45353.45528763, 23146.8630608157, 48914.69167646071, 0.14400000000000002, 0.974, 0.048, 192.0, 0.0, 0.0, 0.0, 0.0, 0.0, 0.0, 0.0, 0.0, 0.0, 1.729711252594267E9, 0.0, 2024-10-24 00:50:52.594
60.0, -45871.52402061511, -48578.052053219326, -40827.15998019696, -53466.95971095082, -52608.13863374456, -45327.70607801749, 22832.888106452003, 48588.15504171313, 0.14400000000000002, 0.974, 0.048, 192.0, 0.0, 0.0, 0.0, 0.0, 0.0, 0.0, 0.0, 0.0, 0.0, 1.7297112525972948E9, 0.0, 2024-10-24 00:50:52.597
61.0, -45873.334511915986, -48594.078253993786, -40845.667224605946, -53491.01018798473, -52639.05109632625, -45361.63602610064, 23029.65051289207, 48824.94942247265, 0.14400000000000002, 0.974, 0.048, 192.0, 0.0, 0.0, 0.0, 0.0, 0.0, 0.0, 0.0, 0.0, 0.0, 1.7297112526012712E9, 0.0, 2024-10-24 00:50:52.601
62.0, -45893.47343367022, -48618.24048974997, -40873.87512610854, -53519.26279297624, -52670.58940775268, -45397.17529978458, 23401.516485395015, 49220.06120920911, 0.14400000000000002, 0.974, 0.048, 192.0, 0.0, 0.0, 0.0, 0.0, 0.0, 0.0, 0.0, 0.0, 0.0, 1.729711252605391E9, 0.0, 2024-10-24 00:50:52.605
63.0, -45920.876672372426, -48630.10926605574, -40884.38044600254, -53521.050932532664, -52670.6341112416, -45393.01787531589, 23510.7494605481, 49301.265096815245, 0.14400000000000002, 0.974, 0.048, 192.0, 0.0, 0.0, 0.0, 0.0, 0.0, 0.0, 0.0, 0.0, 0.0, 1.7297112526092837E9, 0.0, 2024-10-24 00:50:52.609
64.0, -45905.208099509255, -48598.7721203294, -40860.64289339101, -53488.7750135392, -52638.98404109288, -45356.137496964635, 23192.59472997126, 48938.295118605514, 0.14200000000000002, 0.98, 0.052000000000000005, 192.0, 4.0, 112.0, 30.0, 160.0, 1.0, 160.0, 0.0, 0.0, 0.0, 1.7297112526133327E9, 0.0, 2024-10-24 00:50:52.613
65.0, -45882.18580272029, -48578.052053219326, -40842.22505595983, -53469.57486505209, -52620.834424595174, -45334.72452577645, 22884.230063465842, 48614.10541702574, 0.14200000000000002, 0.98, 0.052000000000000005, 192.0, 0.0, 0.0, 0.0, 0.0, 0.0, 0.0, 0.0, 0.0, 0.0, 1.7297112526173563E9, 0.0, 2024-10-24 00:50:52.617
66.0, -45883.23633470969, -48594.43588190507, -40863.86154459257, -53496.374606654004, -52660.754640192354, -45372.94600879503, 23076.499769270395, 48847.18940820568, 0.14200000000000002, 0.98, 0.052000000000000005, 192.0, 0.0, 0.0, 0.0, 0.0, 0.0, 0.0, 0.0, 0.0, 0.0, 1.729711252622318E9, 0.0, 2024-10-24 00:50:52.622
67.0, -45892.10997725844, -48606.32700995529, -40880.60300118959, -53513.76426384023, -52681.43000381351, -45399.11990155219, 23458.759302945055, 49254.482895670284, 0.14200000000000002, 0.98, 0.052000000000000005, 192.0, 0.0, 0.0, 0.0, 0.0, 0.0, 0.0, 0.0, 0.0, 0.0, 1.7297112526254687E9, 0.0, 2024-10-24 00:50:52.625
68.0, -45923.0894950735, -48617.413475205125, -40891.868280395065, -53518.63694413149, -52676.17734386651, -45401.019799830894, 23562.27023151758, 49328.91420470646, 0.14200000000000002, 0.98, 0.052000000000000005, 192.0, 0.0, 0.0, 0.0, 0.0, 0.0, 0.0, 0.0, 0.0, 0.0, 1.72971125262941E9, 0.0, 2024-10-24 00:50:52.629
69.0, -45897.250878483166, -48588.13268996867, -40862.47573643634, -53485.66812105991, -52643.81201789523, -45359.22203769947, 23223.529544297406, 48948.33105186594, 0.14200000000000002, 0.98, 0.052000000000000005, 192.0, 0.0, 0.0, 0.0, 0.0, 0.0, 0.0, 0.0, 0.0, 0.0, 1.729711252633325E9, 0.0, 2024-10-24 00:50:52.633
70.0, -45868.88651476938, -48575.16867818459, -40841.822724559635, -53473.799344754145, -52624.85773859713, -45342.68174680254, 22920.484592972352, 48633.216158535026, 0.14200000000000002, 0.98, 0.052000000000000005, 192.0, 0.0, 0.0, 0.0, 0.0, 0.0, 0.0, 0.0, 0.0, 0.0, 1.7297112526373963E9, 0.0, 2024-10-24 00:50:52.637
71.0, -45868.37242464691, -48592.603038859736, -40854.22794273233, -53497.80511829915, -52654.540855233776, -45373.750671595415, 23115.838839511736, 48870.01053929455, 0.14200000000000002, 0.98, 0.052000000000000005, 192.0, 0.0, 0.0, 0.0, 0.0, 0.0, 0.0, 0.0, 0.0, 0.0, 1.7297112526415207E9, 0.0, 2024-10-24 00:50:52.641
72.0, -45886.27617195561, -48612.22787049149, -40872.98105633033, -53516.848804575064, -52674.255093843356, -45396.37063698419, 23478.630003765822, 49253.4770671698, 0.14200000000000002, 0.98, 0.052000000000000005, 192.0, 0.0, 0.0, 0.0, 0.0, 0.0, 0.0, 0.0, 0.0, 0.0, 1.7297112526454551E9, 0.0, 2024-10-24 00:50:52.645
73.0, -45909.07495130002, -48619.26866999491, -40877.78668138822, -53510.299743449665, -52667.16959085102, -45381.730244365965, 23581.537435238057, 49327.08136166113, 0.14200000000000002, 0.98, 0.052000000000000005, 192.0, 0.0, 0.0, 0.0, 0.0, 0.0, 0.0, 0.0, 0.0, 0.0, 1.729711252650368E9, 0.0, 2024-10-24 00:50:52.650
74.0, -45894.38985519289, -48596.0675592503, -40854.4961636658, -53483.34353963656, -52638.13467480358, -45348.224979427454, 23241.366236372738, 48945.76060125358, 0.14200000000000002, 0.98, 0.052000000000000005, 192.0, 0.0, 0.0, 0.0, 0.0, 0.0, 0.0, 0.0, 0.0, 0.0, 1.7297112526533418E9, 0.0, 2024-10-24 00:50:52.653
75.0, -45867.679520568796, -48575.883934007164, -40831.13859071, -53466.95971095082, -52612.1172442576, -45334.76922926536, 22927.614799453593, 48619.00044906145, 0.14400000000000002, 0.964, 0.05, 192.0, 4.0, 128.0, 30.0, 32.0, 1.0, 144.0, 0.0, 0.0, 0.0, 1.7297112526575248E9, 0.0, 2024-10-24 00:50:52.657
76.0, -45869.132383958386, -48595.598172616745, -40847.70123335138, -53496.62047584301, -52643.67790742849, -45373.057767517304, 23131.48506063045, 48860.62280662332, 0.14400000000000002, 0.964, 0.05, 192.0, 0.0, 0.0, 0.0, 0.0, 0.0, 0.0, 0.0, 0.0, 0.0, 1.7297112526613908E9, 0.0, 2024-10-24 00:50:52.661
77.0, -45886.85731731145, -48621.749713629455, -40872.48931795231, -53526.661220390946, -52679.75362297936, -45406.965363856005, 23552.882498846353, 49304.66256197245, 0.14400000000000002, 0.964, 0.05, 192.0, 0.0, 0.0, 0.0, 0.0, 0.0, 0.0, 0.0, 0.0, 0.0, 1.7297112526653724E9, 0.0, 2024-10-24 00:50:52.665
78.0, -45907.95736407726, -48618.84398685026, -40874.23275401983, -53513.45133941786, -52657.468933757424, -45384.97124731198, 23649.374979659915, 49373.058900005686, 0.14400000000000002, 0.964, 0.05, 192.0, 0.0, 0.0, 0.0, 0.0, 0.0, 0.0, 0.0, 0.0, 0.0, 1.729711252669448E9, 0.0, 2024-10-24 00:50:52.669
79.0, -45890.2324307242, -48587.03745449036, -40846.96362578435, -53485.91399024892, -52624.85773859713, -45357.07627023176, 23291.344736974806, 48973.655578333804, 0.14400000000000002, 0.964, 0.05, 192.0, 0.0, 0.0, 0.0, 0.0, 0.0, 0.0, 0.0, 0.0, 0.0, 1.729711252673526E9, 0.0, 2024-10-24 00:50:52.673
80.0, -45862.628026321894, -48567.90436123662, -40831.65268083247, -53473.508772076224, -52613.3689419471, -45343.844037514216, 22992.837189774178, 48663.52512401642, 0.14400000000000002, 0.964, 0.05, 192.0, 0.0, 0.0, 0.0, 0.0, 0.0, 0.0, 0.0, 0.0, 0.0, 1.7297112526784155E9, 0.0, 2024-10-24 00:50:52.678
81.0, -45863.343282144466, -48587.70800682402, -40853.646797376496, -53501.58256311209, -52651.590424965674, -45381.93141006606, 23192.706488693537, 48905.14748157829, 0.14400000000000002, 0.964, 0.05, 192.0, 0.0, 0.0, 0.0, 0.0, 0.0, 0.0, 0.0, 0.0, 0.0, 1.7297112526815083E9, 0.0, 2024-10-24 00:50:52.681
82.0, -45884.711549843734, -48609.83623383477, -40881.27355352325, -53524.202528500864, -52683.30755034775, -45406.473625477985, 23585.739563195653, 49324.08622790411, 0.14400000000000002, 0.964, 0.05, 192.0, 0.0, 0.0, 0.0, 0.0, 0.0, 0.0, 0.0, 0.0, 0.0, 1.7297112526854525E9, 0.0, 2024-10-24 00:50:52.685
83.0, -45901.81063435205, -48607.399893689144, -40882.502899468294, -53511.283220205696, -52667.527218762305, -45383.29486647784, 23672.151407259873, 49382.33487395464, 0.14400000000000002, 0.964, 0.05, 192.0, 0.0, 0.0, 0.0, 0.0, 0.0, 0.0, 0.0, 0.0, 0.0, 1.7297112526906152E9, 0.0, 2024-10-24 00:50:52.690
84.0, -45886.49968940016, -48580.33193115377, -40856.99955904479, -53481.555400080135, -52633.79843637925, -45351.44363062902, 23331.443766527627, 49000.231802491166, 0.14400000000000002, 0.964, 0.05, 192.0, 0.0, 0.0, 0.0, 0.0, 0.0, 0.0, 0.0, 0.0, 0.0, 1.729711252693478E9, 0.0, 2024-10-24 00:50:52.693
85.0, -45867.05367172405, -48565.9150559801, -40842.85090480458, -53473.39701335395, -52627.60700316513, -45351.533037606845, 23037.451271706974, 48692.11300517476, 0.14400000000000002, 0.968, 0.048, 192.0, 4.0, 128.0, 30.0, 64.0, 1.0, 128.0, 0.0, 0.0, 0.0, 1.729711252697466E9, 0.0, 2024-10-24 00:50:52.697
86.0, -45871.03228223709, -48582.164774199104, -40863.88389633702, -53494.31824616412, -52660.50877100334, -45363.67003484607, 23243.959038729554, 48940.10560990639, 0.14400000000000002, 0.968, 0.048, 192.0, 0.0, 0.0, 0.0, 0.0, 0.0, 0.0, 0.0, 0.0, 0.0, 1.7297112527014332E9, 0.0, 2024-10-24 00:50:52.701
87.0, -45886.56674463353, -48602.23664071997, -40884.22398379135, -53515.954734796855, -52683.10638464766, -45390.02274155888, 23625.480964837192, 49347.53320783773, 0.14400000000000002, 0.968, 0.048, 192.0, 0.0, 0.0, 0.0, 0.0, 0.0, 0.0, 0.0, 0.0, 0.0, 1.7297112527064714E9, 0.0, 2024-10-24 00:50:52.706
88.0, -45913.05356181307, -48609.97034430151, -40890.23660304983, -53515.15007199646, -52672.31049207575, -45386.93820082405, 23695.06194532656, 49392.080234537156, 0.14400000000000002, 0.968, 0.048, 192.0, 0.0, 0.0, 0.0, 0.0, 0.0, 0.0, 0.0, 0.0, 0.0, 1.7297112527094302E9, 0.0, 2024-10-24 00:50:52.709
89.0, -45898.16730000583, -48588.31150392431, -40868.62246616155, -53489.534972850684, -52646.2260062964, -45351.13070620665, 23363.272650631985, 49020.638945178864, 0.14400000000000002, 0.968, 0.048, 192.0, 0.0, 0.0, 0.0, 0.0, 0.0, 0.0, 0.0, 0.0, 0.0, 1.7297112527144573E9, 0.0, 2024-10-24 00:50:52.714
90.0, -45876.351997417456, -48574.833402017764, -40846.96362578435, -53477.26386514472, -52621.01323855081, -45335.61859555467, 23078.24320533791, 48723.36074392328, 0.14400000000000002, 0.968, 0.048, 192.0, 0.0, 0.0, 0.0, 0.0, 0.0, 0.0, 0.0, 0.0, 0.0, 1.7297112527174401E9, 0.0, 2024-10-24 00:50:52.717
91.0, -45867.85833452443, -48586.32219866779, -40853.423279931936, -53495.9275717649, -52643.901424873045, -45363.44651740152, 23268.56830937485, 48955.97534846966, 0.14400000000000002, 0.968, 0.048, 192.0, 0.0, 0.0, 0.0, 0.0, 0.0, 0.0, 0.0, 0.0, 0.0, 1.729711252721458E9, 0.0, 2024-10-24 00:50:52.721
92.0, -45892.24408772518, -48612.38433270268, -40880.04420757821, -53521.98970579979, -52680.826506713216, -45391.07327354828, 23641.06013072254, 49351.37770788404, 0.14400000000000002, 0.968, 0.048, 192.0, 0.0, 0.0, 0.0, 0.0, 0.0, 0.0, 0.0, 0.0, 0.0, 1.7297112527254422E9, 0.0, 2024-10-24 00:50:52.725
93.0, -45912.60652692396, -48613.077236780795, -40880.558297700685, -53513.33958069558, -52663.59331173817, -45377.93044780856, 23710.372890278446, 49391.99082755933, 0.14400000000000002, 0.968, 0.048, 192.0, 0.0, 0.0, 0.0, 0.0, 0.0, 0.0, 0.0, 0.0, 0.0, 1.72971125273146E9, 0.0, 2024-10-24 00:50:52.731
94.0, -45883.75042483216, -48581.04718697634, -40843.074422249134, -53478.8731907455, -52618.107511771625, -45341.09477294621, 23355.158967394706, 48998.22014549019, 0.14400000000000002, 0.968, 0.048, 192.0, 0.0, 0.0, 0.0, 0.0, 0.0, 0.0, 0.0, 0.0, 0.0, 1.7297112527344756E9, 0.0, 2024-10-24 00:50:52.734
95.0, -45869.780584547596, -48574.274608406384, -40830.44568663189, -53475.900408732945, -52612.027837279784, -45345.54277009282, 23088.547359531804, 48723.383095667734, 0.14400000000000002, 0.966, 0.05, 192.0, 4.0, 128.0, 30.0, 48.0, 1.0, 144.0, 0.0, 0.0, 0.0, 1.7297112527375112E9, 0.0, 2024-10-24 00:50:52.737
96.0, -45873.13334621589, -48590.94900977004, -40850.24933221928, -53496.26284793173, -52648.662346442026, -45368.76623258188, 23313.338853518828, 48994.73327335516, 0.14400000000000002, 0.966, 0.05, 192.0, 0.0, 0.0, 0.0, 0.0, 0.0, 0.0, 0.0, 0.0, 0.0, 1.729711252741464E9, 0.0, 2024-10-24 00:50:52.741
97.0, -45891.35001794696, -48612.83136759179, -40875.23858252032, -53518.905165064956, -52674.433907799, -45393.80018637183, 23700.940454118307, 49410.609830690606, 0.14400000000000002, 0.966, 0.05, 192.0, 0.0, 0.0, 0.0, 0.0, 0.0, 0.0, 0.0, 0.0, 0.0, 1.7297112527455168E9, 0.0, 2024-10-24 00:50:52.745
98.0, -45911.354829234464, -48610.707951868535, -40868.80128011719, -53502.90131603496, -52646.09189582967, -45368.989750026434, 23772.04135323064, 49457.39203183557, 0.14400000000000002, 0.966, 0.05, 192.0, 0.0, 0.0, 0.0, 0.0, 0.0, 0.0, 0.0, 0.0, 0.0, 1.7297112527495174E9, 0.0, 2024-10-24 00:50:52.749
99.0, -45891.282962713594, -48583.19295444405, -40838.2911489357, -53470.312472619116, -52606.4175494215, -45326.78965649482, 23430.7302153981, 49079.9828267077, 0.14400000000000002, 0.966, 0.05, 192.0, 0.0, 0.0, 0.0, 0.0, 0.0, 0.0, 0.0, 0.0, 0.0, 1.7297112527535243E9, 0.0, 2024-10-24 00:50:52.753
100.0, -45866.13725020138, -48565.691538535546, -40821.2367679163, -53457.4155160684, -52598.50503188432, -45316.083170900725, 23131.552115863815, 48770.03118634596, 0.14400000000000002, 0.966, 0.05, 192.0, 0.0, 0.0, 0.0, 0.0, 0.0, 0.0, 0.0, 0.0, 0.0, 1.7297112527574923E9, 0.0, 2024-10-24 00:50:52.757
101.0, -45870.89817177036, -48586.031625989875, -40843.141477482495, -53488.17151643891, -52634.31252650172, -45354.72933706395, 23337.6575514862, 49020.147206800844, 0.14400000000000002, 0.966, 0.05, 192.0, 0.0, 0.0, 0.0, 0.0, 0.0, 0.0, 0.0, 0.0, 0.0, 1.7297112527625074E9, 0.0, 2024-10-24 00:50:52.762
102.0, -45878.11778522942, -48596.291076694855, -40857.22307648934, -53502.70015033486, -52647.85768364164, -45371.1578692386, 23734.13279463444, 49444.83035145168, 0.14400000000000002, 0.966, 0.05, 192.0, 0.0, 0.0, 0.0, 0.0, 0.0, 0.0, 0.0, 0.0, 0.0, 1.7297112527654896E9, 0.0, 2024-10-24 00:50:52.765
103.0, -45898.435520939296, -48593.96649527151, -40862.028701547235, -53494.09472871957, -52639.60988993763, -45362.21717145648, 23791.487370906758, 49477.06156695623, 0.14400000000000002, 0.966, 0.05, 192.0, 0.0, 0.0, 0.0, 0.0, 0.0, 0.0, 0.0, 0.0, 0.0, 1.729711252768672E9, 0.0, 2024-10-24 00:50:52.768
104.0, -45879.99533176367, -48562.1599629116, -40838.78288731371, -53461.39412658145, -52615.537061159266, -45332.04231644182, 23433.032445077, 49081.94978021977, 0.14400000000000002, 0.966, 0.05, 192.0, 0.0, 0.0, 0.0, 0.0, 0.0, 0.0, 0.0, 0.0, 0.0, 1.7297112527735968E9, 0.0, 2024-10-24 00:50:52.773
105.0, -45863.23152342219, -48545.23969235894, -40831.250349432274, -53448.7653909642, -52619.918003072504, -45318.36304883517, 23142.34800843573, 48783.375177785776, 0.14400000000000002, 0.968, 0.056, 192.0, 4.0, 128.0, 30.0, 64.0, 1.0, 192.0, 0.0, 0.0, 0.0, 1.7297112527775524E9, 0.0, 2024-10-24 00:50:52.777
106.0, -45869.93704675878, -48565.468021090994, -40857.17837300043, -53480.70603379083, -52658.67592795801, -45360.183162711044, 23359.271688374483, 49045.56114024653, 0.14400000000000002, 0.968, 0.056, 192.0, 0.0, 0.0, 0.0, 0.0, 0.0, 0.0, 0.0, 0.0, 0.0, 1.7297112527815623E9, 0.0, 2024-10-24 00:50:52.781
107.0, -45891.573535391515, -48593.74297782695, -40885.47568148085, -53512.82549057311, -52687.55438179426, -45399.11990155219, 23735.876230701953, 49449.83714220967, 0.14400000000000002, 0.968, 0.056, 192.0, 0.0, 0.0, 0.0, 0.0, 0.0, 0.0, 0.0, 0.0, 0.0, 1.7297112527855542E9, 0.0, 2024-10-24 00:50:52.785
108.0, -45915.10992230295, -48599.97911452998, -40889.990733860825, -53507.997513770766, -52674.255093843356, -45385.910020579104, 23781.47378939078, 49469.28315988579, 0.14400000000000002, 0.968, 0.056, 192.0, 0.0, 0.0, 0.0, 0.0, 0.0, 0.0, 0.0, 0.0, 0.0, 1.729711252789652E9, 0.0, 2024-10-24 00:50:52.789
109.0, -45898.435520939296, -48576.97916948547, -40863.39215795901, -53481.46599310231, -52640.839235882675, -45349.38727013913, 23447.516375484036, 49098.0877397165, 0.14400000000000002, 0.968, 0.056, 192.0, 0.0, 0.0, 0.0, 0.0, 0.0, 0.0, 0.0, 0.0, 0.0, 1.729711252793564E9, 0.0, 2024-10-24 00:50:52.793
110.0, -45877.42488115131, -48568.396099614634, -40848.260026962766, -53477.4203273559, -52636.346535247154, -45349.58843583923, 23189.465485747514, 48832.70547779864, 0.14400000000000002, 0.968, 0.056, 192.0, 0.0, 0.0, 0.0, 0.0, 0.0, 0.0, 0.0, 0.0, 0.0, 1.7297112527965665E9, 0.0, 2024-10-24 00:50:52.796
111.0, -45878.006026507144, -48585.04814923384, -40861.42520444694, -53496.240496187274, -52660.687584958985, -45364.56410462429, 23411.038328532974, 49100.14410020639, 0.14400000000000002, 0.968, 0.056, 192.0, 0.0, 0.0, 0.0, 0.0, 0.0, 0.0, 0.0, 0.0, 0.0, 1.729711252801542E9, 0.0, 2024-10-24 00:50:52.801
112.0, -45893.56284064804, -48609.59036464577, -40876.490280209815, -53518.83810983159, -52673.04809964277, -45385.79826185683, 23777.539882366644, 49494.98766600939, 0.14400000000000002, 0.968, 0.056, 192.0, 0.0, 0.0, 0.0, 0.0, 0.0, 0.0, 0.0, 0.0, 0.0, 1.7297112528055391E9, 0.0, 2024-10-24 00:50:52.805
113.0, -45898.65903838385, -48602.14723374215, -40864.86737309305, -53502.23076370129, -52648.170608064014, -45369.16856398208, 23831.988731859772, 49523.62025065664, 0.14400000000000002, 0.968, 0.056, 192.0, 0.0, 0.0, 0.0, 0.0, 0.0, 0.0, 0.0, 0.0, 0.0, 1.729711252809647E9, 0.0, 2024-10-24 00:50:52.809
114.0, -45885.359750432945, -48577.44855611904, -40840.45926814786, -53475.0733941881, -52617.88399432707, -45332.55640656429, 23484.284995113016, 49139.080839047536, 0.14400000000000002, 0.968, 0.056, 192.0, 0.0, 0.0, 0.0, 0.0, 0.0, 0.0, 0.0, 0.0, 0.0, 1.7297112528136027E9, 0.0, 2024-10-24 00:50:52.813
115.0, -45865.75727054564, -48559.43305008806, -40819.29216614868, -53458.063716657605, -52599.868488296095, -45309.60116500869, 23216.332282582796, 48863.081498513406, 0.14400000000000002, 0.962, 0.056, 192.0, 4.0, 128.0, 30.0, 16.0, 1.0, 192.0, 0.0, 0.0, 0.0, 1.7297112528176892E9, 0.0, 2024-10-24 00:50:52.817
116.0, -45852.88266573938, -48569.20076241503, -40827.42820113042, -53474.17932440989, -52627.60700316513, -45336.62442405515, 23420.67193039321, 49114.180995724324, 0.14400000000000002, 0.962, 0.056, 192.0, 0.0, 0.0, 0.0, 0.0, 0.0, 0.0, 0.0, 0.0, 0.0, 1.7297112528218136E9, 0.0, 2024-10-24 00:50:52.821
117.0, -45876.061424739535, -48596.022855761395, -40857.49129742281, -53504.01890325772, -52660.061736114236, -45373.482450661955, 23796.740030853754, 49518.79227385429, 0.14400000000000002, 0.962, 0.056, 192.0, 0.0, 0.0, 0.0, 0.0, 0.0, 0.0, 0.0, 0.0, 0.0, 1.7297112528248727E9, 0.0, 2024-10-24 00:50:52.824
118.0, -45902.66000064135, -48601.85666106423, -40863.70508238138, -53500.44262414487, -52644.70608767344, -45362.55244762331, 23846.96440064483, 49543.17802705503, 0.14400000000000002, 0.962, 0.056, 192.0, 0.0, 0.0, 0.0, 0.0, 0.0, 0.0, 0.0, 0.0, 0.0, 1.7297112528287895E9, 0.0, 2024-10-24 00:50:52.828
119.0, -45882.25285795365, -48575.50395435142, -40839.52049488074, -53473.35230986504, -52615.29119197025, -45329.47186582945, 23500.758230776577, 49160.605568957995, 0.14400000000000002, 0.962, 0.056, 192.0, 0.0, 0.0, 0.0, 0.0, 0.0, 0.0, 0.0, 0.0, 0.0, 1.7297112528337984E9, 0.0, 2024-10-24 00:50:52.833
120.0, -45860.21403792072, -48560.304768121816, -40822.89079700599, -53461.59529228155, -52600.3155231852, -45317.759551734875, 23207.54804701186, 48861.71804210163, 0.14400000000000002, 0.962, 0.056, 192.0, 0.0, 0.0, 0.0, 0.0, 0.0, 0.0, 0.0, 0.0, 0.0, 1.7297112528376532E9, 0.0, 2024-10-24 00:50:52.837
121.0, -45858.53765708657, -48571.70415779402, -40836.88298903501, -53481.845972758056, -52627.56229967622, -45345.81099102629, 23403.416383673717, 49104.413283397356, 0.14400000000000002, 0.962, 0.056, 192.0, 0.0, 0.0, 0.0, 0.0, 0.0, 0.0, 0.0, 0.0, 0.0, 1.729711252841893E9, 0.0, 2024-10-24 00:50:52.841
122.0, -45887.37140743392, -48598.52625114039, -40867.63898940552, -53513.47369116231, -52661.69341345947, -45381.81965134379, 23776.154074210415, 49503.235459713396, 0.14400000000000002, 0.962, 0.056, 192.0, 0.0, 0.0, 0.0, 0.0, 0.0, 0.0, 0.0, 0.0, 0.0, 1.7297112528456504E9, 0.0, 2024-10-24 00:50:52.845
123.0, -45903.241145997185, -48595.8216900613, -40867.28136149423, -53502.65544684594, -52647.678869685995, -45366.01696801388, 23834.782699916686, 49534.23732927291, 0.14400000000000002, 0.962, 0.056, 192.0, 0.0, 0.0, 0.0, 0.0, 0.0, 0.0, 0.0, 0.0, 0.0, 1.7297112528499076E9, 0.0, 2024-10-24 00:50:52.849
124.0, -45877.69310208477, -48566.67501529158, -40838.46996289134, -53472.882923231475, -52616.09585477065, -45332.936386220026, 23488.285957370517, 49154.77176365516, 0.14400000000000002, 0.962, 0.056, 192.0, 0.0, 0.0, 0.0, 0.0, 0.0, 0.0, 0.0, 0.0, 0.0, 1.7297112528528626E9, 0.0, 2024-10-24 00:50:52.852
125.0, -45860.79518327656, -48555.23092213046, -40829.55161685367, -53472.01120519772, -52610.910250057015, -45336.155037421595, 23181.64237518816, 48841.75793430304, 0.148, 0.968, 0.06, 192.0, 4.0, 160.0, 30.0, 64.0, 1.0, 224.0, 0.0, 0.0, 0.0, 1.7297112528566515E9, 0.0, 2024-10-24 00:50:52.856
126.0, -45869.26649442512, -48576.19685842954, -40857.893628823, -53504.53299338019, -52652.81977091072, -45374.175354740066, 23412.8264680894, 49119.81363532706, 0.148, 0.968, 0.06, 192.0, 0.0, 0.0, 0.0, 0.0, 0.0, 0.0, 0.0, 0.0, 0.0, 1.7297112528616543E9, 0.0, 2024-10-24 00:50:52.861
127.0, -45883.57161087652, -48591.6195621037, -40876.24441102081, -53520.290973221185, -52673.71865197643, -45389.82157585878, 23781.831417302063, 49519.75339886587, 0.148, 0.968, 0.06, 192.0, 0.0, 0.0, 0.0, 0.0, 0.0, 0.0, 0.0, 0.0, 0.0, 1.729711252865871E9, 0.0, 2024-10-24 00:50:52.865
128.0, -45908.762026877645, -48593.7206260825, -40878.56899244416, -53512.5796213841, -52657.15600933505, -45377.28224721936, 23819.114127053515, 49530.32577399323, 0.148, 0.968, 0.06, 192.0, 0.0, 0.0, 0.0, 0.0, 0.0, 0.0, 0.0, 0.0, 0.0, 1.7297112528697495E9, 0.0, 2024-10-24 00:50:52.869
129.0, -45897.04971278307, -48571.346529882736, -40859.19003000141, -53485.64576931546, -52628.99281132136, -45340.78184852384, 23470.82924495092, 49145.74165889522, 0.148, 0.968, 0.06, 192.0, 0.0, 0.0, 0.0, 0.0, 0.0, 0.0, 0.0, 0.0, 0.0, 1.7297112528737602E9, 0.0, 2024-10-24 00:50:52.873
130.0, -45874.56385786103, -48555.49914306392, -40843.923788538435, -53471.78768775317, -52621.23675599537, -45327.23669138392, 23190.0242793589, 48859.080536255904, 0.148, 0.968, 0.06, 192.0, 0.0, 0.0, 0.0, 0.0, 0.0, 0.0, 0.0, 0.0, 0.0, 1.7297112528766806E9, 0.0, 2024-10-24 00:50:52.876
131.0, -45877.536639873586, -48575.63806481816, -40861.49225968031, -53498.766243310725, -52655.09964884516, -45364.8546773022, 23419.889619337275, 49133.4481994448, 0.148, 0.968, 0.06, 192.0, 0.0, 0.0, 0.0, 0.0, 0.0, 0.0, 0.0, 0.0, 0.0, 1.7297112528807259E9, 0.0, 2024-10-24 00:50:52.880
132.0, -45895.55214590456, -48599.71089359652, -40883.53107971324, -53520.73800811029, -52682.72640499192, -45386.15588976812, 23800.673937877888, 49539.08765781971, 0.148, 0.968, 0.06, 192.0, 0.0, 0.0, 0.0, 0.0, 0.0, 0.0, 0.0, 0.0, 0.0, 1.7297112528846815E9, 0.0, 2024-10-24 00:50:52.884
133.0, -45912.539471690594, -48599.10739649623, -40875.81972787616, -53507.10344399255, -52658.40770702454, -45367.7604040814, 23854.742807715276, 49564.34512905421, 0.148, 0.968, 0.06, 192.0, 0.0, 0.0, 0.0, 0.0, 0.0, 0.0, 0.0, 0.0, 0.0, 1.729711252890695E9, 0.0, 2024-10-24 00:50:52.890
134.0, -45885.11388124393, -48565.13274492416, -40836.8382855461, -53469.77603075219, -52616.69935187094, -45324.37566809364, 23485.737858502613, 49161.656100947395, 0.148, 0.968, 0.06, 192.0, 0.0, 0.0, 0.0, 0.0, 0.0, 0.0, 0.0, 0.0, 0.0, 1.729711252894777E9, 0.0, 2024-10-24 00:50:52.894
135.0, -45869.51236361413, -48559.43305008806, -40828.29991916417, -53469.08312667407, -52618.398084449545, -45327.88489197313, 23217.047538405364, 48887.31078950295, 0.152, 0.97, 0.056, 192.0, 4.0, 192.0, 30.0, 80.0, 1.0, 192.0, 0.0, 0.0, 0.0, 1.7297112528977215E9, 0.0, 2024-10-24 00:50:52.897
136.0, -45868.84181128047, -48577.202686930024, -40845.443707161394, -53494.58646709758, -52651.14339007657, -45362.5077441344, 23433.032445077, 49148.31210950758, 0.152, 0.97, 0.056, 192.0, 0.0, 0.0, 0.0, 0.0, 0.0, 0.0, 0.0, 0.0, 0.0, 1.72971125290172E9, 0.0, 2024-10-24 00:50:52.901
137.0, -45889.78539583509, -48600.15792848563, -40866.633160905025, -53515.70886560785, -52677.317282833734, -45379.09273852024, 23781.585548113057, 49524.71548613495, 0.152, 0.97, 0.056, 192.0, 0.0, 0.0, 0.0, 0.0, 0.0, 0.0, 0.0, 0.0, 0.0, 1.729711252904971E9, 0.0, 2024-10-24 00:50:52.904
138.0, -45918.6862014158, -48599.84500406325, -40859.81587884616, -53500.710845078334, -52643.18616905048, -45351.46598237348, 23816.43191771888, 49531.443361216, 0.152, 0.97, 0.056, 192.0, 0.0, 0.0, 0.0, 0.0, 0.0, 0.0, 0.0, 0.0, 0.0, 1.729711252908903E9, 0.0, 2024-10-24 00:50:52.908
139.0, -45894.38985519289, -48571.50299209392, -40827.96464299734, -53469.91014121892, -52612.586630891165, -45320.128836647134, 23486.69898351419, 49166.260560305185, 0.152, 0.97, 0.056, 192.0, 0.0, 0.0, 0.0, 0.0, 0.0, 0.0, 0.0, 0.0, 0.0, 1.7297112529129112E9, 0.0, 2024-10-24 00:50:52.912
140.0, -45876.620218350916, -48557.779020998365, -40815.20179691337, -53463.025803926685, -52608.56331688921, -45320.46411281396, 23214.25357034845, 48886.32731274692, 0.152, 0.97, 0.056, 192.0, 0.0, 0.0, 0.0, 0.0, 0.0, 0.0, 0.0, 0.0, 0.0, 1.729711252917838E9, 0.0, 2024-10-24 00:50:52.917
141.0, -45882.45402365375, -48575.526306095875, -40835.05014598968, -53487.21039142733, -52636.145369547055, -45347.77794453835, 23413.519372167513, 49129.58134765403, 0.152, 0.97, 0.056, 192.0, 0.0, 0.0, 0.0, 0.0, 0.0, 0.0, 0.0, 0.0, 0.0, 1.729711252921948E9, 0.0, 2024-10-24 00:50:52.921
142.0, -45904.716361131235, -48600.828480819284, -40860.37467245754, -53514.81479582963, -52664.93441640549, -45381.32791296577, 23795.57774014208, 49538.551215952786, 0.152, 0.97, 0.056, 192.0, 0.0, 0.0, 0.0, 0.0, 0.0, 0.0, 0.0, 0.0, 0.0, 1.7297112529260406E9, 0.0, 2024-10-24 00:50:52.926
143.0, -45929.90677713237, -48606.59523088876, -40866.52140218275, -53510.6797231054, -52650.76341042083, -45371.00140702741, 23837.621371462512, 49552.83398065972, 0.152, 0.97, 0.056, 192.0, 0.0, 0.0, 0.0, 0.0, 0.0, 0.0, 0.0, 0.0, 0.0, 1.7297112529298756E9, 0.0, 2024-10-24 00:50:52.929
144.0, -45908.359695477455, -48575.325140395784, -40842.69444259339, -53479.16376342342, -52619.73918911686, -45330.05301118529, 23485.491989313603, 49166.551132983106, 0.152, 0.97, 0.056, 192.0, 0.0, 0.0, 0.0, 0.0, 0.0, 0.0, 0.0, 0.0, 0.0, 1.7297112529328687E9, 0.0, 2024-10-24 00:50:52.932
145.0, -45885.09152949948, -48562.42818384507, -40829.46220987585, -53473.6205307985, -52611.17847099048, -45326.63319428363, 23197.288596306873, 48872.648045140275, 0.154, 0.97, 0.056, 192.0, 4.0, 208.0, 30.0, 80.0, 1.0, 192.0, 0.0, 0.0, 0.0, 1.7297112529369752E9, 0.0, 2024-10-24 00:50:52.936
146.0, -45885.3821021774, -48580.95777999852, -40843.923788538435, -53499.593257855566, -52636.70416315844, -45360.42903190006, 23407.596159886856, 49127.592042397504, 0.154, 0.97, 0.056, 192.0, 0.0, 0.0, 0.0, 0.0, 0.0, 0.0, 0.0, 0.0, 0.0, 1.7297112529408224E9, 0.0, 2024-10-24 00:50:52.940
