%OpenBCI Raw EXG Data
%Number of channels = 8
%Sample Rate = 250 Hz
%Board = OpenBCI_GUI$BoardCytonSerial
Sample Index, EXG Channel 0, EXG Channel 1, EXG Channel 2, EXG Channel 3, EXG Channel 4, EXG Channel 5, EXG Channel 6, EXG Channel 7, Accel Channel 0, Accel Channel 1, Accel Channel 2, Other, Other, Other, Other, Other, Other, Other, Analog Channel 0, Analog Channel 1, Analog Channel 2, Timestamp, Other, Timestamp (Formatted)
0.0, 0.0, 0.0, 0.0, 0.0, 0.0, 0.0, 0.0, 0.0, 0.0, 0.0, 0.0, 192.0, 0.0, 0.0, 0.0, 0.0, 0.0, 0.0, 0.0, 0.0, 0.0, 1.729710958999464E9, 0.0, 2024-10-24 00:45:58.999
1.0, -49199.475252565775, -51134.845749717446, -51093.383263752854, -56371.59125466243, -56324.58553607292, -49337.58668155512, -19731.985894678342, 4622.67602952433, 0.106, 0.97, 0.146, 192.0, 3.0, 80.0, 30.0, 80.0, 4.0, 144.0, 0.0, 0.0, 0.0, 1.7297109590164783E9, 0.0, 2024-10-24 00:45:59.016
2.0, -49221.491720854254, -51145.73104926718, -51109.09654010493, -56379.9061035998, -56341.66226883677, -49345.14157118101, -19453.930193654323, 4928.917280306492, 0.106, 0.97, 0.146, 192.0, 0.0, 0.0, 0.0, 0.0, 0.0, 0.0, 0.0, 0.0, 0.0, 1.7297109590204968E9, 0.0, 2024-10-24 00:45:59.020
3.0, -49224.35274414453, -51132.36470608291, -51097.27246728808, -56361.42121093527, -56310.68275102172, -49323.86271045956, -19615.153326410455, 4726.231661585768, 0.106, 0.97, 0.146, 192.0, 0.0, 0.0, 0.0, 0.0, 0.0, 0.0, 0.0, 0.0, 0.0, 1.7297109590234554E9, 0.0, 2024-10-24 00:45:59.023
4.0, -49201.93394445586, -51107.12958659287, -51068.59517915192, -56336.029629234035, -56273.9811866261, -49287.60818095305, -19952.262336285396, 4348.24131110207, 0.106, 0.97, 0.146, 192.0, 0.0, 0.0, 0.0, 0.0, 0.0, 0.0, 0.0, 0.0, 0.0, 1.729710959027499E9, 0.0, 2024-10-24 00:45:59.027
5.0, -49182.286761079646, -51099.86526964489, -51058.53689414703, -56334.80028328899, -56277.937445394695, -49281.99789309477, -20049.53712815489, 4255.570978590367, 0.106, 0.97, 0.146, 192.0, 0.0, 0.0, 0.0, 0.0, 0.0, 0.0, 0.0, 0.0, 0.0, 1.729710959031458E9, 0.0, 2024-10-24 00:45:59.031
6.0, -49200.90576421092, -51124.45218854573, -51082.766185136585, -56359.789533590025, -56309.76632949905, -49311.94923066488, -19765.222938683386, 4585.773299428618, 0.106, 0.97, 0.146, 192.0, 0.0, 0.0, 0.0, 0.0, 0.0, 0.0, 0.0, 0.0, 0.0, 1.7297109590344589E9, 0.0, 2024-10-24 00:45:59.034
7.0, -49224.55390984463, -51145.08284867798, -51101.34048477894, -56376.9556733317, -56326.664248307265, -49330.94821345189, -19484.797952747103, 4895.032035712246, 0.106, 0.97, 0.146, 192.0, 0.0, 0.0, 0.0, 0.0, 0.0, 0.0, 0.0, 0.0, 0.0, 1.729710959039572E9, 0.0, 2024-10-24 00:45:59.039
8.0, -49224.710372055815, -51136.18685438477, -51091.95275210771, -56360.90712081279, -56301.94321893969, -49307.769454451736, -19653.46421640685, 4686.132632032947, 0.10400000000000001, 0.968, 0.134, 192.0, 3.0, 64.0, 30.0, 64.0, 4.0, 48.0, 0.0, 0.0, 0.0, 1.7297109590435033E9, 0.0, 2024-10-24 00:45:59.043
9.0, -49205.44316833534, -51112.963391895704, -51071.29974023101, -56335.82846353394, -56274.361166281844, -49274.80063138016, -19987.44398205805, 4314.490176974557, 0.10400000000000001, 0.968, 0.134, 192.0, 0.0, 0.0, 0.0, 0.0, 0.0, 0.0, 0.0, 0.0, 0.0, 1.729710959047614E9, 0.0, 2024-10-24 00:45:59.047
10.0, -49183.5608105136, -51106.23551681465, -51063.20840873819, -56338.44361763521, -56286.744032710085, -49287.56347746414, -20105.528248015435, 4203.960800643063, 0.10400000000000001, 0.968, 0.134, 192.0, 0.0, 0.0, 0.0, 0.0, 0.0, 0.0, 0.0, 0.0, 0.0, 1.7297109590516121E9, 0.0, 2024-10-24 00:45:59.051
11.0, -49194.53551704115, -51131.068304904504, -51079.122850790365, -56366.49505692662, -56299.261009605056, -49317.80538771217, -19814.463831718425, 4540.488665162166, 0.10400000000000001, 0.968, 0.134, 192.0, 0.0, 0.0, 0.0, 0.0, 0.0, 0.0, 0.0, 0.0, 0.0, 1.7297109590555863E9, 0.0, 2024-10-24 00:45:59.055
12.0, -49212.0145812052, -51143.04883993255, -51091.55042070752, -56377.22389426517, -56307.508803309065, -49329.04831517319, -19558.648116427437, 4825.249889522778, 0.10400000000000001, 0.968, 0.134, 192.0, 0.0, 0.0, 0.0, 0.0, 0.0, 0.0, 0.0, 0.0, 0.0, 1.7297109590596833E9, 0.0, 2024-10-24 00:45:59.059
13.0, -49214.987363217755, -51129.14605488134, -51085.135470048845, -56360.996527790616, -56289.62740774482, -49307.30006781818, -19747.676819285967, 4594.199907088269, 0.10400000000000001, 0.968, 0.134, 192.0, 0.0, 0.0, 0.0, 0.0, 0.0, 0.0, 0.0, 0.0, 0.0, 1.7297109590625987E9, 0.0, 2024-10-24 00:45:59.062
14.0, -49202.91742121189, -51115.22091808569, -51074.45133619921, -56351.29587069701, -56281.67018671873, -49297.778224680216, -20061.942346327585, 4239.433019093635, 0.10400000000000001, 0.968, 0.134, 192.0, 0.0, 0.0, 0.0, 0.0, 0.0, 0.0, 0.0, 0.0, 0.0, 1.729710959067616E9, 0.0, 2024-10-24 00:45:59.067
15.0, -49179.8057174451, -51105.49790924763, -51065.89061807282, -56349.038344507026, -56294.27657059152, -49301.108634604054, -20164.89448128873, 4142.538206879879, 0.10400000000000001, 0.968, 0.134, 192.0, 0.0, 0.0, 0.0, 0.0, 0.0, 0.0, 0.0, 0.0, 0.0, 1.7297109590715623E9, 0.0, 2024-10-24 00:45:59.071
16.0, -49195.92132519738, -51125.72623797968, -51086.0071880826, -56372.88765584084, -56323.42324536124, -49332.22226288584, -19898.46168738147, 4454.568559475966, 0.10400000000000001, 0.968, 0.134, 192.0, 0.0, 0.0, 0.0, 0.0, 0.0, 0.0, 0.0, 0.0, 0.0, 1.7297109590755265E9, 0.0, 2024-10-24 00:45:59.075
17.0, -49220.575299331584, -51144.50170332214, -51098.904144633314, -56385.1587635468, -56324.76435002856, -49345.18627466992, -19615.68976827738, 4763.626130059496, 0.10400000000000001, 0.968, 0.134, 192.0, 0.0, 0.0, 0.0, 0.0, 0.0, 0.0, 0.0, 0.0, 0.0, 1.7297109590795364E9, 0.0, 2024-10-24 00:45:59.079
18.0, -49228.331354657574, -51136.41037182932, -51090.812813140496, -56366.33859471543, -56303.57489628493, -49315.97254466684, -19750.67195304298, 4584.655712205853, 0.116, 0.974, 0.128, 192.0, 3.0, 160.0, 30.0, 112.0, 4.0, 0.0, 0.0, 0.0, 0.0, 1.7297109590835497E9, 0.0, 2024-10-24 00:45:59.083
19.0, -49206.471348580286, -51110.661162216806, -51065.44358318372, -56337.05780947898, -56271.14251508028, -49286.580000708105, -20066.25623300746, 4226.69252475411, 0.116, 0.974, 0.128, 192.0, 0.0, 0.0, 0.0, 0.0, 0.0, 0.0, 0.0, 0.0, 0.0, 1.729710959087545E9, 0.0, 2024-10-24 00:45:59.087
20.0, -49183.71727272478, -51103.88858364685, -51051.13846673232, -56332.38629488782, -56275.4340500157, -49288.0328640977, -20179.24430122904, 4119.068875201807, 0.116, 0.974, 0.128, 192.0, 0.0, 0.0, 0.0, 0.0, 0.0, 0.0, 0.0, 0.0, 0.0, 1.7297109590906436E9, 0.0, 2024-10-24 00:45:59.090
21.0, -49197.9106304539, -51127.17910136928, -51070.29391173052, -56356.995565533114, -56306.100643408376, -49317.04542840069, -19894.617187335156, 4449.539416973522, 0.116, 0.974, 0.128, 192.0, 0.0, 0.0, 0.0, 0.0, 0.0, 0.0, 0.0, 0.0, 0.0, 1.7297109590945826E9, 0.0, 2024-10-24 00:45:59.094
22.0, -49222.02816272118, -51144.16642715531, -51089.85168812892, -56371.613606406885, -56319.69050403721, -49333.362201853066, -19622.752919525257, 4748.739868252262, 0.116, 0.974, 0.128, 192.0, 0.0, 0.0, 0.0, 0.0, 0.0, 0.0, 0.0, 0.0, 0.0, 1.72971095909958E9, 0.0, 2024-10-24 00:45:59.099
23.0, -49226.677325567885, -51132.72233399419, -51083.0567578145, -56353.75456258709, -56300.95974218366, -49307.970620151835, -19785.428915670982, 4543.662612874819, 0.116, 0.974, 0.128, 192.0, 0.0, 0.0, 0.0, 0.0, 0.0, 0.0, 0.0, 0.0, 0.0, 1.7297109591035855E9, 0.0, 2024-10-24 00:45:59.103
24.0, -49205.89020322445, -51111.152900594825, -51059.341556947424, -56332.47570186564, -56272.349509280866, -49288.65871294245, -20122.09089065682, 4167.72862288101, 0.116, 0.974, 0.128, 192.0, 0.0, 0.0, 0.0, 0.0, 0.0, 0.0, 0.0, 0.0, 0.0, 1.7297109591076176E9, 0.0, 2024-10-24 00:45:59.107
25.0, -49188.58995301604, -51104.53678423605, -51048.992699264614, -56334.263841422064, -56274.42822151521, -49294.537221734194, -20214.314188279415, 4083.5296015178683, 0.116, 0.974, 0.128, 192.0, 0.0, 0.0, 0.0, 0.0, 0.0, 0.0, 0.0, 0.0, 0.0, 1.7297109591115997E9, 0.0, 2024-10-24 00:45:59.111
26.0, -49203.811490990105, -51118.99836289864, -51068.12579251835, -56352.189940475226, -56297.785794471005, -49309.95992540836, -19932.838670353733, 4411.317933954947, 0.116, 0.974, 0.128, 192.0, 0.0, 0.0, 0.0, 0.0, 0.0, 0.0, 0.0, 0.0, 0.0, 1.7297109591156232E9, 0.0, 2024-10-24 00:45:59.115
27.0, -49226.90084301244, -51132.118836893904, -51085.895429360324, -56364.617510392374, -56308.067596920446, -49319.88409994652, -19664.863606079056, 4704.908097375404, 0.116, 0.974, 0.128, 192.0, 0.0, 0.0, 0.0, 0.0, 0.0, 0.0, 0.0, 0.0, 0.0, 1.7297109591185892E9, 0.0, 2024-10-24 00:45:59.118
28.0, -49224.50920635572, -51115.73500820816, -51073.49021118763, -56344.63505084933, -56281.04433787398, -49294.67133220093, -19830.40062551506, 4496.276914629569, 0.112, 0.972, 0.12, 192.0, 3.0, 128.0, 30.0, 96.0, 3.0, 192.0, 0.0, 0.0, 0.0, 1.7297109591226232E9, 0.0, 2024-10-24 00:45:59.122
29.0, -49208.17008115889, -51096.26663878759, -51056.45818191268, -56326.75365528508, -56259.98899459708, -49275.42648022491, -20156.959612007096, 4129.730657306988, 0.112, 0.972, 0.12, 192.0, 0.0, 0.0, 0.0, 0.0, 0.0, 0.0, 0.0, 0.0, 0.0, 1.7297109591275847E9, 0.0, 2024-10-24 00:45:59.127
30.0, -49189.484022794255, -51094.61260969789, -51051.80901906598, -56331.91690825426, -56269.42143075722, -49283.495459973274, -20236.24124959007, 4057.6909849275335, 0.112, 0.972, 0.12, 192.0, 0.0, 0.0, 0.0, 0.0, 0.0, 0.0, 0.0, 0.0, 0.0, 1.7297109591317384E9, 0.0, 2024-10-24 00:45:59.131
31.0, -49196.815394975594, -51115.623249485885, -51067.790516351524, -56351.92171954176, -56302.747881740084, -49306.31659106214, -19962.94647013503, 4378.8855527502965, 0.112, 0.972, 0.12, 192.0, 0.0, 0.0, 0.0, 0.0, 0.0, 0.0, 0.0, 0.0, 0.0, 1.7297109591356645E9, 0.0, 2024-10-24 00:45:59.135
32.0, -49217.73662778576, -51134.95750843972, -51084.04023457054, -56368.12673427186, -56318.841137747906, -49327.37193433904, -19703.509772242283, 4666.820724823561, 0.112, 0.972, 0.12, 192.0, 0.0, 0.0, 0.0, 0.0, 0.0, 0.0, 0.0, 0.0, 0.0, 1.7297109591396463E9, 0.0, 2024-10-24 00:45:59.139
33.0, -49220.97763073178, -51122.038200144554, -51073.82548735446, -56348.43484740673, -56289.71681472264, -49294.00077986727, -19874.97000395894, 4453.227454808647, 0.112, 0.972, 0.12, 192.0, 0.0, 0.0, 0.0, 0.0, 0.0, 0.0, 0.0, 0.0, 0.0, 1.7297109591426663E9, 0.0, 2024-10-24 00:45:59.142
34.0, -49207.20895614731, -51104.425025513774, -51055.02767026755, -56331.78279778753, -56262.51474172053, -49273.504230201754, -20187.983833311064, 4099.376988336681, 0.112, 0.972, 0.12, 192.0, 0.0, 0.0, 0.0, 0.0, 0.0, 0.0, 0.0, 0.0, 0.0, 1.7297109591466618E9, 0.0, 2024-10-24 00:45:59.146
35.0, -49185.706577981306, -51099.64175220034, -51042.86832128386, -56335.96257400067, -56264.21347429913, -49285.61887569653, -20281.97291874563, 4012.1157779831624, 0.112, 0.972, 0.12, 192.0, 0.0, 0.0, 0.0, 0.0, 0.0, 0.0, 0.0, 0.0, 0.0, 1.7297109591506517E9, 0.0, 2024-10-24 00:45:59.150
36.0, -49202.53744155615, -51121.144130366345, -51064.01307153858, -56360.52714115705, -56295.79648921448, -49314.832605699616, -20020.323398151802, 4319.765188666009, 0.112, 0.972, 0.12, 192.0, 0.0, 0.0, 0.0, 0.0, 0.0, 0.0, 0.0, 0.0, 0.0, 1.7297109591556127E9, 0.0, 2024-10-24 00:45:59.155
37.0, -49228.59957559104, -51138.6678980193, -51083.48144095915, -56375.525161686564, -56312.33678011141, -49331.730524507824, -19742.111234916596, 4626.878157481928, 0.112, 0.972, 0.12, 192.0, 0.0, 0.0, 0.0, 0.0, 0.0, 0.0, 0.0, 0.0, 0.0, 1.7297109591607592E9, 0.0, 2024-10-24 00:45:59.160
38.0, -49229.538348858165, -51124.83216820147, -51072.484382687144, -56355.16272248778, -56284.441803031186, -49305.534280006206, -19897.500562369893, 4429.4451987082, 0.108, 0.968, 0.12, 192.0, 3.0, 96.0, 30.0, 64.0, 3.0, 192.0, 0.0, 0.0, 0.0, 1.729710959164703E9, 0.0, 2024-10-24 00:45:59.164
39.0, -49205.778444502175, -51099.127662077866, -51048.00922250858, -56329.10058845289, -56262.961776609634, -49282.22141053932, -20231.793252443465, 4053.0865255697404, 0.108, 0.968, 0.12, 192.0, 0.0, 0.0, 0.0, 0.0, 0.0, 0.0, 0.0, 0.0, 0.0, 1.7297109591697092E9, 0.0, 2024-10-24 00:45:59.169
40.0, -49182.73379596875, -51092.265676530085, -51035.648707824796, -56328.65355356378, -56262.73825916508, -49289.19515480938, -20331.057349569484, 3959.902102935565, 0.108, 0.968, 0.12, 192.0, 0.0, 0.0, 0.0, 0.0, 0.0, 0.0, 0.0, 0.0, 0.0, 1.7297109591726952E9, 0.0, 2024-10-24 00:45:59.172
41.0, -49194.20024087432, -51109.87885116087, -51051.29492894351, -56348.01016426208, -56287.74986121057, -49309.0882073746, -20049.5818316438, 4286.975179550073, 0.108, 0.968, 0.12, 192.0, 0.0, 0.0, 0.0, 0.0, 0.0, 0.0, 0.0, 0.0, 0.0, 1.7297109591756835E9, 0.0, 2024-10-24 00:45:59.175
42.0, -49222.676363310384, -51127.559081025014, -51075.770089122074, -56364.03636503653, -56317.03064644703, -49325.20381512688, -19772.755476564824, 4589.4389855192885, 0.108, 0.968, 0.12, 192.0, 0.0, 0.0, 0.0, 0.0, 0.0, 0.0, 0.0, 0.0, 0.0, 1.7297109591787083E9, 0.0, 2024-10-24 00:45:59.178
43.0, -49225.80560753413, -51111.59993548393, -51066.51646691757, -56345.3503066719, -56291.61671300134, -49303.96965789433, -19943.03106582535, 4376.5386195824885, 0.108, 0.968, 0.12, 192.0, 0.0, 0.0, 0.0, 0.0, 0.0, 0.0, 0.0, 0.0, 0.0, 1.729710959182964E9, 0.0, 2024-10-24 00:45:59.182
44.0, -49208.46065383681, -51088.555286950505, -51045.79639980751, -56323.06561744996, -56266.09102083338, -49286.04355884118, -20259.241194634582, 4021.1682344875617, 0.108, 0.968, 0.12, 192.0, 0.0, 0.0, 0.0, 0.0, 0.0, 0.0, 0.0, 0.0, 0.0, 1.7297109591876948E9, 0.0, 2024-10-24 00:45:59.187
45.0, -49187.96410417129, -51085.716615404686, -51034.732286302125, -56323.222079661144, -56268.86263714584, -49287.921105375426, -20338.79105315102, 3947.0498498737634, 0.108, 0.968, 0.12, 192.0, 0.0, 0.0, 0.0, 0.0, 0.0, 0.0, 0.0, 0.0, 0.0, 1.7297109591927247E9, 0.0, 2024-10-24 00:45:59.192
46.0, -49199.22938337677, -51105.49790924763, -51052.25605395509, -56343.361001415375, -56296.19882061468, -49307.81415794065, -20070.346602242782, 4260.644824581722, 0.108, 0.968, 0.12, 192.0, 0.0, 0.0, 0.0, 0.0, 0.0, 0.0, 0.0, 0.0, 0.0, 1.7297109591957395E9, 0.0, 2024-10-24 00:45:59.195
47.0, -49223.592784833054, -51121.09942687743, -51070.808001852994, -56352.97225153116, -56308.44757657619, -49313.31268707666, -19803.086793790673, 4554.1008775354485, 0.108, 0.968, 0.12, 192.0, 0.0, 0.0, 0.0, 0.0, 0.0, 0.0, 0.0, 0.0, 0.0, 1.7297109591987872E9, 0.0, 2024-10-24 00:45:59.198
48.0, -49226.386752889965, -51108.1130633489, -51061.219103481664, -56334.3979518888, -56275.25523606005, -49290.26803854323, -19976.871606930687, 4338.518302264011, 0.10400000000000001, 0.972, 0.122, 192.0, 3.0, 64.0, 30.0, 96.0, 3.0, 208.0, 0.0, 0.0, 0.0, 1.7297109592028089E9, 0.0, 2024-10-24 00:45:59.202
49.0, -49209.24296489274, -51090.72340616267, -51043.51652187306, -56318.550565069985, -56250.62361367031, -49269.19034352188, -20303.274131211536, 3971.748527496878, 0.10400000000000001, 0.972, 0.122, 192.0, 0.0, 0.0, 0.0, 0.0, 0.0, 0.0, 0.0, 0.0, 0.0, 1.729710959206761E9, 0.0, 2024-10-24 00:45:59.206
50.0, -49195.38488333045, -51095.30551377601, -51043.42711489524, -56332.27453616555, -56265.39811675526, -49280.12034656052, -20382.868693216886, 3896.2443347268504, 0.10400000000000001, 0.972, 0.122, 192.0, 0.0, 0.0, 0.0, 0.0, 0.0, 0.0, 0.0, 0.0, 0.0, 1.7297109592117171E9, 0.0, 2024-10-24 00:45:59.211
51.0, -49208.10302592552, -51118.66308673181, -51062.15787674879, -56361.64472837982, -56294.03070140252, -49310.11638761954, -20113.194896363606, 4208.744073956499, 0.10400000000000001, 0.972, 0.122, 192.0, 0.0, 0.0, 0.0, 0.0, 0.0, 0.0, 0.0, 0.0, 0.0, 1.729710959215779E9, 0.0, 2024-10-24 00:45:59.215
52.0, -49233.673421582396, -51139.78548524207, -51083.30262700351, -56385.20346703571, -56312.78381500052, -49335.53032106523, -19826.757291168844, 4520.774426552585, 0.10400000000000001, 0.972, 0.122, 192.0, 0.0, 0.0, 0.0, 0.0, 0.0, 0.0, 0.0, 0.0, 0.0, 1.72971095921983E9, 0.0, 2024-10-24 00:45:59.219
53.0, -49232.868758782, -51124.89922343483, -51067.96933030717, -56365.98096680415, -56280.865523918335, -49309.55759400816, -20006.241799144962, 4296.251153499026, 0.10400000000000001, 0.972, 0.122, 192.0, 0.0, 0.0, 0.0, 0.0, 0.0, 0.0, 0.0, 0.0, 0.0, 1.7297109592238078E9, 0.0, 2024-10-24 00:45:59.223
54.0, -49210.98640096026, -51106.83901391495, -51042.57774860594, -56345.37265841635, -56253.61874742732, -49284.16601230693, -20334.365407748868, 3923.580518195691, 0.10400000000000001, 0.972, 0.122, 192.0, 0.0, 0.0, 0.0, 0.0, 0.0, 0.0, 0.0, 0.0, 0.0, 1.7297109592269435E9, 0.0, 2024-10-24 00:45:59.226
55.0, -49190.64631350593, -51103.240383057644, -51036.16279794727, -56347.429018906245, -56271.18721856919, -49293.55374497816, -20417.245676189148, 3845.7293922578565, 0.10400000000000001, 0.972, 0.122, 192.0, 0.0, 0.0, 0.0, 0.0, 0.0, 0.0, 0.0, 0.0, 0.0, 1.72971095923077E9, 0.0, 2024-10-24 00:45:59.230
56.0, -49205.86785147999, -51120.80885419952, -51056.7040511017, -56368.14908601631, -56305.07246316344, -49319.90645169097, -20147.460120613592, 4163.750012367966, 0.10400000000000001, 0.972, 0.122, 192.0, 0.0, 0.0, 0.0, 0.0, 0.0, 0.0, 0.0, 0.0, 0.0, 1.7297109592347689E9, 0.0, 2024-10-24 00:45:59.234
57.0, -49227.45963662382, -51133.28112760557, -51070.472725686166, -56378.6544059103, -56310.10160566588, -49332.49048381931, -19888.98454773242, 4450.92522512975, 0.10400000000000001, 0.972, 0.122, 192.0, 0.0, 0.0, 0.0, 0.0, 0.0, 0.0, 0.0, 0.0, 0.0, 1.7297109592388244E9, 0.0, 2024-10-24 00:45:59.238
58.0, -49229.62775583599, -51119.49010127665, -51060.07916451445, -56360.68360336824, -56279.882047162304, -49313.0891696321, -20067.59733767478, 4229.330030599836, 0.106, 0.968, 0.124, 192.0, 3.0, 80.0, 30.0, 64.0, 3.0, 224.0, 0.0, 0.0, 0.0, 1.7297109592439225E9, 0.0, 2024-10-24 00:45:59.243
59.0, -49213.33333412807, -51102.83805165745, -51041.41545789426, -56340.924661269746, -56253.19406428267, -49293.352579278064, -20380.678222260263, 3876.9994827508312, 0.106, 0.968, 0.124, 192.0, 0.0, 0.0, 0.0, 0.0, 0.0, 0.0, 0.0, 0.0, 0.0, 1.7297109592478127E9, 0.0, 2024-10-24 00:45:59.247
60.0, -49190.15457512791, -51098.59122021094, -51031.06660021146, -56340.52232986955, -56268.348547023365, -49293.84431765608, -20471.403953004356, 3794.8568218775777, 0.106, 0.968, 0.124, 192.0, 0.0, 0.0, 0.0, 0.0, 0.0, 0.0, 0.0, 0.0, 0.0, 1.7297109592518356E9, 0.0, 2024-10-24 00:45:59.251
61.0, -49204.77261600168, -51122.17231061129, -51050.42321090975, -56367.120905771364, -56295.08123339191, -49322.9909924258, -20185.502789676524, 4127.5401863503685, 0.106, 0.968, 0.124, 192.0, 0.0, 0.0, 0.0, 0.0, 0.0, 0.0, 0.0, 0.0, 0.0, 1.7297109592550895E9, 0.0, 2024-10-24 00:45:59.255
62.0, -49229.44894188034, -51138.64554627485, -51067.74581286262, -56380.86722861138, -56304.983056185614, -49340.201835656386, -19891.197370433496, 4447.2148355501695, 0.106, 0.968, 0.124, 192.0, 0.0, 0.0, 0.0, 0.0, 0.0, 0.0, 0.0, 0.0, 0.0, 1.7297109592588584E9, 0.0, 2024-10-24 00:45:59.258
63.0, -49225.40327613393, -51117.97018265369, -51056.32407144595, -56352.61462361988, -56284.86648617584, -49302.67325671593, -20067.753799885966, 4226.223138120548, 0.106, 0.968, 0.124, 192.0, 0.0, 0.0, 0.0, 0.0, 0.0, 0.0, 0.0, 0.0, 0.0, 1.7297109592628384E9, 0.0, 2024-10-24 00:45:59.262
64.0, -49204.77261600168, -51095.57373470948, -51032.65357406779, -56327.26774540755, -56246.62265141281, -49280.90265761646, -20391.876446232374, 3861.5767790766695, 0.106, 0.968, 0.124, 192.0, 0.0, 0.0, 0.0, 0.0, 0.0, 0.0, 0.0, 0.0, 0.0, 1.7297109592668376E9, 0.0, 2024-10-24 00:45:59.266
65.0, -49181.795022701626, -51082.900295603315, -51020.9412599732, -56321.23277440462, -56248.52254969151, -49283.98719835129, -20475.00258386166, 3787.167821784952, 0.106, 0.968, 0.124, 192.0, 0.0, 0.0, 0.0, 0.0, 0.0, 0.0, 0.0, 0.0, 0.0, 1.7297109592718713E9, 0.0, 2024-10-24 00:45:59.271
66.0, -49194.379054829966, -51098.702978933215, -51041.236643938624, -56339.98588800262, -56283.81595418644, -49307.054198629165, -20192.43183045767, 4116.587831567268, 0.106, 0.968, 0.124, 192.0, 0.0, 0.0, 0.0, 0.0, 0.0, 0.0, 0.0, 0.0, 0.0, 1.7297109592758594E9, 0.0, 2024-10-24 00:45:59.275
67.0, -49218.40718011942, -51113.812758185006, -51060.79442033701, -56350.558263129984, -56299.21630611614, -49311.122216120035, -19904.206085706483, 4432.082704553927, 0.106, 0.968, 0.124, 192.0, 0.0, 0.0, 0.0, 0.0, 0.0, 0.0, 0.0, 0.0, 0.0, 1.7297109592798257E9, 0.0, 2024-10-24 00:45:59.279
68.0, -49208.08067418107, -51090.76810965158, -51037.325088658945, -56316.315390624455, -56252.70232590465, -49265.681119642395, -20107.674015483146, 4186.481736479012, 0.10400000000000001, 0.97, 0.12, 192.0, 3.0, 64.0, 30.0, 80.0, 3.0, 192.0, 0.0, 0.0, 0.0, 1.729710959282858E9, 0.0, 2024-10-24 00:45:59.282
69.0, -49192.25563910671, -51078.072318800965, -51016.985001204615, -56300.06567240545, -56226.26021221402, -49251.84538982456, -20459.512824954134, 3794.633304433025, 0.10400000000000001, 0.97, 0.12, 192.0, 0.0, 0.0, 0.0, 0.0, 0.0, 0.0, 0.0, 0.0, 0.0, 1.7297109592868605E9, 0.0, 2024-10-24 00:45:59.286
70.0, -49174.55305749811, -51077.021786811565, -51013.118149413844, -56308.984018443116, -56242.95696532213, -49267.87159059902, -20544.717674817763, 3715.888108716978, 0.10400000000000001, 0.97, 0.12, 192.0, 0.0, 0.0, 0.0, 0.0, 0.0, 0.0, 0.0, 0.0, 0.0, 1.729710959290858E9, 0.0, 2024-10-24 00:45:59.290
71.0, -49195.83191821956, -51099.462938244695, -51040.58844334942, -56336.588422845416, -56280.4855442626, -49297.59941072457, -20254.6814387657, 4051.924234858064, 0.10400000000000001, 0.97, 0.12, 192.0, 0.0, 0.0, 0.0, 0.0, 0.0, 0.0, 0.0, 0.0, 0.0, 1.729710959294882E9, 0.0, 2024-10-24 00:45:59.294
72.0, -49221.73759004326, -51117.54549950904, -51060.05681276999, -56353.68750735373, -56283.726547208615, -49307.92591666293, -19974.05528712932, 4360.400660085757, 0.10400000000000001, 0.97, 0.12, 192.0, 0.0, 0.0, 0.0, 0.0, 0.0, 0.0, 0.0, 0.0, 0.0, 1.7297109592988985E9, 0.0, 2024-10-24 00:45:59.298
73.0, -49222.00581097673, -51104.7603016806, -51051.31728068797, -56340.499978125095, -56263.14059056528, -49285.97650360782, -20151.79635903792, 4137.86669228872, 0.10400000000000001, 0.97, 0.12, 192.0, 0.0, 0.0, 0.0, 0.0, 0.0, 0.0, 0.0, 0.0, 0.0, 1.7297109593038816E9, 0.0, 2024-10-24 00:45:59.303
74.0, -49199.1623281434, -51078.83227811245, -51027.02093446504, -56317.365922613855, -56235.424427440696, -49264.921160330916, -20492.951034659272, 3755.718917336335, 0.10400000000000001, 0.97, 0.12, 192.0, 0.0, 0.0, 0.0, 0.0, 0.0, 0.0, 0.0, 0.0, 0.0, 1.7297109593079364E9, 0.0, 2024-10-24 00:45:59.307
75.0, -49186.041854148134, -51080.28514150204, -51025.12103618635, -56326.53013784053, -56255.31748000592, -49278.62277968202, -20582.201550269314, 3672.0339860956656, 0.10400000000000001, 0.97, 0.12, 192.0, 0.0, 0.0, 0.0, 0.0, 0.0, 0.0, 0.0, 0.0, 0.0, 1.72971095931092E9, 0.0, 2024-10-24 00:45:59.310
76.0, -49203.7667875012, -51107.39780752633, -51045.215254451665, -56350.692373596714, -56275.85873316035, -49293.97842812281, -20272.96516573014, 4026.0856182677294, 0.10400000000000001, 0.97, 0.12, 192.0, 0.0, 0.0, 0.0, 0.0, 0.0, 0.0, 0.0, 0.0, 0.0, 1.7297109593149014E9, 0.0, 2024-10-24 00:45:59.314
77.0, -49225.80560753413, -51131.80591247153, -51058.24632146911, -56367.143257515825, -56278.60799772835, -49314.16205336596, -19992.160200138118, 4334.2714708175035, 0.10400000000000001, 0.97, 0.12, 192.0, 0.0, 0.0, 0.0, 0.0, 0.0, 0.0, 0.0, 0.0, 0.0, 1.7297109593189657E9, 0.0, 2024-10-24 00:45:59.318
78.0, -49216.462578351806, -51118.2160518427, -51040.58844334942, -56348.0995712399, -56253.03760207148, -49296.97356187982, -20167.80020806792, 4114.218546655005, 0.106, 0.972, 0.122, 192.0, 3.0, 80.0, 30.0, 96.0, 3.0, 208.0, 0.0, 0.0, 0.0, 1.729710959322935E9, 0.0, 2024-10-24 00:45:59.322
79.0, -49195.273124608175, -51096.57956320996, -51016.64972503779, -56324.42907386173, -56223.71211334612, -49270.48674470028, -20502.830505708516, 3737.2563764162514, 0.106, 0.972, 0.122, 192.0, 0.0, 0.0, 0.0, 0.0, 0.0, 0.0, 0.0, 0.0, 0.0, 1.7297109593269708E9, 0.0, 2024-10-24 00:45:59.326
80.0, -49178.12933661096, -51089.762281151096, -51009.45246332318, -56324.54083258401, -56241.74997112155, -49274.26418951323, -20580.01107931269, 3666.2225325372856, 0.106, 0.972, 0.122, 192.0, 0.0, 0.0, 0.0, 0.0, 0.0, 0.0, 0.0, 0.0, 0.0, 1.7297109593319516E9, 0.0, 2024-10-24 00:45:59.331
81.0, -49187.58412451555, -51102.39101676834, -51017.76731226055, -56340.499978125095, -56250.109523547835, -49299.588715981095, -20287.002061248073, 4003.510356367869, 0.106, 0.972, 0.122, 192.0, 0.0, 0.0, 0.0, 0.0, 0.0, 0.0, 0.0, 0.0, 0.0, 1.7297109593360786E9, 0.0, 2024-10-24 00:45:59.336
82.0, -49210.651124793425, -51112.49400526214, -51032.02772522304, -56346.11026598338, -56261.03952658648, -49309.870518430536, -20017.998816728454, 4297.033464554962, 0.106, 0.972, 0.122, 192.0, 0.0, 0.0, 0.0, 0.0, 0.0, 0.0, 0.0, 0.0, 0.0, 1.7297109593389163E9, 0.0, 2024-10-24 00:45:59.338
83.0, -49209.757055015216, -51096.49015623214, -51021.76827451805, -56321.92567848274, -56240.31945947641, -49283.94249486238, -20204.769993397, 4065.7599646758995, 0.106, 0.972, 0.122, 192.0, 0.0, 0.0, 0.0, 0.0, 0.0, 0.0, 0.0, 0.0, 0.0, 1.7297109593429744E9, 0.0, 2024-10-24 00:45:59.342
84.0, -49190.19927861682, -51076.619455411375, -51003.01516092005, -56299.93156193871, -56221.20871796712, -49257.433325938386, -20536.156956691382, 3693.1563846059307, 0.106, 0.972, 0.122, 192.0, 0.0, 0.0, 0.0, 0.0, 0.0, 0.0, 0.0, 0.0, 0.0, 1.7297109593469472E9, 0.0, 2024-10-24 00:45:59.346
85.0, -49173.54722899762, -51072.86436234288, -50998.94714342918, -56299.93156193871, -56231.021133783004, -49257.61213989403, -20606.900227892427, 3629.632726863948, 0.106, 0.972, 0.122, 192.0, 0.0, 0.0, 0.0, 0.0, 0.0, 0.0, 0.0, 0.0, 0.0, 1.7297109593509192E9, 0.0, 2024-10-24 00:45:59.350
86.0, -49179.85042093402, -51087.19183053873, -51012.73816975811, -56314.1919749012, -56255.071610816914, -49279.42744248241, -20343.820195653465, 3940.5007887483584, 0.106, 0.972, 0.122, 192.0, 0.0, 0.0, 0.0, 0.0, 0.0, 0.0, 0.0, 0.0, 0.0, 1.7297109593550255E9, 0.0, 2024-10-24 00:45:59.355
87.0, -49202.64920027843, -51102.27925804607, -51031.46893161165, -56325.3454953844, -56266.403945255755, -49293.06200660014, -20060.847110849278, 4249.536007587434, 0.106, 0.972, 0.122, 192.0, 0.0, 0.0, 0.0, 0.0, 0.0, 0.0, 0.0, 0.0, 0.0, 1.7297109593599904E9, 0.0, 2024-10-24 00:45:59.359
88.0, -49205.778444502175, -51091.48336547415, -51025.210443164164, -56307.97818994262, -56244.05220080045, -49273.68304415739, -20198.198580527136, 4068.352767032715, 0.106, 0.972, 0.122, 192.0, 0.0, 0.0, 0.0, 0.0, 0.0, 0.0, 0.0, 0.0, 0.0, 1.7297109593640385E9, 0.0, 2024-10-24 00:45:59.364
89.0, -49181.102118623516, -51065.26476922807, -51001.91992544174, -56281.357262296355, -56216.02311325349, -49247.46444791132, -20524.623456552443, 3701.8065097101344, 0.106, 0.976, 0.132, 192.0, 3.0, 80.0, 30.0, 128.0, 4.0, 32.0, 0.0, 0.0, 0.0, 1.7297109593669727E9, 0.0, 2024-10-24 00:45:59.366
90.0, -49157.051641589605, -51056.748754590604, -50989.648817735775, -56278.51859075053, -56217.29716268744, -49245.45279091034, -20622.54644901114, 3612.600697589004, 0.106, 0.976, 0.132, 192.0, 0.0, 0.0, 0.0, 0.0, 0.0, 0.0, 0.0, 0.0, 0.0, 1.7297109593709912E9, 0.0, 2024-10-24 00:45:59.370
91.0, -49170.44033651833, -51077.06649030048, -51010.972381946136, -56301.92086719524, -56247.092038046365, -49270.62085516702, -20343.93195437574, 3937.662117202535, 0.106, 0.976, 0.132, 192.0, 0.0, 0.0, 0.0, 0.0, 0.0, 0.0, 0.0, 0.0, 0.0, 1.7297109593751612E9, 0.0, 2024-10-24 00:45:59.375
92.0, -49199.341142099045, -51098.30064753302, -51037.92858575923, -56322.84210000541, -56270.941349380184, -49291.85501239956, -20064.40103821767, 4245.132713929738, 0.106, 0.976, 0.132, 192.0, 0.0, 0.0, 0.0, 0.0, 0.0, 0.0, 0.0, 0.0, 0.0, 1.7297109593791347E9, 0.0, 2024-10-24 00:45:59.379
93.0, -49198.290610109645, -51084.39786248182, -51029.412571121764, -56305.966532941646, -56250.71302064813, -49267.916294087925, -20241.605668259344, 4027.6949438685115, 0.106, 0.976, 0.132, 192.0, 0.0, 0.0, 0.0, 0.0, 0.0, 0.0, 0.0, 0.0, 0.0, 1.729710959383134E9, 0.0, 2024-10-24 00:45:59.383
94.0, -49176.274141821166, -51060.23562672563, -51008.871317967336, -56286.96755015464, -56231.445816927655, -49247.576206633596, -20577.93236707835, 3652.2973957416293, 0.106, 0.976, 0.132, 192.0, 0.0, 0.0, 0.0, 0.0, 0.0, 0.0, 0.0, 0.0, 0.0, 1.7297109593880622E9, 0.0, 2024-10-24 00:45:59.388
95.0, -49152.53658920963, -51053.10542024439, -50999.41653006274, -56292.7343002241, -56237.03375304148, -49263.22242775231, -20667.18288268839, 3571.339377324507, 0.106, 0.976, 0.132, 192.0, 0.0, 0.0, 0.0, 0.0, 0.0, 0.0, 0.0, 0.0, 0.0, 1.7297109593922832E9, 0.0, 2024-10-24 00:45:59.392
96.0, -49170.14976384041, -51077.804097867505, -51024.875166997335, -56326.57484132944, -56276.261064560545, -49304.86372767255, -20399.431335858266, 3886.9907125223535, 0.106, 0.976, 0.132, 192.0, 0.0, 0.0, 0.0, 0.0, 0.0, 0.0, 0.0, 0.0, 0.0, 1.7297109593951547E9, 0.0, 2024-10-24 00:45:59.395
97.0, -49203.1632904009, -51104.40267376932, -51050.26674869857, -56353.73221084264, -56295.14828862528, -49330.36706809606, -20131.03158843894, 4182.570181199334, 0.106, 0.976, 0.132, 192.0, 0.0, 0.0, 0.0, 0.0, 0.0, 0.0, 0.0, 0.0, 0.0, 1.729710959399137E9, 0.0, 2024-10-24 00:45:59.399
98.0, -49202.78331074516, -51089.62817068436, -51031.13365544482, -56335.58259434493, -56255.4292387282, -49305.02018988373, -20300.92719804373, 3971.2791408633166, 0.106, 0.976, 0.132, 192.0, 0.0, 0.0, 0.0, 0.0, 0.0, 0.0, 0.0, 0.0, 0.0, 1.7297109594031234E9, 0.0, 2024-10-24 00:45:59.403
99.0, -49176.49765926572, -51060.86147557038, -50998.43305330671, -56305.36303584136, -56215.33020917538, -49266.865762098525, -20632.381216571477, 3598.4967468377054, 0.10400000000000001, 0.978, 0.128, 192.0, 3.0, 64.0, 30.0, 144.0, 4.0, 0.0, 0.0, 0.0, 0.0, 1.7297109594071417E9, 0.0, 2024-10-24 00:45:59.407
100.0, -49158.72802242375, -51058.67100461376, -50990.52053576953, -56308.71579750965, -56232.51870066151, -49271.89490460097, -20698.877656326014, 3538.41525774184, 0.10400000000000001, 0.978, 0.128, 192.0, 0.0, 0.0, 0.0, 0.0, 0.0, 0.0, 0.0, 0.0, 0.0, 1.7297109594111252E9, 0.0, 2024-10-24 00:45:59.411
101.0, -49172.139069096935, -51081.58154268045, -51002.47871905312, -56333.81680653296, -56265.621634199815, -49301.84624217108, -20416.575123855488, 3868.036433224253, 0.10400000000000001, 0.978, 0.128, 192.0, 0.0, 0.0, 0.0, 0.0, 0.0, 0.0, 0.0, 0.0, 0.0, 1.729710959417137E9, 0.0, 2024-10-24 00:45:59.417
102.0, -49189.41696756089, -51094.16557480879, -51000.7352829856, -56342.57869035944, -56256.41271548423, -49311.85982368706, -20139.189975165125, 4174.188277028594, 0.10400000000000001, 0.978, 0.128, 192.0, 0.0, 0.0, 0.0, 0.0, 0.0, 0.0, 0.0, 0.0, 0.0, 1.7297109594201322E9, 0.0, 2024-10-24 00:45:59.420
103.0, -49185.37130181448, -51074.45133619921, -50982.89859091027, -56315.60013480188, -56211.530412617976, -49278.689834915385, -20301.39658467729, 3969.3792425846154, 0.10400000000000001, 0.978, 0.128, 192.0, 0.0, 0.0, 0.0, 0.0, 0.0, 0.0, 0.0, 0.0, 0.0, 1.729710959424172E9, 0.0, 2024-10-24 00:45:59.424
104.0, -49160.046775346615, -51044.83527479593, -50962.91613136722, -56285.335872809395, -56197.113537444304, -49247.97853803379, -20631.576553771087, 3598.0944154375097, 0.10400000000000001, 0.978, 0.128, 192.0, 0.0, 0.0, 0.0, 0.0, 0.0, 0.0, 0.0, 0.0, 0.0, 1.7297109594271767E9, 0.0, 2024-10-24 00:45:59.427
105.0, -49138.231472758234, -51040.99077474961, -50958.19991328716, -56287.34752981037, -56213.3185521744, -49256.0251660377, -20725.900915372484, 3513.5601179075384, 0.10400000000000001, 0.978, 0.128, 192.0, 0.0, 0.0, 0.0, 0.0, 0.0, 0.0, 0.0, 0.0, 0.0, 1.7297109594310958E9, 0.0, 2024-10-24 00:45:59.431
106.0, -49158.48215323474, -51068.52812391855, -50984.262047322045, -56317.500033080585, -56232.74221810606, -49292.99495136678, -20435.52940315359, 3851.2279213938623, 0.10400000000000001, 0.978, 0.128, 192.0, 0.0, 0.0, 0.0, 0.0, 0.0, 0.0, 0.0, 0.0, 0.0, 1.7297109594350991E9, 0.0, 2024-10-24 00:45:59.435
107.0, -49179.44808953382, -51081.02274906907, -51004.98211443211, -56324.0937976949, -56247.315555490924, -49299.99104738129, -20159.172434708173, 4153.289395962882, 0.10400000000000001, 0.978, 0.128, 192.0, 0.0, 0.0, 0.0, 0.0, 0.0, 0.0, 0.0, 0.0, 0.0, 1.7297109594391685E9, 0.0, 2024-10-24 00:45:59.439
108.0, -49170.93207489635, -51056.92756854625, -51004.80330047647, -56291.6837682347, -56210.256363184024, -49258.14858176096, -20351.71036144619, 3917.3220297482053, 0.10400000000000001, 0.978, 0.128, 192.0, 0.0, 0.0, 0.0, 0.0, 0.0, 0.0, 0.0, 0.0, 0.0, 1.729710959443215E9, 0.0, 2024-10-24 00:45:59.443
109.0, -49157.655138689894, -51038.91206251527, -50997.471928295134, -56271.61190171384, -56189.53629607395, -49236.042706494656, -20668.79220828917, 3560.409374285862, 0.10200000000000001, 0.98, 0.128, 192.0, 3.0, 48.0, 30.0, 160.0, 4.0, 0.0, 0.0, 0.0, 0.0, 1.7297109594481108E9, 0.0, 2024-10-24 00:45:59.448
110.0, -49138.81261811407, -51034.06173396847, -50993.359207315356, -56272.215398814136, -56200.71216830161, -49243.97757577629, -20751.404255795987, 3486.5368588610722, 0.10200000000000001, 0.98, 0.128, 192.0, 0.0, 0.0, 0.0, 0.0, 0.0, 0.0, 0.0, 0.0, 0.0, 1.72971095945111E9, 0.0, 2024-10-24 00:45:59.451
111.0, -49154.01180434368, -51053.93243478923, -51015.778007004024, -56292.57783801292, -56233.546880906455, -49266.95516907635, -20481.417534520333, 3802.9705051148544, 0.10200000000000001, 0.98, 0.128, 192.0, 0.0, 0.0, 0.0, 0.0, 0.0, 0.0, 0.0, 0.0, 0.0, 1.729710959455152E9, 0.0, 2024-10-24 00:45:59.455
112.0, -49179.87277267847, -51074.04900479901, -51037.459199125675, -56308.78285274302, -56252.903491604746, -49282.1320035615, -20224.66304596222, 4084.446023040536, 0.10200000000000001, 0.98, 0.128, 192.0, 0.0, 0.0, 0.0, 0.0, 0.0, 0.0, 0.0, 0.0, 0.0, 1.7297109594591804E9, 0.0, 2024-10-24 00:45:59.459
113.0, -49182.107947124, -51061.75554534859, -51020.963611717656, -56291.706119979164, -56214.100863230335, -49262.70833762984, -20403.94638823824, 3858.872217997577, 0.10200000000000001, 0.98, 0.128, 192.0, 0.0, 0.0, 0.0, 0.0, 0.0, 0.0, 0.0, 0.0, 0.0, 1.729710959463129E9, 0.0, 2024-10-24 00:45:59.463
114.0, -49162.3043015366, -51040.610795093875, -50997.76250097305, -56273.95883488165, -56194.29721764293, -49241.764753075215, -20733.142880576, 3486.4027483943405, 0.10200000000000001, 0.98, 0.128, 192.0, 0.0, 0.0, 0.0, 0.0, 0.0, 0.0, 0.0, 0.0, 0.0, 1.7297109594672165E9, 0.0, 2024-10-24 00:45:59.467
115.0, -49146.65808041788, -51041.95189976119, -50992.26397183704, -56280.6867099627, -56204.400206136736, -49243.59759612055, -20811.0610617472, 3417.4923202386285, 0.10200000000000001, 0.98, 0.128, 192.0, 0.0, 0.0, 0.0, 0.0, 0.0, 0.0, 0.0, 0.0, 0.0, 1.7297109594711552E9, 0.0, 2024-10-24 00:45:59.471
116.0, -49163.44424050382, -51067.87992332935, -51011.35236160188, -56308.11230040935, -56231.870500072306, -49273.861858113036, -20523.282351885122, 3753.1708184684303, 0.10200000000000001, 0.98, 0.128, 192.0, 0.0, 0.0, 0.0, 0.0, 0.0, 0.0, 0.0, 0.0, 0.0, 1.7297109594763584E9, 0.0, 2024-10-24 00:45:59.476
117.0, -49189.752243727715, -51084.44256597073, -51032.228890923136, -56324.45142560619, -56255.80921838394, -49290.491555987785, -20265.14205517078, 4037.2391387509274, 0.10200000000000001, 0.98, 0.128, 192.0, 0.0, 0.0, 0.0, 0.0, 0.0, 0.0, 0.0, 0.0, 0.0, 1.729710959479107E9, 0.0, 2024-10-24 00:45:59.479
118.0, -49188.075862893565, -51068.841048340924, -51019.13076867232, -56307.62056203134, -56233.055142528436, -49264.96586381982, -20448.962801571226, 3809.631324962536, 0.10200000000000001, 0.98, 0.128, 192.0, 0.0, 0.0, 0.0, 0.0, 0.0, 0.0, 0.0, 0.0, 0.0, 1.7297109594821444E9, 0.0, 2024-10-24 00:45:59.482
119.0, -49166.618188216475, -51049.32797543144, -50993.985056160105, -56288.50982052205, -56195.95124673263, -49241.96591877531, -20746.933906904927, 3471.8070592650247, 0.108, 0.978, 0.126, 192.0, 3.0, 96.0, 30.0, 144.0, 3.0, 240.0, 0.0, 0.0, 0.0, 1.7297109594871426E9, 0.0, 2024-10-24 00:45:59.487
120.0, -49141.40542047089, -51039.76142880457, -50978.83057341941, -56286.98990189909, -56198.96873223409, -49250.10195375705, -20836.229126003876, 3391.519593181562, 0.108, 0.978, 0.126, 192.0, 0.0, 0.0, 0.0, 0.0, 0.0, 0.0, 0.0, 0.0, 0.0, 1.7297109594911904E9, 0.0, 2024-10-24 00:45:59.491
121.0, -49155.03998458863, -51061.26380697058, -51000.37765507432, -56311.10743416637, -56230.48469191608, -49280.32151226062, -20547.53399461913, 3726.4381320998828, 0.108, 0.978, 0.126, 192.0, 0.0, 0.0, 0.0, 0.0, 0.0, 0.0, 0.0, 0.0, 0.0, 1.7297109594952834E9, 0.0, 2024-10-24 00:45:59.495
122.0, -49172.74256619723, -51072.73025187615, -51010.45829182366, -56316.91888772475, -56230.954078549636, -49283.718977417826, -20277.815494276943, 4022.643449621612, 0.108, 0.978, 0.126, 192.0, 0.0, 0.0, 0.0, 0.0, 0.0, 0.0, 0.0, 0.0, 0.0, 1.7297109594992044E9, 0.0, 2024-10-24 00:45:59.499
123.0, -49171.021481874166, -51054.73709758963, -50999.17066087374, -56294.85771594736, -56207.59650559384, -49260.76373586223, -20454.90836559634, 3801.294124280706, 0.108, 0.978, 0.126, 192.0, 0.0, 0.0, 0.0, 0.0, 0.0, 0.0, 0.0, 0.0, 0.0, 1.7297109595042033E9, 0.0, 2024-10-24 00:45:59.504
124.0, -49151.88838862043, -51031.96066998967, -50980.0822711089, -56274.51762849303, -56192.710243786605, -49248.31381420062, -20788.26228240279, 3425.4942447536287, 0.108, 0.978, 0.126, 192.0, 0.0, 0.0, 0.0, 0.0, 0.0, 0.0, 0.0, 0.0, 0.0, 1.7297109595071735E9, 0.0, 2024-10-24 00:45:59.507
125.0, -49131.10126627699, -51027.82559726544, -50971.56625647143, -56275.56816048243, -56203.37202589179, -49256.18162824889, -20844.901602852537, 3375.4039854292855, 0.108, 0.978, 0.126, 192.0, 0.0, 0.0, 0.0, 0.0, 0.0, 0.0, 0.0, 0.0, 0.0, 1.7297109595111728E9, 0.0, 2024-10-24 00:45:59.511
126.0, -49137.62797565794, -51041.549568361, -50984.105585110854, -56290.11914612284, -56224.82970056888, -49272.78897437918, -20559.603936624997, 3704.9581056783327, 0.108, 0.978, 0.126, 192.0, 0.0, 0.0, 0.0, 0.0, 0.0, 0.0, 0.0, 0.0, 0.0, 1.729710959515349E9, 0.0, 2024-10-24 00:45:59.515
127.0, -49153.98945259923, -51047.33867017492, -50993.068634637435, -56289.42624204472, -56217.07364524289, -49266.28461674269, -20308.236218480615, 3982.969103213442, 0.108, 0.978, 0.126, 192.0, 0.0, 0.0, 0.0, 0.0, 0.0, 0.0, 0.0, 0.0, 0.0, 1.7297109595201871E9, 0.0, 2024-10-24 00:45:59.520
128.0, -49155.66583343337, -51035.0452107245, -50984.46321302214, -56271.67895694721, -56192.93376123116, -49252.09125901357, -20498.42721205082, 3747.806399799156, 0.108, 0.978, 0.126, 192.0, 0.0, 0.0, 0.0, 0.0, 0.0, 0.0, 0.0, 0.0, 0.0, 1.7297109595242524E9, 0.0, 2024-10-24 00:45:59.524
129.0, -49139.706687892285, -51017.70025702718, -50967.8782186363, -56252.81408462692, -56183.94835996012, -49230.387715147466, -20825.366178198597, 3377.8179738304584, 0.116, 0.972, 0.126, 192.0, 3.0, 160.0, 30.0, 96.0, 3.0, 240.0, 0.0, 0.0, 0.0, 1.7297109595273182E9, 0.0, 2024-10-24 00:45:59.527
130.0, -49120.283021960626, -51012.80522499147, -50958.31167200943, -56251.651793915255, -56186.1611826612, -49232.399372148444, -20894.27660635431, 3317.4906155455847, 0.116, 0.972, 0.126, 192.0, 0.0, 0.0, 0.0, 0.0, 0.0, 0.0, 0.0, 0.0, 0.0, 1.7297109595322895E9, 0.0, 2024-10-24 00:45:59.532
131.0, -49133.58230991153, -51036.87805376984, -50976.483640251594, -56274.69644244867, -56203.08145321387, -49260.54021841767, -20601.066422589593, 3658.824105122579, 0.116, 0.972, 0.126, 192.0, 0.0, 0.0, 0.0, 0.0, 0.0, 0.0, 0.0, 0.0, 0.0, 1.7297109595352397E9, 0.0, 2024-10-24 00:45:59.535
132.0, -49154.77176365516, -51050.98200452114, -50994.70031198267, -56288.688634477694, -56220.09113074436, -49277.281675014696, -20333.270172270557, 3951.1849225979954, 0.116, 0.972, 0.126, 192.0, 0.0, 0.0, 0.0, 0.0, 0.0, 0.0, 0.0, 0.0, 0.0, 1.7297109595382605E9, 0.0, 2024-10-24 00:45:59.538
133.0, -49152.51423746518, -51032.65357406779, -50980.66341646474, -56268.974395868114, -56193.827831009374, -49250.63839562397, -20533.58650607902, 3706.5674312791148, 0.116, 0.972, 0.126, 192.0, 0.0, 0.0, 0.0, 0.0, 0.0, 0.0, 0.0, 0.0, 0.0, 1.7297109595432587E9, 0.0, 2024-10-24 00:45:59.543
134.0, -49141.11484779297, -51019.66721053925, -50968.41466050323, -56256.971509095616, -56178.33807210185, -49237.96495651781, -20854.4234459905, 3346.905511248769, 0.116, 0.972, 0.126, 192.0, 0.0, 0.0, 0.0, 0.0, 0.0, 0.0, 0.0, 0.0, 0.0, 1.7297109595473127E9, 0.0, 2024-10-24 00:45:59.547
135.0, -49121.15473999438, -51018.169643660745, -50962.96083485614, -56261.933596364695, -56185.378871605266, -49242.055325753136, -20943.785720322816, 3267.5344666879737, 0.116, 0.972, 0.126, 192.0, 0.0, 0.0, 0.0, 0.0, 0.0, 0.0, 0.0, 0.0, 0.0, 1.729710959551365E9, 0.0, 2024-10-24 00:45:59.551
136.0, -49139.997260570206, -51044.20942595118, -50990.22996309161, -56292.37667231282, -56223.44389241265, -49273.83950636858, -20646.060484178124, 3611.3266481550513, 0.116, 0.972, 0.126, 192.0, 0.0, 0.0, 0.0, 0.0, 0.0, 0.0, 0.0, 0.0, 0.0, 1.7297109595556366E9, 0.0, 2024-10-24 00:45:59.555
137.0, -49171.356758041, -51067.522295418064, -51019.644858794796, -56315.57778305743, -56256.122142806315, -49293.441986255886, -20343.149643319804, 3938.8914631475764, 0.116, 0.972, 0.126, 192.0, 0.0, 0.0, 0.0, 0.0, 0.0, 0.0, 0.0, 0.0, 0.0, 1.729710959560253E9, 0.0, 2024-10-24 00:45:59.560
138.0, -49168.18281032835, -51049.61854810936, -51004.55743128746, -56295.57297176993, -56219.197060966144, -49266.731651631795, -20532.96065723427, 3704.3099050891287, 0.116, 0.972, 0.126, 192.0, 0.0, 0.0, 0.0, 0.0, 0.0, 0.0, 0.0, 0.0, 0.0, 1.7297109595633101E9, 0.0, 2024-10-24 00:45:59.563
139.0, -49145.76401063967, -51028.96553623266, -50979.54582924197, -56275.59051222688, -56187.45758383961, -49247.53150314469, -20872.975393888402, 3323.033848170501, 0.112, 0.97, 0.128, 192.0, 3.0, 128.0, 30.0, 80.0, 4.0, 0.0, 0.0, 0.0, 0.0, 1.7297109595673852E9, 0.0, 2024-10-24 00:45:59.567
140.0, -49130.52012092115, -51028.33968738791, -50975.70132919566, -56281.75959369655, -56195.2136391656, -49260.13788701748, -20940.924697032537, 3261.588902662862, 0.112, 0.97, 0.128, 192.0, 0.0, 0.0, 0.0, 0.0, 0.0, 0.0, 0.0, 0.0, 0.0, 1.729710959571372E9, 0.0, 2024-10-24 00:45:59.571
141.0, -49143.86411236097, -51049.842065553916, -50992.24162009259, -56300.53505903901, -56217.96771502111, -49274.82298312461, -20648.51917606821, 3600.1954794163084, 0.112, 0.97, 0.128, 192.0, 0.0, 0.0, 0.0, 0.0, 0.0, 0.0, 0.0, 0.0, 0.0, 1.729710959575388E9, 0.0, 2024-10-24 00:45:59.575
142.0, -49168.87571440646, -51070.4056704528, -51013.45342558067, -56316.181280157725, -56236.51966291901, -49289.66454144294, -20376.163169880292, 3899.3735789505936, 0.112, 0.97, 0.128, 192.0, 0.0, 0.0, 0.0, 0.0, 0.0, 0.0, 0.0, 0.0, 0.0, 1.729710959579328E9, 0.0, 2024-10-24 00:45:59.579
143.0, -49160.02442360216, -51053.30658594449, -50992.59924800388, -56293.11427987985, -56194.49838334303, -49261.36723296252, -20549.500948131197, 3680.9970356222434, 0.112, 0.97, 0.128, 192.0, 0.0, 0.0, 0.0, 0.0, 0.0, 0.0, 0.0, 0.0, 0.0, 1.7297109595832713E9, 0.0, 2024-10-24 00:45:59.583
144.0, -49133.11292327797, -51025.210443164164, -50964.57016045692, -56262.85001788736, -56161.77542946046, -49224.88918601146, -20878.742143957872, 3308.3487520633644, 0.112, 0.97, 0.128, 192.0, 0.0, 0.0, 0.0, 0.0, 0.0, 0.0, 0.0, 0.0, 0.0, 1.7297109595882645E9, 0.0, 2024-10-24 00:45:59.588
145.0, -49116.080894003026, -51022.975268718634, -50959.67512842121, -56266.538055722485, -56175.2088278781, -49233.31579367111, -20957.24147048491, 3237.203149462122, 0.112, 0.97, 0.128, 192.0, 0.0, 0.0, 0.0, 0.0, 0.0, 0.0, 0.0, 0.0, 0.0, 1.729710959591313E9, 0.0, 2024-10-24 00:45:59.591
146.0, -49129.558995909574, -51046.46695214116, -50982.80918393245, -56291.0355676455, -56212.64799984074, -49261.50134342925, -20666.109998954536, 3575.0497669040883, 0.112, 0.97, 0.128, 192.0, 0.0, 0.0, 0.0, 0.0, 0.0, 0.0, 0.0, 0.0, 0.0, 1.729710959594315E9, 0.0, 2024-10-24 00:45:59.594
147.0, -49151.08372582003, -51061.42026918176, -51000.33295158541, -56300.98209392811, -56219.10765398832, -49274.3312447466, -20397.79965851303, 3869.28813091375, 0.112, 0.97, 0.128, 192.0, 0.0, 0.0, 0.0, 0.0, 0.0, 0.0, 0.0, 0.0, 0.0, 1.7297109595993102E9, 0.0, 2024-10-24 00:45:59.599
148.0, -49144.71347865027, -51039.694373571205, -50983.904419410756, -56272.37186102532, -56175.18647613365, -49241.94356703086, -20579.87696884596, 3643.982546804255, 0.112, 0.97, 0.128, 192.0, 0.0, 0.0, 0.0, 0.0, 0.0, 0.0, 0.0, 0.0, 0.0, 1.729710959603306E9, 0.0, 2024-10-24 00:45:59.603
149.0, -49120.283021960626, -51011.21825113514, -50960.502142966056, -56246.332078734886, -56150.30898455489, -49221.916403998905, -20916.784813020804, 3265.165181775711, 0.116, 0.97, 0.128, 192.0, 3.0, 160.0, 30.0, 80.0, 4.0, 0.0, 0.0, 0.0, 0.0, 1.7297109596074374E9, 0.0, 2024-10-24 00:45:59.607
150.0, -49101.84283278499, -51004.602134776374, -50960.12216331031, -56249.28250900299, -56167.765696974486, -49235.327450672085, -20991.81961915727, 3195.3830355862424, 0.116, 0.97, 0.128, 192.0, 0.0, 0.0, 0.0, 0.0, 0.0, 0.0, 0.0, 0.0, 0.0, 1.729710959611329E9, 0.0, 2024-10-24 00:45:59.611
151.0, -49114.85154805798, -51020.963611717656, -50982.026872876515, -56268.25914004554, -56194.386624620754, -49259.13205851699, -20715.976740834325, 3515.4600161862395, 0.116, 0.97, 0.128, 192.0, 0.0, 0.0, 0.0, 0.0, 0.0, 0.0, 0.0, 0.0, 0.0, 1.72971095961733E9, 0.0, 2024-10-24 00:45:59.617
152.0, -49141.450123959796, -51039.38144914883, -51008.156062144764, -56286.54286700999, -56215.33020917538, -49278.93570410439, -20437.63046713239, 3818.482615766837, 0.116, 0.97, 0.128, 192.0, 0.0, 0.0, 0.0, 0.0, 0.0, 0.0, 0.0, 0.0, 0.0, 1.7297109596203322E9, 0.0, 2024-10-24 00:45:59.620
153.0, -49133.87288258945, -51020.15894891727, -50994.43209104921, -56264.638157443784, -56186.563514061396, -49251.93479680238, -20623.08289087807, 3592.1041479234873, 0.116, 0.97, 0.128, 192.0, 0.0, 0.0, 0.0, 0.0, 0.0, 0.0, 0.0, 0.0, 0.0, 1.7297109596244655E9, 0.0, 2024-10-24 00:45:59.624
154.0, -49109.28596368861, -50995.66143699425, -50974.695500695176, -56242.59933741085, -56162.20011260511, -49224.844482522545, -20961.264784486866, 3215.432550362653, 0.116, 0.97, 0.128, 192.0, 0.0, 0.0, 0.0, 0.0, 0.0, 0.0, 0.0, 0.0, 0.0, 1.7297109596273377E9, 0.0, 2024-10-24 00:45:59.627
155.0, -49090.71166404625, -50993.42626254872, -50972.236808805086, -56248.0755148024, -56175.03001392246, -49231.415895392405, -21020.34044508224, 3164.3811660267315, 0.116, 0.97, 0.128, 192.0, 0.0, 0.0, 0.0, 0.0, 0.0, 0.0, 0.0, 0.0, 0.0, 1.7297109596313713E9, 0.0, 2024-10-24 00:45:59.631
156.0, -49105.41911189784, -51013.74399825859, -50995.48262303861, -56274.629387215304, -56205.786014292964, -49262.93185507439, -20743.2458690698, 3485.933361760779, 0.116, 0.97, 0.128, 192.0, 0.0, 0.0, 0.0, 0.0, 0.0, 0.0, 0.0, 0.0, 0.0, 1.7297109596355667E9, 0.0, 2024-10-24 00:45:59.635
157.0, -49131.97298431075, -51031.69244905621, -51020.31541112845, -56290.54382926749, -56229.5235669045, -49280.58973319409, -20475.717839684232, 3778.0259583027314, 0.116, 0.97, 0.128, 192.0, 0.0, 0.0, 0.0, 0.0, 0.0, 0.0, 0.0, 0.0, 0.0, 1.729710959639536E9, 0.0, 2024-10-24 00:45:59.639
158.0, -49130.07308603205, -51015.75565525957, -51012.13467265781, -56271.72366043612, -56202.61206658031, -49258.819134094614, -20675.18480720339, 3533.9672605952337, 0.116, 0.97, 0.128, 192.0, 0.0, 0.0, 0.0, 0.0, 0.0, 0.0, 0.0, 0.0, 0.0, 1.72971095964438E9, 0.0, 2024-10-24 00:45:59.644
159.0, -49114.20334746878, -51000.66822775224, -50993.44861429318, -56256.189198039676, -56178.69570001313, -49240.49070364126, -21001.520276250874, 3166.616340472262, 0.112, 0.968, 0.132, 192.0, 3.0, 128.0, 30.0, 64.0, 4.0, 32.0, 0.0, 0.0, 0.0, 1.7297109596474435E9, 0.0, 2024-10-24 00:45:59.647
160.0, -49089.39291112339, -50992.86746893734, -50975.47781175111, -56252.18823578218, -56178.29336861293, -49235.86389253901, -21081.18189348959, 3096.6777320716064, 0.112, 0.968, 0.132, 192.0, 0.0, 0.0, 0.0, 0.0, 0.0, 0.0, 0.0, 0.0, 0.0, 1.7297109596506553E9, 0.0, 2024-10-24 00:45:59.650
161.0, -49101.99929499618, -51013.58753604741, -50989.40294854676, -56275.2328843156, -56196.912371744205, -49261.59075040707, -20789.26811090328, 3433.183244846254, 0.112, 0.968, 0.132, 192.0, 0.0, 0.0, 0.0, 0.0, 0.0, 0.0, 0.0, 0.0, 0.0, 1.729710959655434E9, 0.0, 2024-10-24 00:45:59.655
162.0, -49130.900100576895, -51031.62539382284, -51004.468024309645, -56285.73820420959, -56198.231124667065, -49265.971692320316, -20493.398069548377, 3753.7966673131787, 0.112, 0.968, 0.132, 192.0, 0.0, 0.0, 0.0, 0.0, 0.0, 0.0, 0.0, 0.0, 0.0, 1.729710959659443E9, 0.0, 2024-10-24 00:45:59.659
163.0, -49130.56482441007, -51017.83436749392, -50988.95591365766, -56262.782962654, -56172.39250807673, -49237.24970069525, -20676.369449659524, 3524.825397113013, 0.112, 0.968, 0.132, 192.0, 0.0, 0.0, 0.0, 0.0, 0.0, 0.0, 0.0, 0.0, 0.0, 1.729710959663494E9, 0.0, 2024-10-24 00:45:59.663
164.0, -49113.80101606858, -51002.85869870886, -50968.03468084749, -56241.571157165905, -56152.030068877946, -49214.65208705093, -21001.944959395525, 3156.491000234008, 0.112, 0.968, 0.132, 192.0, 0.0, 0.0, 0.0, 0.0, 0.0, 0.0, 0.0, 0.0, 0.0, 1.729710959667648E9, 0.0, 2024-10-24 00:45:59.667
165.0, -49095.24906817068, -51003.61865802034, -50961.44091623317, -56242.5769856664, -56161.596615504815, -49217.60251731903, -21070.184835217577, 3096.7671390494274, 0.112, 0.968, 0.132, 192.0, 0.0, 0.0, 0.0, 0.0, 0.0, 0.0, 0.0, 0.0, 0.0, 1.7297109596713805E9, 0.0, 2024-10-24 00:45:59.671
166.0, -49109.509481133166, -51028.093818198904, -50983.85971592185, -56266.76157316704, -56198.432290367164, -49245.49749439925, -20775.11945666307, 3436.1113233698993, 0.112, 0.968, 0.132, 192.0, 0.0, 0.0, 0.0, 0.0, 0.0, 0.0, 0.0, 0.0, 0.0, 1.729710959675406E9, 0.0, 2024-10-24 00:45:59.675
167.0, -49129.60369939848, -51041.68367882773, -50996.421396305734, -56275.054070359954, -56197.06883395539, -49252.828866580596, -20502.942264430796, 3731.489626346782, 0.112, 0.968, 0.132, 192.0, 0.0, 0.0, 0.0, 0.0, 0.0, 0.0, 0.0, 0.0, 0.0, 1.7297109596783817E9, 0.0, 2024-10-24 00:45:59.678
168.0, -49124.37339119594, -51021.47770184013, -50981.62454147632, -56251.07064855941, -56163.60827250579, -49223.391619132955, -20696.508371413755, 3490.8507455409463, 0.112, 0.968, 0.132, 192.0, 0.0, 0.0, 0.0, 0.0, 0.0, 0.0, 0.0, 0.0, 0.0, 1.729710959682433E9, 0.0, 2024-10-24 00:45:59.682
169.0, -49100.88170777341, -50999.796509718486, -50960.32332901041, -56231.155244249734, -56133.88045238024, -49202.02335143368, -21031.091634165245, 3114.134444491201, 0.108, 0.972, 0.13, 192.0, 3.0, 96.0, 30.0, 96.0, 4.0, 16.0, 0.0, 0.0, 0.0, 1.7297109596875503E9, 0.0, 2024-10-24 00:45:59.687
170.0, -49086.017797710636, -51002.90340219777, -50962.51379996703, -56242.644040899766, -56153.32647005635, -49221.581127832076, -21077.627966121196, 3076.5388103173746, 0.108, 0.972, 0.13, 192.0, 0.0, 0.0, 0.0, 0.0, 0.0, 0.0, 0.0, 0.0, 0.0, 1.729710959691543E9, 0.0, 2024-10-24 00:45:59.691
171.0, -49098.82534728353, -51021.27653614003, -50985.55844850045, -56267.40977375624, -56184.328339615866, -49249.096125256554, -20775.834712485637, 3424.287250553042, 0.108, 0.972, 0.13, 192.0, 0.0, 0.0, 0.0, 0.0, 0.0, 0.0, 0.0, 0.0, 0.0, 1.7297109596955397E9, 0.0, 2024-10-24 00:45:59.695
172.0, -49117.80197832608, -51032.51946360105, -50998.90243994027, -56279.09973610637, -56182.60725529281, -49256.85218058255, -20510.497154056688, 3714.658762771936, 0.108, 0.972, 0.13, 192.0, 0.0, 0.0, 0.0, 0.0, 0.0, 0.0, 0.0, 0.0, 0.0, 1.7297109596995144E9, 0.0, 2024-10-24 00:45:59.699
173.0, -49112.03522825662, -51014.23573663661, -50988.33006481291, -56260.4807329751, -56166.89397894072, -49235.5733198611, -20721.38586299251, 3459.088916669955, 0.108, 0.972, 0.13, 192.0, 0.0, 0.0, 0.0, 0.0, 0.0, 0.0, 0.0, 0.0, 0.0, 1.7297109597034547E9, 0.0, 2024-10-24 00:45:59.703
174.0, -49087.537716333594, -50993.44861429318, -50967.45353549165, -56242.778151366496, -56146.46448450858, -49217.513110341206, -21036.72427376798, 3103.629124597207, 0.108, 0.972, 0.13, 192.0, 0.0, 0.0, 0.0, 0.0, 0.0, 0.0, 0.0, 0.0, 0.0, 1.729710959706516E9, 0.0, 2024-10-24 00:45:59.706
175.0, -49065.85652421195, -50989.87233518033, -50957.37289874231, -56247.024982813, -56149.72783919905, -49227.303174412635, -21095.956396574547, 3052.756554216928, 0.108, 0.972, 0.13, 192.0, 0.0, 0.0, 0.0, 0.0, 0.0, 0.0, 0.0, 0.0, 0.0, 1.7297109597106686E9, 0.0, 2024-10-24 00:45:59.710
176.0, -49078.06057668455, -51007.61962027784, -50974.51668673953, -56269.86846564632, -56172.437211565644, -49257.925064316405, -20816.537239138754, 3375.2028197291875, 0.108, 0.972, 0.13, 192.0, 0.0, 0.0, 0.0, 0.0, 0.0, 0.0, 0.0, 0.0, 0.0, 1.7297109597154639E9, 0.0, 2024-10-24 00:45:59.715
177.0, -49110.47060614474, -51031.42422812274, -51001.36113183035, -56292.57783801292, -56201.807403779916, -49281.79672739467, -20529.227915910236, 3686.4508612693385, 0.108, 0.972, 0.13, 192.0, 0.0, 0.0, 0.0, 0.0, 0.0, 0.0, 0.0, 0.0, 0.0, 1.7297109597194865E9, 0.0, 2024-10-24 00:45:59.719
178.0, -49114.33745793551, -51017.454387838174, -50998.07542539542, -56274.361166281844, -56186.74232801704, -49258.193285249865, -20730.013636352258, 3439.9111199273016, 0.108, 0.972, 0.13, 192.0, 0.0, 0.0, 0.0, 0.0, 0.0, 0.0, 0.0, 0.0, 0.0, 1.729710959723666E9, 0.0, 2024-10-24 00:45:59.723
179.0, -49089.72818729022, -50990.63229449181, -50970.40396575975, -56249.01428806953, -56149.83959792133, -49235.03687799417, -21070.922442784602, 3058.6127112642184, 0.11, 0.97, 0.13, 192.0, 3.0, 112.0, 30.0, 80.0, 4.0, 16.0, 0.0, 0.0, 0.0, 1.7297109597275715E9, 0.0, 2024-10-24 00:45:59.727
180.0, -49066.70589050125, -50981.110451353845, -50958.19991328716, -56246.667354901714, -56160.79195270443, -49236.57914836158, -21117.79405090738, 3021.93349861306, 0.11, 0.97, 0.13, 192.0, 0.0, 0.0, 0.0, 0.0, 0.0, 0.0, 0.0, 0.0, 0.0, 1.72971095973053E9, 0.0, 2024-10-24 00:45:59.730
181.0, -49082.35211161996, -51001.00350391907, -50979.94816064217, -56266.046317344466, -56188.17283966218, -49250.39252643497, -20814.100898993125, 3373.392328428308, 0.11, 0.97, 0.13, 192.0, 0.0, 0.0, 0.0, 0.0, 0.0, 0.0, 0.0, 0.0, 0.0, 1.7297109597345405E9, 0.0, 2024-10-24 00:45:59.734
182.0, -49107.81074855456, -51021.05301869548, -51000.24354460759, -56280.37378554032, -56200.71216830161, -49257.74625036076, -20544.270639928658, 3667.2954162711403, 0.11, 0.97, 0.13, 192.0, 0.0, 0.0, 0.0, 0.0, 0.0, 0.0, 0.0, 0.0, 0.0, 1.729710959738511E9, 0.0, 2024-10-24 00:45:59.738
183.0, -49104.34622816399, -51005.38444583231, -50987.21247759015, -56257.575006195904, -56178.31572035739, -49229.113665713514, -20726.459708983864, 3439.1064571269108, 0.11, 0.97, 0.13, 192.0, 0.0, 0.0, 0.0, 0.0, 0.0, 0.0, 0.0, 0.0, 0.0, 1.7297109597435243E9, 0.0, 2024-10-24 00:45:59.743
184.0, -49086.17425992183, -50986.005483389556, -50966.715927924626, -56234.999744296045, -56154.332298556845, -49206.02431369118, -21048.324829140285, 3077.4105283511317, 0.11, 0.97, 0.13, 192.0, 0.0, 0.0, 0.0, 0.0, 0.0, 0.0, 0.0, 0.0, 0.0, 1.7297109597475324E9, 0.0, 2024-10-24 00:45:59.747
185.0, -49068.91871320233, -50986.3854630453, -50956.70234640865, -56240.2747559875, -56156.29925206891, -49220.2176714203, -21115.08948982829, 3017.5749084442746, 0.11, 0.97, 0.13, 192.0, 0.0, 0.0, 0.0, 0.0, 0.0, 0.0, 0.0, 0.0, 0.0, 1.7297109597515464E9, 0.0, 2024-10-24 00:45:59.751
186.0, -49083.51440233164, -51006.5914400329, -50975.298997795464, -56260.257215530546, -56183.613083793294, -49243.1729129759, -20830.46237593441, 3347.6878223047047, 0.11, 0.97, 0.13, 192.0, 0.0, 0.0, 0.0, 0.0, 0.0, 0.0, 0.0, 0.0, 0.0, 1.7297109597555325E9, 0.0, 2024-10-24 00:45:59.755
187.0, -49107.76604506565, -51022.17060591825, -50990.408777047254, -56267.94621562317, -56194.520735087484, -49247.576206633596, -20575.004288554705, 3629.208043719297, 0.11, 0.97, 0.13, 192.0, 0.0, 0.0, 0.0, 0.0, 0.0, 0.0, 0.0, 0.0, 0.0, 1.7297109597597654E9, 0.0, 2024-10-24 00:45:59.759
188.0, -49112.75048407918, -51014.48160582562, -50980.77517518702, -56251.025945070505, -56175.54410404493, -49227.68315406837, -20762.267203601266, 3398.4933374516177, 0.11, 0.97, 0.13, 192.0, 0.0, 0.0, 0.0, 0.0, 0.0, 0.0, 0.0, 0.0, 0.0, 1.7297109597625678E9, 0.0, 2024-10-24 00:45:59.762
189.0, -49092.320989647036, -50998.20953586216, -50955.96473884163, -56229.54591864895, -56143.849330407305, -49197.28478160915, -21089.11676277122, 3031.701210940029, 0.116, 0.972, 0.126, 192.0, 3.0, 160.0, 30.0, 96.0, 3.0, 240.0, 0.0, 0.0, 0.0, 1.729710959766543E9, 0.0, 2024-10-24 00:45:59.766
190.0, -49066.75059399016, -50991.92869567021, -50939.98324155608, -56228.20481398163, -56135.668591936665, -49199.475252565775, -21164.442141585605, 2964.4671636184653, 0.116, 0.972, 0.126, 192.0, 0.0, 0.0, 0.0, 0.0, 0.0, 0.0, 0.0, 0.0, 0.0, 1.7297109597705512E9, 0.0, 2024-10-24 00:45:59.770
191.0, -49079.49108832968, -51006.703198755175, -50953.26017776253, -56246.55559617944, -56149.571376987864, -49224.93388950037, -20869.13089384209, 3303.006685138546, 0.116, 0.972, 0.126, 192.0, 0.0, 0.0, 0.0, 0.0, 0.0, 0.0, 0.0, 0.0, 0.0, 1.7297109597759469E9, 0.0, 2024-10-24 00:45:59.775
192.0, -49101.93223976281, -51021.61181230686, -50972.862657649835, -56260.61484344183, -56165.999909162514, -49239.5742821186, -20589.89055036194, 3604.866994007468, 0.116, 0.972, 0.126, 192.0, 0.0, 0.0, 0.0, 0.0, 0.0, 0.0, 0.0, 0.0, 0.0, 1.7297109597789633E9, 0.0, 2024-10-24 00:45:59.778
193.0, -49096.25489667117, -51002.5904777754, -50961.91030286674, -56241.593508910366, -56147.49266475352, -49214.83090100657, -20794.118439450078, 3354.415697385752, 0.116, 0.972, 0.126, 192.0, 0.0, 0.0, 0.0, 0.0, 0.0, 0.0, 0.0, 0.0, 0.0, 1.7297109597835631E9, 0.0, 2024-10-24 00:45:59.783
194.0, -49081.323931375024, -50987.95008515717, -50949.88506434978, -56230.46234017162, -56138.64137394922, -49201.419854333384, -21121.884420142702, 2984.919009795071, 0.116, 0.972, 0.126, 192.0, 0.0, 0.0, 0.0, 0.0, 0.0, 0.0, 0.0, 0.0, 0.0, 1.7297109597865903E9, 0.0, 2024-10-24 00:45:59.786
195.0, -49063.86721895543, -50990.542887513984, -50941.43610494568, -56242.73344787758, -56139.11076058278, -49220.77646503168, -21198.685014091137, 2916.3215060617335, 0.116, 0.972, 0.126, 192.0, 0.0, 0.0, 0.0, 0.0, 0.0, 0.0, 0.0, 0.0, 0.0, 1.7297109597907498E9, 0.0, 2024-10-24 00:45:59.790
196.0, -49077.59119005099, -51013.05109418048, -50960.12216331031, -56268.639119701285, -56163.74238297253, -49248.85025606755, -20897.249388366865, 3262.1029927853338, 0.116, 0.972, 0.126, 192.0, 0.0, 0.0, 0.0, 0.0, 0.0, 0.0, 0.0, 0.0, 0.0, 1.729710959794598E9, 0.0, 2024-10-24 00:45:59.794
197.0, -49102.87101302994, -51028.67496355474, -50982.00452113206, -56282.85482917486, -56180.908522714206, -49260.65197713995, -20615.572704741087, 3566.377290055429, 0.116, 0.972, 0.126, 192.0, 0.0, 0.0, 0.0, 0.0, 0.0, 0.0, 0.0, 0.0, 0.0, 1.729710959798583E9, 0.0, 2024-10-24 00:45:59.798
198.0, -49098.42301588333, -51009.698332512184, -50968.593474458874, -56259.072573074416, -56154.824036934864, -49231.415895392405, -20814.994968771338, 3319.882252202303, 0.116, 0.972, 0.126, 192.0, 0.0, 0.0, 0.0, 0.0, 0.0, 0.0, 0.0, 0.0, 0.0, 1.7297109598036373E9, 0.0, 2024-10-24 00:45:59.803
199.0, -49080.563972063544, -50994.16387011574, -50952.299052750954, -56242.08524728838, -56143.58110947384, -49211.858118994016, -21146.69485648809, 2947.3233756212444, 0.114, 0.974, 0.13, 192.0, 3.0, 144.0, 30.0, 112.0, 4.0, 16.0, 0.0, 0.0, 0.0, 1.7297109598077044E9, 0.0, 2024-10-24 00:45:59.807
200.0, -49063.39783232187, -50989.42530029122, -50943.62657590229, -56243.85103510035, -56143.11172284028, -49218.36247663051, -21224.970665570578, 2878.3905957210777, 0.114, 0.974, 0.13, 192.0, 0.0, 0.0, 0.0, 0.0, 0.0, 0.0, 0.0, 0.0, 0.0, 1.7297109598147647E9, 0.0, 2024-10-24 00:45:59.814
201.0, -49074.46194582724, -51005.11622489885, -50959.161038298735, -56264.168770810225, -56162.53538877194, -49240.33424143008, -20950.938278548514, 3200.523936810963, 0.114, 0.974, 0.13, 192.0, 0.0, 0.0, 0.0, 0.0, 0.0, 0.0, 0.0, 0.0, 0.0, 1.729710959814824E9, 0.0, 2024-10-24 00:45:59.814
202.0, -49100.5911350955, -51022.81880650745, -50978.42824201921, -56279.70323320666, -56183.411918093196, -49253.2759014697, -20666.71349605483, 3510.833205083991, 0.114, 0.974, 0.13, 192.0, 0.0, 0.0, 0.0, 0.0, 0.0, 0.0, 0.0, 0.0, 0.0, 1.729710959818667E9, 0.0, 2024-10-24 00:45:59.818
203.0, -49095.651399570874, -51000.2882480965, -50963.56433195643, -56254.021078827514, -56160.59078700433, -49229.180720946875, -20849.79663488825, 3284.454737240641, 0.114, 0.974, 0.13, 192.0, 0.0, 0.0, 0.0, 0.0, 0.0, 0.0, 0.0, 0.0, 0.0, 1.7297109598225994E9, 0.0, 2024-10-24 00:45:59.822
204.0, -49067.86818121293, -50969.26402679253, -50933.38947694177, -56219.59939236634, -56119.664742906665, -49191.987418173245, -21180.445990615608, 2912.186433337502, 0.114, 0.974, 0.13, 192.0, 0.0, 0.0, 0.0, 0.0, 0.0, 0.0, 0.0, 0.0, 0.0, 1.7297109598268476E9, 0.0, 2024-10-24 00:45:59.826
205.0, -49050.567931004516, -50968.9287506257, -50930.439046673666, -56227.35544769233, -56135.48977798102, -49215.45674985132, -21229.19514527263, 2870.992168306371, 0.114, 0.974, 0.13, 192.0, 0.0, 0.0, 0.0, 0.0, 0.0, 0.0, 0.0, 0.0, 0.0, 1.7297109598316932E9, 0.0, 2024-10-24 00:45:59.831
206.0, -49064.89539920037, -50991.593419503384, -50956.38942198628, -56251.13770379278, -56180.17091514718, -49243.575244376094, -20937.10254873068, 3208.838785748337, 0.114, 0.974, 0.13, 192.0, 0.0, 0.0, 0.0, 0.0, 0.0, 0.0, 0.0, 0.0, 0.0, 1.7297109598357227E9, 0.0, 2024-10-24 00:45:59.835
207.0, -49087.31419888904, -51006.211460377155, -50971.00746286005, -56253.01525032702, -56190.31860712989, -49228.197244190844, -20665.864129765527, 3504.485309658684, 0.114, 0.974, 0.13, 192.0, 0.0, 0.0, 0.0, 0.0, 0.0, 0.0, 0.0, 0.0, 0.0, 1.729710959839634E9, 0.0, 2024-10-24 00:45:59.839
208.0, -49082.50857383115, -50986.31840781193, -50947.135799781776, -56221.54399413395, -56137.903766382195, -49193.70850249631, -20868.281527552786, 3257.744402616549, 0.114, 0.974, 0.13, 192.0, 0.0, 0.0, 0.0, 0.0, 0.0, 0.0, 0.0, 0.0, 0.0, 1.7297109598426728E9, 0.0, 2024-10-24 00:45:59.842
209.0, -49064.336605588986, -50964.972491857116, -50925.387552426764, -56199.25930491201, -56121.83286211883, -49176.16238309889, -21207.648063617715, 2877.2283050094015, 0.114, 0.974, 0.13, 192.0, 0.0, 0.0, 0.0, 0.0, 0.0, 0.0, 0.0, 0.0, 0.0, 1.7297109598467717E9, 0.0, 2024-10-24 00:45:59.846
210.0, -49045.85171292445, -50967.408832002744, -50919.55374712393, -56208.60233409433, -56136.54030997042, -49197.55300254262, -21272.98221266058, 2821.4159991045, 0.11, 0.972, 0.128, 192.0, 3.0, 112.0, 30.0, 96.0, 4.0, 0.0, 0.0, 0.0, 0.0, 1.729710959850786E9, 0.0, 2024-10-24 00:45:59.850
211.0, -49061.117954387424, -50992.59924800388, -50935.043506031456, -56234.21743324011, -56155.382830546245, -49220.84352026505, -20979.727325406948, 3160.2013898135892, 0.11, 0.972, 0.128, 192.0, 0.0, 0.0, 0.0, 0.0, 0.0, 0.0, 0.0, 0.0, 0.0, 1.7297109598546836E9, 0.0, 2024-10-24 00:45:59.854
212.0, -49093.30446640307, -51015.442730837196, -50958.78105864299, -56252.00942182654, -56175.722918000574, -49228.66663082441, -20698.90000807047, 3465.056832439522, 0.11, 0.972, 0.128, 192.0, 0.0, 0.0, 0.0, 0.0, 0.0, 0.0, 0.0, 0.0, 0.0, 1.7297109598586648E9, 0.0, 2024-10-24 00:45:59.858
213.0, -49098.802995539074, -51005.96559118815, -50952.299052750954, -56238.19604375316, -56147.44796126461, -49207.45482533632, -20872.08132411019, 3247.686117611661, 0.11, 0.972, 0.128, 192.0, 0.0, 0.0, 0.0, 0.0, 0.0, 0.0, 0.0, 0.0, 0.0, 1.729710959863788E9, 0.0, 2024-10-24 00:45:59.863
214.0, -49073.09848941547, -50984.66437872224, -50930.34963969584, -56218.012418510014, -56134.79687390291, -49183.739624469235, -21208.58683688484, 2870.9698165619156, 0.11, 0.972, 0.128, 192.0, 0.0, 0.0, 0.0, 0.0, 0.0, 0.0, 0.0, 0.0, 0.0, 1.72971095986782E9, 0.0, 2024-10-24 00:45:59.867
215.0, -49052.93721591678, -50985.022006633524, -50917.899718034234, -56221.879270300786, -56125.65501042068, -49186.24301984823, -21280.35828833083, 2809.860147221106, 0.11, 0.972, 0.128, 192.0, 0.0, 0.0, 0.0, 0.0, 0.0, 0.0, 0.0, 0.0, 0.0, 1.7297109598708105E9, 0.0, 2024-10-24 00:45:59.870
216.0, -49069.09752715797, -51008.55839354496, -50938.75389561104, -56250.33304099239, -56153.3041183119, -49216.70844754082, -20981.87309287466, 3153.6746804326394, 0.11, 0.972, 0.128, 192.0, 0.0, 0.0, 0.0, 0.0, 0.0, 0.0, 0.0, 0.0, 0.0, 1.7297109598747163E9, 0.0, 2024-10-24 00:45:59.874
217.0, -49094.265591414645, -51025.05398095298, -50963.631387189795, -56267.36507026733, -56174.1582958887, -49234.03104949368, -20711.662854154452, 3448.605948520416, 0.11, 0.972, 0.128, 192.0, 0.0, 0.0, 0.0, 0.0, 0.0, 0.0, 0.0, 0.0, 0.0, 1.729710959878744E9, 0.0, 2024-10-24 00:45:59.878
218.0, -49090.17522217932, -51005.27268711003, -50947.828703859894, -56244.38747696728, -56133.96985935806, -49209.399427103934, -20923.400929379575, 3190.9573901840918, 0.11, 0.972, 0.128, 192.0, 0.0, 0.0, 0.0, 0.0, 0.0, 0.0, 0.0, 0.0, 0.0, 1.729710959882726E9, 0.0, 2024-10-24 00:45:59.882
219.0, -49070.483335314195, -50988.35241655736, -50930.34963969584, -56231.53522390548, -56116.937830083116, -49199.29643861013, -21261.135788099265, 2812.609411789109, 0.11, 0.972, 0.128, 192.0, 0.0, 0.0, 0.0, 0.0, 0.0, 0.0, 0.0, 0.0, 0.0, 1.7297109598867245E9, 0.0, 2024-10-24 00:45:59.886
220.0, -49053.40660255034, -50989.648817735775, -50932.89773856375, -56244.38747696728, -56142.68703969563, -49217.11077894101, -21314.958788747645, 2770.4540217463996, 0.116, 0.976, 0.122, 192.0, 3.0, 160.0, 30.0, 128.0, 3.0, 208.0, 0.0, 0.0, 0.0, 1.7297109598917348E9, 0.0, 2024-10-24 00:45:59.891
221.0, -49068.35991959094, -51008.647800522784, -50954.400116729754, -56268.16973306772, -56165.01643240648, -49240.49070364126, -21011.600913000217, 3122.4045899396647, 0.116, 0.976, 0.122, 192.0, 0.0, 0.0, 0.0, 0.0, 0.0, 0.0, 0.0, 0.0, 0.0, 1.7297109598958497E9, 0.0, 2024-10-24 00:45:59.895
222.0, -49088.92352448982, -51020.404818106275, -50971.78977391598, -56281.51372450754, -56182.987234948545, -49255.064041026126, -20775.16416015198, 3384.255276233587, 0.116, 0.976, 0.122, 192.0, 0.0, 0.0, 0.0, 0.0, 0.0, 0.0, 0.0, 0.0, 0.0, 1.729710959898838E9, 0.0, 2024-10-24 00:45:59.898
223.0, -49092.63391406941, -51008.22311737813, -50970.761593671035, -56266.89568363377, -56168.97269117507, -49235.12628497199, -20957.174415251546, 3157.8321049013266, 0.116, 0.976, 0.122, 192.0, 0.0, 0.0, 0.0, 0.0, 0.0, 0.0, 0.0, 0.0, 0.0, 1.7297109599027207E9, 0.0, 2024-10-24 00:45:59.902
224.0, -49072.07030917052, -50988.12889911281, -50951.114410294824, -56245.281546745486, -56140.988307117026, -49210.36055211551, -21288.449619823652, 2787.1731265989697, 0.116, 0.976, 0.122, 192.0, 0.0, 0.0, 0.0, 0.0, 0.0, 0.0, 0.0, 0.0, 0.0, 1.7297109599070082E9, 0.0, 2024-10-24 00:45:59.907
225.0, -49049.65150948185, -50983.770308944026, -50937.524549666, -56242.71109613313, -56137.16615881517, -49209.44413059284, -21353.381437466316, 2732.701925361386, 0.116, 0.976, 0.122, 192.0, 0.0, 0.0, 0.0, 0.0, 0.0, 0.0, 0.0, 0.0, 0.0, 1.7297109599108727E9, 0.0, 2024-10-24 00:45:59.910
226.0, -49062.66022475484, -51005.317390598946, -50956.41177373073, -56264.05701208795, -56170.470258053574, -49239.954261774335, -21066.16152121562, 3066.8381532237713, 0.116, 0.976, 0.122, 192.0, 0.0, 0.0, 0.0, 0.0, 0.0, 0.0, 0.0, 0.0, 0.0, 1.7297109599148936E9, 0.0, 2024-10-24 00:45:59.914
227.0, -49087.537716333594, -51022.75175127408, -50975.90249489576, -56276.61869247183, -56180.17091514718, -49254.50524741474, -20789.78220102575, 3367.513819636562, 0.116, 0.976, 0.122, 192.0, 0.0, 0.0, 0.0, 0.0, 0.0, 0.0, 0.0, 0.0, 0.0, 1.729710959919816E9, 0.0, 2024-10-24 00:45:59.919
228.0, -49081.94978021977, -51004.266858609546, -50960.56919819942, -56248.0755148024, -56148.09616185381, -49210.36055211551, -20969.35611597969, 3140.554206437374, 0.116, 0.976, 0.122, 192.0, 0.0, 0.0, 0.0, 0.0, 0.0, 0.0, 0.0, 0.0, 0.0, 1.729710959924044E9, 0.0, 2024-10-24 00:45:59.924
229.0, -49061.050899154056, -50984.59732348887, -50942.307822979434, -56226.88606105877, -56137.88141463774, -49192.836784462546, -21299.87136124031, 2768.9788066123497, 0.116, 0.976, 0.122, 192.0, 0.0, 0.0, 0.0, 0.0, 0.0, 0.0, 0.0, 0.0, 0.0, 1.729710959926914E9, 0.0, 2024-10-24 00:45:59.926
230.0, -49039.83909366597, -50981.3339687984, -50936.026982787494, -56231.870500072306, -56155.673403224166, -49211.500491082734, -21363.55148119348, 2718.8885472880065, 0.112, 0.978, 0.128, 192.0, 3.0, 128.0, 30.0, 144.0, 4.0, 0.0, 0.0, 0.0, 0.0, 1.72971095993077E9, 0.0, 2024-10-24 00:45:59.930
231.0, -49051.43964903828, -51001.316428341444, -50951.56144518393, -56252.94819509366, -56163.96590041708, -49237.74143907326, -21037.528936568375, 3096.6106768382406, 0.112, 0.978, 0.128, 192.0, 0.0, 0.0, 0.0, 0.0, 0.0, 0.0, 0.0, 0.0, 0.0, 1.7297109599347699E9, 0.0, 2024-10-24 00:45:59.934
232.0, -49073.076137671014, -51011.91115521326, -50957.43995397568, -56253.819913127416, -56154.22053983457, -49227.146712201444, -20745.078712115137, 3414.5865934594385, 0.112, 0.978, 0.128, 192.0, 0.0, 0.0, 0.0, 0.0, 0.0, 0.0, 0.0, 0.0, 0.0, 1.7297109599388976E9, 0.0, 2024-10-24 00:45:59.938
233.0, -49073.97020744922, -50995.437919549695, -50944.74416312506, -56229.81413958241, -56133.12049306876, -49197.19537463133, -20969.75844737988, 3136.754409879972, 0.112, 0.978, 0.128, 192.0, 0.0, 0.0, 0.0, 0.0, 0.0, 0.0, 0.0, 0.0, 0.0, 1.7297109599441879E9, 0.0, 2024-10-24 00:45:59.944
234.0, -49056.40173630736, -50975.67897745121, -50927.421561172196, -56208.78114804997, -56119.10594929528, -49172.58610398604, -21329.59918136587, 2731.3384689496124, 0.112, 0.978, 0.128, 192.0, 0.0, 0.0, 0.0, 0.0, 0.0, 0.0, 0.0, 0.0, 0.0, 1.7297109599488184E9, 0.0, 2024-10-24 00:45:59.948
235.0, -49028.819683649504, -50969.018157603525, -50916.49155813355, -56208.13294746077, -56126.437321476624, -49175.11185110949, -21401.37063281186, 2671.234628109292, 0.112, 0.978, 0.128, 192.0, 0.0, 0.0, 0.0, 0.0, 0.0, 0.0, 0.0, 0.0, 0.0, 1.7297109599518595E9, 0.0, 2024-10-24 00:45:59.951
236.0, -49040.53199774409, -50995.66143699425, -50939.715020622614, -56238.93365132018, -56160.63549049324, -49211.992229460746, -21091.41899245012, 3033.2881847963554, 0.112, 0.978, 0.128, 192.0, 0.0, 0.0, 0.0, 0.0, 0.0, 0.0, 0.0, 0.0, 0.0, 1.7297109599558475E9, 0.0, 2024-10-24 00:45:59.955
237.0, -49074.2831318716, -51022.17060591825, -50967.2300180471, -56260.74895390856, -56181.64613028123, -49232.13115121498, -20787.07763994666, 3364.80925855747, 0.112, 0.978, 0.128, 192.0, 0.0, 0.0, 0.0, 0.0, 0.0, 0.0, 0.0, 0.0, 0.0, 1.7297109599595776E9, 0.0, 2024-10-24 00:45:59.959
238.0, -49074.86427722744, -51004.13274814281, -50951.963776584125, -56236.98904955257, -56143.06701935137, -49202.24686887823, -21001.743793695427, 3101.081025729302, 0.112, 0.978, 0.128, 192.0, 0.0, 0.0, 0.0, 0.0, 0.0, 0.0, 0.0, 0.0, 0.0, 1.72971095996309E9, 0.0, 2024-10-24 00:45:59.963
239.0, -49054.077154884006, -50982.33979729889, -50931.10959900732, -56218.83943305486, -56120.31294349587, -49184.030197147156, -21360.578699180925, 2698.883736000507, 0.112, 0.978, 0.128, 192.0, 0.0, 0.0, 0.0, 0.0, 0.0, 0.0, 0.0, 0.0, 0.0, 1.7297109599668148E9, 0.0, 2024-10-24 00:45:59.966
240.0, -49028.23853829367, -50974.31552103943, -50921.36423842481, -56219.912316788716, -56126.437321476624, -49190.64631350593, -21432.059577949, 2641.1715318169036, 0.11, 0.97, 0.128, 192.0, 3.0, 112.0, 30.0, 80.0, 4.0, 0.0, 0.0, 0.0, 0.0, 1.7297109599709344E9, 0.0, 2024-10-24 00:45:59.970
241.0, -49042.454247767244, -50992.55454451496, -50944.78886661397, -56243.44870370015, -56160.99311840453, -49215.903784740425, -21122.46556549854, 3002.599239659219, 0.11, 0.97, 0.128, 192.0, 0.0, 0.0, 0.0, 0.0, 0.0, 0.0, 0.0, 0.0, 0.0, 1.7297109599758277E9, 0.0, 2024-10-24 00:45:59.975
242.0, -49076.89828597287, -51013.073445924936, -50967.94527386967, -56261.1289335643, -56170.29144409794, -49232.84640703755, -20836.720864381896, 3314.093150388378, 0.11, 0.97, 0.128, 192.0, 0.0, 0.0, 0.0, 0.0, 0.0, 0.0, 0.0, 0.0, 0.0, 1.7297109599798267E9, 0.0, 2024-10-24 00:45:59.979
243.0, -49080.11693717443, -51003.75276848707, -50962.26793077802, -56244.94627057866, -56151.2030543331, -49210.62877304897, -21038.177137157578, 3058.9032839421375, 0.11, 0.97, 0.128, 192.0, 0.0, 0.0, 0.0, 0.0, 0.0, 0.0, 0.0, 0.0, 0.0, 1.7297109599829507E9, 0.0, 2024-10-24 00:45:59.982
244.0, -49052.71369847223, -50976.41658501823, -50938.329212466386, -56220.15818597772, -56126.437321476624, -49186.44418554833, -21404.835153202435, 2644.1443138294594, 0.11, 0.97, 0.128, 192.0, 0.0, 0.0, 0.0, 0.0, 0.0, 0.0, 0.0, 0.0, 0.0, 1.7297109599870045E9, 0.0, 2024-10-24 00:45:59.987
245.0, -49032.28420404008, -50971.49920123806, -50934.70822986463, -56222.99685752355, -56137.613193704274, -49195.78721473065, -21470.01284003411, 2593.1823364713596, 0.11, 0.97, 0.128, 192.0, 0.0, 0.0, 0.0, 0.0, 0.0, 0.0, 0.0, 0.0, 0.0, 1.7297109599912064E9, 0.0, 2024-10-24 00:45:59.991
246.0, -49050.05384088205, -50995.61673350534, -50958.64694817626, -56250.601261925854, -56166.96103417409, -49232.488779126266, -21146.33722857681, 2969.898637521105, 0.11, 0.97, 0.128, 192.0, 0.0, 0.0, 0.0, 0.0, 0.0, 0.0, 0.0, 0.0, 0.0, 1.7297109599950418E9, 0.0, 2024-10-24 00:45:59.995
247.0, -49080.00517845216, -51012.40289359127, -50984.03852987749, -56263.98995685458, -56189.80451700742, -49251.68892761337, -20877.535149757285, 3265.6792718981833, 0.11, 0.97, 0.128, 192.0, 0.0, 0.0, 0.0, 0.0, 0.0, 0.0, 0.0, 0.0, 0.0, 1.7297109599988556E9, 0.0, 2024-10-24 00:45:59.998
248.0, -49081.05571044156, -50996.980189917114, -50971.96858787163, -56239.29127923147, -56153.48293226754, -49217.42370336338, -21085.83105633629, 3006.980181572459, 0.11, 0.97, 0.128, 192.0, 0.0, 0.0, 0.0, 0.0, 0.0, 0.0, 0.0, 0.0, 0.0, 1.7297109600039685E9, 0.0, 2024-10-24 00:46:00.003
249.0, -49051.57375950501, -50972.236808805086, -50946.53230268149, -56211.93274401817, -56122.63752491922, -49183.49375528023, -21425.152888912307, 2623.0219153191942, 0.11, 0.97, 0.128, 192.0, 0.0, 0.0, 0.0, 0.0, 0.0, 0.0, 0.0, 0.0, 0.0, 1.729710960008018E9, 0.0, 2024-10-24 00:46:00.008
250.0, -49027.74679991565, -50964.614863945826, -50936.96575605461, -56212.6703515852, -56125.96793484306, -49192.52386004017, -21492.029308322588, 2570.1823914268484, 0.106, 0.968, 0.126, 192.0, 3.0, 80.0, 30.0, 64.0, 3.0, 240.0, 0.0, 0.0, 0.0, 1.7297109600109851E9, 0.0, 2024-10-24 00:46:00.010
251.0, -49048.533922259085, -50989.51470726904, -50965.19600930167, -56242.04054379947, -56171.72195574307, -49222.58695633256, -21170.588871310818, 2942.3612883521664, 0.106, 0.968, 0.126, 192.0, 0.0, 0.0, 0.0, 0.0, 0.0, 0.0, 0.0, 0.0, 0.0, 1.7297109600148728E9, 0.0, 2024-10-24 00:46:00.014
252.0, -49081.16746916383, -51011.50882381306, -50992.35337881486, -56259.340794007876, -56197.046482210935, -49238.36728791801, -20870.628460720596, 3267.7356323880713, 0.106, 0.968, 0.126, 192.0, 0.0, 0.0, 0.0, 0.0, 0.0, 0.0, 0.0, 0.0, 0.0, 1.7297109600188892E9, 0.0, 2024-10-24 00:46:00.018
253.0, -49071.57857079251, -50991.70517822566, -50965.48658197959, -56230.43998842716, -56143.089371095826, -49200.45872932181, -21083.774695846405, 3001.6828181365513, 0.106, 0.968, 0.126, 192.0, 0.0, 0.0, 0.0, 0.0, 0.0, 0.0, 0.0, 0.0, 0.0, 1.7297109600229204E9, 0.0, 2024-10-24 00:46:00.022
254.0, -49046.11993385791, -50968.70523318115, -50941.90549157924, -56206.836546282364, -56118.30128649489, -49173.54722899762, -21445.738845555647, 2593.2046882158147, 0.106, 0.968, 0.126, 192.0, 0.0, 0.0, 0.0, 0.0, 0.0, 0.0, 0.0, 0.0, 0.0, 1.7297109600279171E9, 0.0, 2024-10-24 00:46:00.027
255.0, -49020.437779478765, -50964.99484360157, -50929.36616293981, -56210.23401143957, -56121.67639990764, -49182.35381631301, -21510.201276564752, 2539.5605015230776, 0.106, 0.968, 0.126, 192.0, 0.0, 0.0, 0.0, 0.0, 0.0, 0.0, 0.0, 0.0, 0.0, 1.7297109600329783E9, 0.0, 2024-10-24 00:46:00.032
0.0, -49044.13062860139, -50992.442785792686, -50957.484657464585, -56238.8218925979, -56153.01354563398, -49208.95239221482, -21170.588871310818, 2930.403105068577, 0.106, 0.968, 0.126, 192.0, 0.0, 0.0, 0.0, 0.0, 0.0, 0.0, 0.0, 0.0, 0.0, 1.7297109600359256E9, 0.0, 2024-10-24 00:46:00.035
1.0, -49075.69129177229, -51012.17937614672, -50975.81308791794, -56254.11048580534, -56166.290481840435, -49225.73855230076, -20874.517664255818, 3252.581149647373, 0.106, 0.968, 0.126, 192.0, 0.0, 0.0, 0.0, 0.0, 0.0, 0.0, 0.0, 0.0, 0.0, 1.7297109600399337E9, 0.0, 2024-10-24 00:46:00.039
2.0, -49067.08587015699, -50988.21830609063, -50951.71790739512, -56223.622706368296, -56123.46453946407, -49191.47332805077, -21104.092431556277, 2970.2339136879345, 0.106, 0.968, 0.126, 192.0, 0.0, 0.0, 0.0, 0.0, 0.0, 0.0, 0.0, 0.0, 0.0, 1.7297109600437229E9, 0.0, 2024-10-24 00:46:00.043
3.0, -49050.567931004516, -50975.83543966239, -50935.78111359848, -56209.22818293908, -56105.15846075517, -49171.20029582981, -21465.7660085876, 2564.2815308906474, 0.106, 0.968, 0.126, 192.0, 0.0, 0.0, 0.0, 0.0, 0.0, 0.0, 0.0, 0.0, 0.0, 1.729710960046949E9, 0.0, 2024-10-24 00:46:00.046
4.0, -49033.580605218485, -50978.60705597485, -50935.06585777591, -56220.2699447, -56129.83478663383, -49186.15361287041, -21531.30132333056, 2514.0795128440277, 0.10400000000000001, 0.97, 0.122, 192.0, 3.0, 64.0, 30.0, 80.0, 3.0, 208.0, 0.0, 0.0, 0.0, 1.7297109600509536E9, 0.0, 2024-10-24 00:46:00.050
5.0, -49049.09271587047, -51002.12109114183, -50953.86367486283, -56246.063857801426, -56159.04851663691, -49215.94848822934, -21219.159212012197, 2876.8706770981166, 0.10400000000000001, 0.97, 0.122, 192.0, 0.0, 0.0, 0.0, 0.0, 0.0, 0.0, 0.0, 0.0, 0.0, 1.7297109600549784E9, 0.0, 2024-10-24 00:46:00.054
6.0, -49077.077099928516, -51022.349419873884, -50975.81308791794, -56261.9782998536, -56173.621854021774, -49234.67925008288, -20906.368900104633, 3214.8514050068147, 0.10400000000000001, 0.97, 0.122, 192.0, 0.0, 0.0, 0.0, 0.0, 0.0, 0.0, 0.0, 0.0, 0.0, 1.7297109600589645E9, 0.0, 2024-10-24 00:46:00.058
7.0, -49073.4337655823, -51001.22702136362, -50956.70234640865, -56231.445816927655, -56134.59570820281, -49190.86983095048, -21102.37134723322, 2965.4953438634093, 0.10400000000000001, 0.97, 0.122, 192.0, 0.0, 0.0, 0.0, 0.0, 0.0, 0.0, 0.0, 0.0, 0.0, 1.729710960063975E9, 0.0, 2024-10-24 00:46:00.063
8.0, -49051.819628694015, -50976.61775071833, -50933.25536647503, -56208.73644456106, -56111.43930094711, -49166.93111263885, -21445.649438577824, 2576.709100807798, 0.10400000000000001, 0.97, 0.122, 192.0, 0.0, 0.0, 0.0, 0.0, 0.0, 0.0, 0.0, 0.0, 0.0, 1.729710960067078E9, 0.0, 2024-10-24 00:46:00.067
9.0, -49030.20549180573, -50970.560427970944, -50928.337982694866, -56216.67131384269, -56122.81633887486, -49189.908705938906, -21510.73771843168, 2524.1601495933714, 0.10400000000000001, 0.97, 0.122, 192.0, 0.0, 0.0, 0.0, 0.0, 0.0, 0.0, 0.0, 0.0, 0.0, 1.7297109600710328E9, 0.0, 2024-10-24 00:46:00.071
10.0, -49043.23655882318, -50990.45348053616, -50945.817046858916, -56238.62072689781, -56142.19530131761, -49216.57433707408, -21194.974624511557, 2892.9415813614823, 0.10400000000000001, 0.97, 0.122, 192.0, 0.0, 0.0, 0.0, 0.0, 0.0, 0.0, 0.0, 0.0, 0.0, 1.7297109600751245E9, 0.0, 2024-10-24 00:46:00.075
11.0, -49072.450288826265, -51008.62544877833, -50969.3310820259, -56252.03177357099, -56161.037821893435, -49222.050514465634, -20913.767327519337, 3200.747454255516, 0.10400000000000001, 0.97, 0.122, 192.0, 0.0, 0.0, 0.0, 0.0, 0.0, 0.0, 0.0, 0.0, 0.0, 1.7297109600790887E9, 0.0, 2024-10-24 00:46:00.079
12.0, -49073.076137671014, -50992.018102648035, -50960.09981156586, -56229.769436093506, -56133.05343783539, -49193.10500539601, -21135.18370809361, 2926.1339218776134, 0.10400000000000001, 0.97, 0.122, 192.0, 0.0, 0.0, 0.0, 0.0, 0.0, 0.0, 0.0, 0.0, 0.0, 1.72971096008311E9, 0.0, 2024-10-24 00:46:00.083
13.0, -49050.70204147125, -50969.82282040392, -50942.19606425716, -56210.03284573947, -56116.55785042737, -49175.134202853944, -21507.8766951414, 2508.06689358555, 0.10400000000000001, 0.97, 0.122, 192.0, 0.0, 0.0, 0.0, 0.0, 0.0, 0.0, 0.0, 0.0, 0.0, 1.7297109600871103E9, 0.0, 2024-10-24 00:46:00.087
14.0, -49029.75845691663, -50969.66635819273, -50940.22911074509, -56220.336999933366, -56128.605440688785, -49193.64144726294, -21565.45478885827, 2464.302177942059, 0.11, 0.97, 0.122, 192.0, 3.0, 112.0, 30.0, 80.0, 3.0, 208.0, 0.0, 0.0, 0.0, 1.729710960092084E9, 0.0, 2024-10-24 00:46:00.092
15.0, -49048.48921877018, -51000.400006818774, -50970.60513145985, -56257.26208177353, -56177.1087261568, -49238.79197106266, -21237.77821514347, 2844.840627293662, 0.11, 0.97, 0.122, 192.0, 0.0, 0.0, 0.0, 0.0, 0.0, 0.0, 0.0, 0.0, 0.0, 1.7297109600951018E9, 0.0, 2024-10-24 00:46:00.095
16.0, -49078.082928429, -51018.661382038765, -50988.41947179073, -56271.634253458295, -56185.580037305364, -49252.85121832505, -20947.876089558136, 3160.335500280321, 0.11, 0.97, 0.122, 192.0, 0.0, 0.0, 0.0, 0.0, 0.0, 0.0, 0.0, 0.0, 0.0, 1.7297109600991073E9, 0.0, 2024-10-24 00:46:00.099
17.0, -49073.29965511557, -50996.82372770592, -50965.48658197959, -56240.9229565767, -56142.01648736197, -49208.48300558126, -21177.830836514335, 2878.3011887432563, 0.11, 0.97, 0.122, 192.0, 0.0, 0.0, 0.0, 0.0, 0.0, 0.0, 0.0, 0.0, 0.0, 1.7297109601031103E9, 0.0, 2024-10-24 00:46:00.103
18.0, -49049.40564029284, -50974.539038483985, -50939.06682003341, -56216.80542430943, -56110.12054802425, -49177.9058191664, -21556.134111420408, 2454.7356313151877, 0.11, 0.97, 0.122, 192.0, 0.0, 0.0, 0.0, 0.0, 0.0, 0.0, 0.0, 0.0, 0.0, 1.7297109601069825E9, 0.0, 2024-10-24 00:46:00.106
19.0, -49028.193834804755, -50976.12601234031, -50937.54690141045, -56227.400151181246, -56136.83088264834, -49199.07292116558, -21633.51585072468, 2390.7425869396434, 0.11, 0.97, 0.122, 192.0, 0.0, 0.0, 0.0, 0.0, 0.0, 0.0, 0.0, 0.0, 0.0, 1.729710960111036E9, 0.0, 2024-10-24 00:46:00.111
20.0, -49046.857541424935, -51001.607001019365, -50966.53711396899, -56255.920977106216, -56178.13690640175, -49230.722991314295, -21304.58757932038, 2770.6551874464976, 0.11, 0.97, 0.122, 192.0, 0.0, 0.0, 0.0, 0.0, 0.0, 0.0, 0.0, 0.0, 0.0, 1.7297109601150005E9, 0.0, 2024-10-24 00:46:00.115
21.0, -49076.98769295069, -51022.081198940425, -50983.345625799375, -56271.008404613545, -56176.61698777878, -49245.43043916589, -21010.080994377255, 3090.75451979095, 0.11, 0.97, 0.122, 192.0, 0.0, 0.0, 0.0, 0.0, 0.0, 0.0, 0.0, 0.0, 0.0, 1.7297109601200337E9, 0.0, 2024-10-24 00:46:00.120
22.0, -49075.110146416446, -51007.84313772239, -50962.46909647812, -56245.75093337905, -56132.76286515747, -49202.626848533975, -21217.661645133692, 2830.379048631078, 0.11, 0.97, 0.122, 192.0, 0.0, 0.0, 0.0, 0.0, 0.0, 0.0, 0.0, 0.0, 0.0, 1.7297109601230285E9, 0.0, 2024-10-24 00:46:00.123
23.0, -49051.50670427164, -50985.156117100254, -50939.715020622614, -56219.912316788716, -56109.36058871276, -49166.752298683205, -21565.41008536936, 2437.949471229252, 0.11, 0.97, 0.122, 192.0, 0.0, 0.0, 0.0, 0.0, 0.0, 0.0, 0.0, 0.0, 0.0, 1.7297109601271572E9, 0.0, 2024-10-24 00:46:00.127
24.0, -49029.51258772762, -50979.09879435287, -50932.04837227445, -56224.9191075467, -56125.610306931776, -49182.24205759073, -21614.76273712668, 2401.650238233833, 0.11, 0.97, 0.11800000000000001, 192.0, 3.0, 112.0, 30.0, 80.0, 3.0, 176.0, 0.0, 0.0, 0.0, 1.7297109601380603E9, 0.0, 2024-10-24 00:46:00.138
25.0, -49041.71664020022, -50994.27562883802, -50952.522570195506, -56245.7285816346, -56159.361441059285, -49210.98640096026, -21297.233855394585, 2770.6551874464976, 0.11, 0.97, 0.11800000000000001, 192.0, 0.0, 0.0, 0.0, 0.0, 0.0, 0.0, 0.0, 0.0, 0.0, 1.729710960141048E9, 0.0, 2024-10-24 00:46:00.141
26.0, -49070.88566671439, -51013.1405011583, -50972.34856752736, -56263.319404520924, -56168.033917907946, -49234.61219484952, -21017.43471830305, 3074.974188205503, 0.11, 0.97, 0.11800000000000001, 192.0, 0.0, 0.0, 0.0, 0.0, 0.0, 0.0, 0.0, 0.0, 0.0, 1.7297109601451192E9, 0.0, 2024-10-24 00:46:00.145
27.0, -49071.77973649261, -51000.24354460759, -50959.2280935321, -56242.1746542662, -56137.836711148826, -49206.62781079148, -21238.44876747713, 2800.9194494389835, 0.11, 0.97, 0.11800000000000001, 192.0, 0.0, 0.0, 0.0, 0.0, 0.0, 0.0, 0.0, 0.0, 0.0, 1.7297109601482651E9, 0.0, 2024-10-24 00:46:00.148
28.0, -49052.177256605304, -50978.875276908315, -50937.904529321735, -56215.88900278676, -56113.853289348284, -49169.16628708438, -21592.99213802721, 2400.8679271778974, 0.11, 0.97, 0.11800000000000001, 192.0, 0.0, 0.0, 0.0, 0.0, 0.0, 0.0, 0.0, 0.0, 0.0, 1.729710960151078E9, 0.0, 2024-10-24 00:46:00.151
29.0, -49028.819683649504, -50973.39909951676, -50928.24857571704, -56218.90648828822, -56125.945583098604, -49182.35381631301, -21652.09015036704, 2357.4161359567806, 0.11, 0.97, 0.11800000000000001, 192.0, 0.0, 0.0, 0.0, 0.0, 0.0, 0.0, 0.0, 0.0, 0.0, 1.7297109601540947E9, 0.0, 2024-10-24 00:46:00.154
30.0, -49050.366765304425, -51000.62352426333, -50955.40594523024, -56246.62265141281, -56159.38379280375, -49214.67443879538, -21327.073434242422, 2736.3676114520567, 0.11, 0.97, 0.11800000000000001, 192.0, 0.0, 0.0, 0.0, 0.0, 0.0, 0.0, 0.0, 0.0, 0.0, 1.7297109601581998E9, 0.0, 2024-10-24 00:46:00.158
31.0, -49077.59119005099, -51021.589460562405, -50973.30969253894, -56259.36314575233, -56164.99408066203, -49223.950412744336, -21042.49102383745, 3047.5038942699307, 0.11, 0.97, 0.11800000000000001, 192.0, 0.0, 0.0, 0.0, 0.0, 0.0, 0.0, 0.0, 0.0, 0.0, 1.7297109601610956E9, 0.0, 2024-10-24 00:46:00.161
32.0, -49077.77000400663, -51007.08317841091, -50957.10467780885, -56237.48078793059, -56135.71329542557, -49194.222592618775, -21255.05611360742, 2783.574495741665, 0.11, 0.97, 0.11800000000000001, 192.0, 0.0, 0.0, 0.0, 0.0, 0.0, 0.0, 0.0, 0.0, 0.0, 1.7297109601641183E9, 0.0, 2024-10-24 00:46:00.164
33.0, -49057.47462004121, -50983.79266068848, -50935.89287232076, -56216.11252023131, -56113.31684748136, -49175.53653425414, -21623.36815874197, 2368.8602291178977, 0.11, 0.97, 0.11800000000000001, 192.0, 0.0, 0.0, 0.0, 0.0, 0.0, 0.0, 0.0, 0.0, 0.0, 1.729710960168128E9, 0.0, 2024-10-24 00:46:00.168
34.0, -49044.44355302377, -50986.72073921213, -50938.530378166484, -56227.31074420342, -56135.310964025375, -49195.563697286096, -21665.90352844042, 2337.9477665362083, 0.114, 0.974, 0.124, 192.0, 3.0, 144.0, 30.0, 112.0, 3.0, 224.0, 0.0, 0.0, 0.0, 1.7297109601713054E9, 0.0, 2024-10-24 00:46:00.171
35.0, -49063.1296113884, -51015.778007004024, -50965.88891337978, -56258.491427718574, -56179.25449362451, -49235.550968116644, -21331.87905930031, 2723.291840945702, 0.114, 0.974, 0.124, 192.0, 0.0, 0.0, 0.0, 0.0, 0.0, 0.0, 0.0, 0.0, 0.0, 1.7297109601751425E9, 0.0, 2024-10-24 00:46:00.175
36.0, -49094.57851583702, -51037.05686772548, -50985.49139326708, -56273.19887557017, -56189.89392398524, -49252.20301773585, -21034.578506300273, 3046.1627896026125, 0.114, 0.974, 0.124, 192.0, 0.0, 0.0, 0.0, 0.0, 0.0, 0.0, 0.0, 0.0, 0.0, 1.729710960179198E9, 0.0, 2024-10-24 00:46:00.179
37.0, -49089.59407682349, -51012.44759708019, -50963.296111022966, -56239.80536935394, -56148.386734531734, -49206.73956951375, -21265.382619545773, 2763.346167009612, 0.114, 0.974, 0.124, 192.0, 0.0, 0.0, 0.0, 0.0, 0.0, 0.0, 0.0, 0.0, 0.0, 1.7297109601831589E9, 0.0, 2024-10-24 00:46:00.183
38.0, -49063.934274188796, -50990.207611347156, -50931.35546819633, -56210.88221202877, -56104.01852178795, -49160.113830579976, -21618.18255402834, 2365.6415779163335, 0.114, 0.974, 0.124, 192.0, 0.0, 0.0, 0.0, 0.0, 0.0, 0.0, 0.0, 0.0, 0.0, 1.729710960188136E9, 0.0, 2024-10-24 00:46:00.188
39.0, -49038.43093376529, -50986.94425665668, -50917.36327616731, -56213.832642296875, -56107.68420787862, -49174.82127843157, -21677.749953001734, 2322.41330413977, 0.114, 0.974, 0.124, 192.0, 0.0, 0.0, 0.0, 0.0, 0.0, 0.0, 0.0, 0.0, 0.0, 1.729710960191115E9, 0.0, 2024-10-24 00:46:00.191
40.0, -49057.139343874376, -51013.02874243602, -50942.799561357446, -56241.66056414373, -56150.57720548835, -49205.37611310198, -21360.913975347758, 2692.3346748751014, 0.114, 0.974, 0.124, 192.0, 0.0, 0.0, 0.0, 0.0, 0.0, 0.0, 0.0, 0.0, 0.0, 1.7297109601941173E9, 0.0, 2024-10-24 00:46:00.194
41.0, -49090.44344311279, -51035.492245613605, -50967.72175642512, -56260.592491697374, -56164.27882483946, -49222.29638365464, -21071.50358814044, 3008.567155428786, 0.114, 0.974, 0.124, 192.0, 0.0, 0.0, 0.0, 0.0, 0.0, 0.0, 0.0, 0.0, 0.0, 1.729710960199119E9, 0.0, 2024-10-24 00:46:00.199
42.0, -49084.475527343224, -51017.47673958263, -50949.862712605325, -56238.307802475436, -56133.075789579845, -49199.20703163231, -21295.69158502717, 2730.936137549417, 0.114, 0.974, 0.124, 192.0, 0.0, 0.0, 0.0, 0.0, 0.0, 0.0, 0.0, 0.0, 0.0, 1.7297109602030923E9, 0.0, 2024-10-24 00:46:00.203
43.0, -49061.0285474096, -50994.85677419386, -50928.76266583952, -56216.626610353786, -56116.28962949391, -49178.68813022234, -21648.111539853995, 2332.248071700105, 0.114, 0.974, 0.124, 192.0, 0.0, 0.0, 0.0, 0.0, 0.0, 0.0, 0.0, 0.0, 0.0, 1.7297109602072177E9, 0.0, 2024-10-24 00:46:00.207
44.0, -49038.63209946539, -50991.16873635873, -50924.85111055984, -56224.56147963542, -56138.86489139377, -49198.82705197657, -21700.951063746343, 2293.6913125147003, 0.112, 0.974, 0.12, 192.0, 3.0, 128.0, 30.0, 112.0, 3.0, 192.0, 0.0, 0.0, 0.0, 1.7297109602112043E9, 0.0, 2024-10-24 00:46:00.211
45.0, -49054.63594849539, -51012.291134868996, -50950.95794808364, -56248.88017760279, -56182.47314482608, -49226.520863356694, -21361.070437558945, 2685.29387537168, 0.112, 0.974, 0.12, 192.0, 0.0, 0.0, 0.0, 0.0, 0.0, 0.0, 0.0, 0.0, 0.0, 1.729710960215143E9, 0.0, 2024-10-24 00:46:00.215
46.0, -49084.967265721236, -51029.81490252196, -50970.1804483152, -56262.60414869835, -56189.916275729694, -49239.462523396316, -21089.899073827157, 2981.0298062598476, 0.112, 0.974, 0.12, 192.0, 0.0, 0.0, 0.0, 0.0, 0.0, 0.0, 0.0, 0.0, 0.0, 1.7297109602191913E9, 0.0, 2024-10-24 00:46:00.219
47.0, -49089.88464950141, -51017.789664005, -50955.249483019055, -56247.248500257556, -56156.67923172465, -49218.5189388417, -21303.69350954217, 2713.255907685269, 0.112, 0.974, 0.12, 192.0, 0.0, 0.0, 0.0, 0.0, 0.0, 0.0, 0.0, 0.0, 0.0, 1.7297109602221775E9, 0.0, 2024-10-24 00:46:00.222
48.0, -49070.349224847465, -50996.0861201389, -50933.65769787523, -56227.78013083698, -56141.52474898395, -49192.81443271809, -21658.683914981357, 2314.9701732361523, 0.112, 0.974, 0.12, 192.0, 0.0, 0.0, 0.0, 0.0, 0.0, 0.0, 0.0, 0.0, 0.0, 1.729710960227151E9, 0.0, 2024-10-24 00:46:00.227
49.0, -49050.54557926006, -50994.70031198267, -50924.56053788192, -56236.407904196734, -56153.706449712095, -49204.75026425723, -21706.91897951591, 2282.426033309225, 0.112, 0.974, 0.12, 192.0, 0.0, 0.0, 0.0, 0.0, 0.0, 0.0, 0.0, 0.0, 0.0, 1.729710960231198E9, 0.0, 2024-10-24 00:46:00.231
50.0, -49068.80695448005, -51022.796454762996, -50945.72763988109, -56266.98509061159, -56182.38373784826, -49235.88624428347, -21375.8449406439, 2666.361947818035, 0.112, 0.974, 0.12, 192.0, 0.0, 0.0, 0.0, 0.0, 0.0, 0.0, 0.0, 0.0, 0.0, 1.7297109602364056E9, 0.0, 2024-10-24 00:46:00.236
51.0, -49099.83117578401, -51046.53400737453, -50965.598340701865, -56284.017119886536, -56191.74911877503, -49249.386697934475, -21089.139114515678, 2979.1075562366914, 0.112, 0.974, 0.12, 192.0, 0.0, 0.0, 0.0, 0.0, 0.0, 0.0, 0.0, 0.0, 0.0, 1.7297109602402296E9, 0.0, 2024-10-24 00:46:00.240
52.0, -49093.17035593634, -51030.48545485562, -50944.23007300259, -56261.10658181985, -56155.89692066872, -49217.22253766329, -21323.36304466284, 2692.938171975395, 0.112, 0.974, 0.12, 192.0, 0.0, 0.0, 0.0, 0.0, 0.0, 0.0, 0.0, 0.0, 0.0, 1.7297109602451952E9, 0.0, 2024-10-24 00:46:00.245
53.0, -49066.97411143471, -51009.40775983426, -50917.54209012295, -56243.828683355896, -56131.08648432332, -49200.97281944428, -21684.567235060604, 2287.9022107007754, 0.112, 0.974, 0.12, 192.0, 0.0, 0.0, 0.0, 0.0, 0.0, 0.0, 0.0, 0.0, 0.0, 1.729710960248176E9, 0.0, 2024-10-24 00:46:00.248
54.0, -49041.73899194467, -51003.350437086876, -50908.02024698499, -56246.62265141281, -56142.508225739984, -49206.78427300266, -21733.53990716218, 2254.5981114623683, 0.11, 0.972, 0.124, 192.0, 3.0, 112.0, 30.0, 96.0, 3.0, 224.0, 0.0, 0.0, 0.0, 1.7297109602513714E9, 0.0, 2024-10-24 00:46:00.251
55.0, -49052.91486417233, -51028.40674262128, -50924.78405532647, -56272.32715753641, -56169.017394663984, -49233.82988379358, -21408.120859637365, 2629.816845633608, 0.11, 0.972, 0.124, 192.0, 0.0, 0.0, 0.0, 0.0, 0.0, 0.0, 0.0, 0.0, 0.0, 1.7297109602551947E9, 0.0, 2024-10-24 00:46:00.255
56.0, -49078.86523948494, -51047.62924285284, -50937.18927349917, -56282.251332074564, -56169.73265048655, -49242.055325753136, -21131.27215281393, 2930.738381235407, 0.11, 0.972, 0.124, 192.0, 0.0, 0.0, 0.0, 0.0, 0.0, 0.0, 0.0, 0.0, 0.0, 1.7297109602591944E9, 0.0, 2024-10-24 00:46:00.259
57.0, -49080.00517845216, -51034.41936187975, -50927.24274721656, -56262.00065159806, -56150.39839153271, -49222.02816272118, -21379.823551156947, 2629.7944938891524, 0.11, 0.972, 0.124, 192.0, 0.0, 0.0, 0.0, 0.0, 0.0, 0.0, 0.0, 0.0, 0.0, 1.7297109602663193E9, 0.0, 2024-10-24 00:46:00.266
58.0, -49057.80989620804, -51011.26295462406, -50906.92501150668, -56241.571157165905, -56134.551004713896, -49205.10789216851, -21741.742997377278, 2222.121026768807, 0.11, 0.972, 0.124, 192.0, 0.0, 0.0, 0.0, 0.0, 0.0, 0.0, 0.0, 0.0, 0.0, 1.729710960269327E9, 0.0, 2024-10-24 00:46:00.269
59.0, -49037.80508492054, -51012.89463196929, -50902.34290389335, -56248.790770624975, -56155.13696135724, -49208.08067418107, -21786.111210121064, 2192.192040943151, 0.11, 0.972, 0.124, 192.0, 0.0, 0.0, 0.0, 0.0, 0.0, 0.0, 0.0, 0.0, 0.0, 1.7297109602733636E9, 0.0, 2024-10-24 00:46:00.273
60.0, -49057.18404736329, -51034.91110025777, -50927.13098849428, -56270.89664589127, -56187.8599152398, -49224.10687495553, -21464.000220775633, 2566.8966849919184, 0.11, 0.972, 0.124, 192.0, 0.0, 0.0, 0.0, 0.0, 0.0, 0.0, 0.0, 0.0, 0.0, 1.7297109602762728E9, 0.0, 2024-10-24 00:46:00.276
61.0, -49084.900210487875, -51049.9985277651, -50939.33504096688, -56279.546770995476, -56175.11942090028, -49232.30996517062, -21180.2001214266, 2875.1942962639687, 0.11, 0.972, 0.124, 192.0, 0.0, 0.0, 0.0, 0.0, 0.0, 0.0, 0.0, 0.0, 0.0, 1.7297109602793448E9, 0.0, 2024-10-24 00:46:00.279
62.0, -49085.57076282153, -51035.55930084697, -50919.19611921265, -56256.747991651064, -56133.94750761361, -49210.98640096026, -21387.24433031611, 2615.221156504292, 0.11, 0.972, 0.124, 192.0, 0.0, 0.0, 0.0, 0.0, 0.0, 0.0, 0.0, 0.0, 0.0, 1.7297109602823186E9, 0.0, 2024-10-24 00:46:00.282
63.0, -49060.93914043178, -51010.52534705703, -50893.40220611122, -56231.55757564993, -56115.93200158262, -49187.00297915971, -21760.429055741915, 2196.9082590232206, 0.11, 0.972, 0.124, 192.0, 0.0, 0.0, 0.0, 0.0, 0.0, 0.0, 0.0, 0.0, 0.0, 1.7297109602872562E9, 0.0, 2024-10-24 00:46:00.287
64.0, -49041.537826244574, -51011.41941683524, -50889.535354320455, -56241.19117751017, -56146.39742927521, -49199.83288047706, -21812.530972067234, 2159.4243835716707, 0.11, 0.972, 0.124, 192.0, 0.0, 0.0, 0.0, 0.0, 0.0, 0.0, 0.0, 0.0, 0.0, 1.7297109602912428E9, 0.0, 2024-10-24 00:46:00.291
65.0, -49060.357995075945, -51035.26872816905, -50911.99885749804, -56267.99091911208, -56179.09803141333, -49230.14184595845, -21484.63088090788, 2540.678088745843, 0.11800000000000001, 0.968, 0.126, 192.0, 3.0, 176.0, 30.0, 64.0, 3.0, 240.0, 0.0, 0.0, 0.0, 1.729710960295263E9, 0.0, 2024-10-24 00:46:00.295
66.0, -49088.56589657854, -51049.23856845362, -50921.74421808055, -56276.05989886045, -56174.672386011174, -49238.03201175118, -21206.083441505845, 2845.667641838508, 0.11800000000000001, 0.968, 0.126, 192.0, 0.0, 0.0, 0.0, 0.0, 0.0, 0.0, 0.0, 0.0, 0.0, 1.7297109602992938E9, 0.0, 2024-10-24 00:46:00.299
67.0, -49089.504669845664, -51035.31343165797, -50904.779244038975, -56254.26694801652, -56143.67051645166, -49211.433435849365, -21431.456080848704, 2568.9306937373512, 0.11800000000000001, 0.968, 0.126, 192.0, 0.0, 0.0, 0.0, 0.0, 0.0, 0.0, 0.0, 0.0, 0.0, 1.729710960303334E9, 0.0, 2024-10-24 00:46:00.303
68.0, -49068.672844013316, -51015.68860002621, -50884.95324670711, -56236.56436640792, -56129.76773140046, -49193.73085424076, -21791.721497979343, 2163.224180129073, 0.11800000000000001, 0.968, 0.126, 192.0, 0.0, 0.0, 0.0, 0.0, 0.0, 0.0, 0.0, 0.0, 0.0, 1.7297109603083053E9, 0.0, 2024-10-24 00:46:00.308
69.0, -49052.04314613857, -51018.3931611053, -50888.149546164226, -56249.90835784774, -56159.987289904035, -49216.28376439617, -21827.70780655239, 2142.1017816188078, 0.11800000000000001, 0.968, 0.126, 192.0, 0.0, 0.0, 0.0, 0.0, 0.0, 0.0, 0.0, 0.0, 0.0, 1.7297109603124084E9, 0.0, 2024-10-24 00:46:00.312
70.0, -49071.22094288122, -51042.01895499456, -50913.20585169862, -56277.1327825943, -56183.23310413756, -49242.16708447541, -21502.91460787232, 2521.4779402587346, 0.11800000000000001, 0.968, 0.126, 192.0, 0.0, 0.0, 0.0, 0.0, 0.0, 0.0, 0.0, 0.0, 0.0, 1.7297109603162808E9, 0.0, 2024-10-24 00:46:00.316
71.0, -49102.04399848509, -51061.26380697058, -50935.33407870938, -56295.75178572557, -56195.05717695441, -49255.73459335978, -21202.708328093093, 2844.930034271483, 0.11800000000000001, 0.968, 0.126, 192.0, 0.0, 0.0, 0.0, 0.0, 0.0, 0.0, 0.0, 0.0, 0.0, 1.7297109603203757E9, 0.0, 2024-10-24 00:46:00.320
72.0, -49091.739844291194, -51039.560263104475, -50912.93763076516, -56270.449611002165, -56165.84344695133, -49221.93875574336, -21417.91092370879, 2576.6420455744324, 0.11800000000000001, 0.968, 0.126, 192.0, 0.0, 0.0, 0.0, 0.0, 0.0, 0.0, 0.0, 0.0, 0.0, 1.7297109603253102E9, 0.0, 2024-10-24 00:46:00.325
73.0, -49064.62717826691, -51011.12884415732, -50886.07083392988, -56245.348601978854, -56139.33427802733, -49199.02821767667, -21781.46204727436, 2169.505020321014, 0.11800000000000001, 0.968, 0.126, 192.0, 0.0, 0.0, 0.0, 0.0, 0.0, 0.0, 0.0, 0.0, 0.0, 1.7297109603283436E9, 0.0, 2024-10-24 00:46:00.328
74.0, -49038.52034074311, -51005.9879429326, -50872.83860121234, -56253.57404393841, -56138.462559993575, -49219.5694708311, -21852.89822255352, 2113.2233277825508, 0.11800000000000001, 0.968, 0.126, 192.0, 0.0, 0.0, 0.0, 0.0, 0.0, 0.0, 0.0, 0.0, 0.0, 1.7297109603313203E9, 0.0, 2024-10-24 00:46:00.331
75.0, -49056.53584677409, -51031.446579867195, -50901.82881377087, -56285.134707109304, -56192.21850540859, -49250.5266369017, -21540.398483323872, 2478.115556015439, 0.116, 0.964, 0.11800000000000001, 192.0, 3.0, 160.0, 30.0, 32.0, 3.0, 176.0, 0.0, 0.0, 0.0, 1.7297109603373237E9, 0.0, 2024-10-24 00:46:00.337
76.0, -49089.61642856794, -51051.40668766579, -50921.051314002434, -56295.52826828102, -56197.91820024469, -49249.96784329032, -21262.789817188957, 2781.0711003626707, 0.116, 0.964, 0.11800000000000001, 192.0, 0.0, 0.0, 0.0, 0.0, 0.0, 0.0, 0.0, 0.0, 0.0, 1.72971096034136E9, 0.0, 2024-10-24 00:46:00.341
77.0, -49087.00127446667, -51034.6428793243, -50897.64903755773, -56268.10267783436, -56153.1029526118, -49216.55198532963, -21475.39961044784, 2515.241803555704, 0.116, 0.964, 0.11800000000000001, 192.0, 0.0, 0.0, 0.0, 0.0, 0.0, 0.0, 0.0, 0.0, 0.0, 1.7297109603453176E9, 0.0, 2024-10-24 00:46:00.345
78.0, -49063.42018406632, -51011.64293427979, -50874.73849949104, -56244.94627057866, -56133.63458319123, -49196.614229275496, -21836.33557991214, 2108.7976823804, 0.116, 0.964, 0.11800000000000001, 192.0, 0.0, 0.0, 0.0, 0.0, 0.0, 0.0, 0.0, 0.0, 0.0, 1.7297109603484662E9, 0.0, 2024-10-24 00:46:00.348
79.0, -49047.25987282513, -51011.50882381306, -50871.25162735601, -56253.79756138296, -56148.453789765095, -49216.060246951616, -21883.18483629046, 2077.1029087427746, 0.116, 0.964, 0.11800000000000001, 192.0, 0.0, 0.0, 0.0, 0.0, 0.0, 0.0, 0.0, 0.0, 0.0, 1.72971096035133E9, 0.0, 2024-10-24 00:46:00.351
80.0, -49069.09752715797, -51039.91789101576, -50895.056235200915, -56279.77028844003, -56183.30015937092, -49240.2224827078, -21545.762901993145, 2465.2633029536373, 0.116, 0.964, 0.11800000000000001, 192.0, 0.0, 0.0, 0.0, 0.0, 0.0, 0.0, 0.0, 0.0, 0.0, 1.7297109603552928E9, 0.0, 2024-10-24 00:46:00.355
81.0, -49101.66401882935, -51061.643786626315, -50916.9162412782, -56293.382500813306, -56197.672331055684, -49249.56551189012, -21265.53908175696, 2768.218847300869, 0.116, 0.964, 0.11800000000000001, 192.0, 0.0, 0.0, 0.0, 0.0, 0.0, 0.0, 0.0, 0.0, 0.0, 1.7297109603594468E9, 0.0, 2024-10-24 00:46:00.359
82.0, -49097.14896644938, -51043.896501528805, -50896.88907824625, -56266.47100048912, -56156.992156147026, -49220.70940979831, -21503.428697994794, 2476.506230414657, 0.116, 0.964, 0.11800000000000001, 192.0, 0.0, 0.0, 0.0, 0.0, 0.0, 0.0, 0.0, 0.0, 0.0, 1.7297109603623548E9, 0.0, 2024-10-24 00:46:00.362
83.0, -49077.702948773265, -51029.412571121764, -50876.72780474756, -56247.6284799133, -56141.52474898395, -49201.4645578223, -21855.580431888156, 2081.260333211462, 0.116, 0.964, 0.11800000000000001, 192.0, 0.0, 0.0, 0.0, 0.0, 0.0, 0.0, 0.0, 0.0, 0.0, 1.7297109603663406E9, 0.0, 2024-10-24 00:46:00.366
84.0, -49055.261797340136, -51024.025800708034, -50865.64133949773, -56244.63334615628, -56148.677307209655, -49197.4635955648, -21892.393755006047, 2059.8473620232776, 0.116, 0.964, 0.11800000000000001, 192.0, 0.0, 0.0, 0.0, 0.0, 0.0, 0.0, 0.0, 0.0, 0.0, 1.7297109603703587E9, 0.0, 2024-10-24 00:46:00.370
85.0, -49065.70006200076, -51042.488341628115, -50881.33226410535, -56263.96760511013, -56177.7122232571, -49225.626793578485, -21575.334259907515, 2430.0593054365286, 0.114, 0.972, 0.124, 192.0, 3.0, 144.0, 30.0, 96.0, 3.0, 224.0, 0.0, 0.0, 0.0, 1.7297109603754408E9, 0.0, 2024-10-24 00:46:00.375
86.0, -49101.70872231826, -51067.11996401787, -50902.745235293536, -56280.95493089616, -56186.94349371714, -49243.77641007619, -21274.59153826136, 2757.0653268176707, 0.114, 0.972, 0.124, 192.0, 0.0, 0.0, 0.0, 0.0, 0.0, 0.0, 0.0, 0.0, 0.0, 1.729710960379387E9, 0.0, 2024-10-24 00:46:00.379
87.0, -49099.27238217263, -51045.774048063045, -50887.79191825294, -56252.99289858257, -56157.01450789148, -49211.79106376065, -21499.293625270562, 2478.786108349098, 0.114, 0.972, 0.124, 192.0, 0.0, 0.0, 0.0, 0.0, 0.0, 0.0, 0.0, 0.0, 0.0, 1.729710960383382E9, 0.0, 2024-10-24 00:46:00.383
88.0, -49074.841925482986, -51020.00248670608, -50863.56262726339, -56227.78013083698, -56129.99124884501, -49187.40531055991, -21857.010943533296, 2077.616998865247, 0.114, 0.972, 0.124, 192.0, 0.0, 0.0, 0.0, 0.0, 0.0, 0.0, 0.0, 0.0, 0.0, 1.7297109603863885E9, 0.0, 2024-10-24 00:46:00.386
89.0, -49053.07132638351, -51014.86158548136, -50858.30996731639, -56232.94338380616, -56145.21278681908, -49199.3634938435, -21910.56572324821, 2039.2837571243952, 0.114, 0.972, 0.124, 192.0, 0.0, 0.0, 0.0, 0.0, 0.0, 0.0, 0.0, 0.0, 0.0, 1.729710960390812E9, 0.0, 2024-10-24 00:46:00.390
90.0, -49070.25981786964, -51035.089914213415, -50887.926028719674, -56258.156151551746, -56191.77147051948, -49223.726895299784, -21585.057268745575, 2416.983534930174, 0.114, 0.972, 0.124, 192.0, 0.0, 0.0, 0.0, 0.0, 0.0, 0.0, 0.0, 0.0, 0.0, 1.7297109603943963E9, 0.0, 2024-10-24 00:46:00.394
91.0, -49101.86518452945, -51053.77597257805, -50908.467281874095, -56273.28828254799, -56190.340958874345, -49236.4226861504, -21294.529294315493, 2730.3996956824894, 0.114, 0.972, 0.124, 192.0, 0.0, 0.0, 0.0, 0.0, 0.0, 0.0, 0.0, 0.0, 0.0, 1.7297109603984E9, 0.0, 2024-10-24 00:46:00.398
92.0, -49098.892402516896, -51036.833350280926, -50887.79191825294, -56254.445761972165, -56140.67538269465, -49214.27210739519, -21506.222666051708, 2461.9552447742517, 0.114, 0.972, 0.124, 192.0, 0.0, 0.0, 0.0, 0.0, 0.0, 0.0, 0.0, 0.0, 0.0, 1.7297109604034114E9, 0.0, 2024-10-24 00:46:00.403
93.0, -49074.86427722744, -51008.35722784486, -50869.15056337721, -56232.339886705864, -56129.92419361165, -49191.04864490612, -21871.09254254014, 2050.5043328409593, 0.114, 0.972, 0.124, 192.0, 0.0, 0.0, 0.0, 0.0, 0.0, 0.0, 0.0, 0.0, 0.0, 1.7297109604074807E9, 0.0, 2024-10-24 00:46:00.407
94.0, -49056.20057060726, -51004.870355709834, -50872.056290156404, -56242.487578688575, -56156.567473002375, -49210.248793393235, -21913.694967471954, 2024.5986610172583, 0.114, 0.972, 0.124, 192.0, 0.0, 0.0, 0.0, 0.0, 0.0, 0.0, 0.0, 0.0, 0.0, 1.7297109604113867E9, 0.0, 2024-10-24 00:46:00.411
95.0, -49065.18597187829, -51025.27749839753, -50892.35167412182, -56269.890817390784, -56186.87643848377, -49242.323546686595, -21594.668518861356, 2398.073959120984, 0.116, 0.974, 0.126, 192.0, 3.0, 160.0, 30.0, 112.0, 3.0, 240.0, 0.0, 0.0, 0.0, 1.7297109604144444E9, 0.0, 2024-10-24 00:46:00.414
96.0, -49088.70000704527, -51043.18124570623, -50906.61208708431, -56282.050166374465, -56196.71120604411, -49252.09125901357, -21316.389300392784, 2701.0295034682163, 0.116, 0.974, 0.126, 192.0, 0.0, 0.0, 0.0, 0.0, 0.0, 0.0, 0.0, 0.0, 0.0, 1.729710960418543E9, 0.0, 2024-10-24 00:46:00.418
97.0, -49090.979884979715, -51028.362039132364, -50892.821060755385, -56257.75382015155, -56166.87162719627, -49220.28472665366, -21537.425701311317, 2427.8911862243635, 0.116, 0.974, 0.126, 192.0, 0.0, 0.0, 0.0, 0.0, 0.0, 0.0, 0.0, 0.0, 0.0, 1.7297109604224677E9, 0.0, 2024-10-24 00:46:00.422
98.0, -49066.23650386769, -51002.21049811965, -50866.02131915347, -56229.61297388232, -56132.025257590445, -49187.450014048816, -21903.457868511425, 2017.6025650027473, 0.116, 0.974, 0.126, 192.0, 0.0, 0.0, 0.0, 0.0, 0.0, 0.0, 0.0, 0.0, 0.0, 1.7297109604265316E9, 0.0, 2024-10-24 00:46:00.426
99.0, -49044.555311746044, -51000.556469029965, -50861.79683945142, -56236.9219943192, -56146.26331880848, -49202.02335143368, -21932.872764214608, 2004.8173671743116, 0.116, 0.974, 0.126, 192.0, 0.0, 0.0, 0.0, 0.0, 0.0, 0.0, 0.0, 0.0, 0.0, 1.7297109604317274E9, 0.0, 2024-10-24 00:46:00.431
100.0, -49059.7768497201, -51024.83046350843, -50888.10484267531, -56261.82183764242, -56178.85216222431, -49229.203072691336, -21587.918292035854, 2403.4160260458025, 0.116, 0.974, 0.126, 192.0, 0.0, 0.0, 0.0, 0.0, 0.0, 0.0, 0.0, 0.0, 0.0, 1.7297109604364772E9, 0.0, 2024-10-24 00:46:00.436
101.0, -49086.55423957756, -51043.49417012861, -50906.232107428565, -56271.61190171384, -56184.037766937945, -49234.81336054962, -21326.447585397673, 2691.2617911412467, 0.116, 0.974, 0.126, 192.0, 0.0, 0.0, 0.0, 0.0, 0.0, 0.0, 0.0, 0.0, 0.0, 1.7297109604424615E9, 0.0, 2024-10-24 00:46:00.442
102.0, -49088.23062041171, -51029.79255077751, -50895.4138631122, -56248.74606713606, -56156.88039742475, -49203.54327005664, -21557.9893062102, 2407.461691792213, 0.116, 0.974, 0.126, 192.0, 0.0, 0.0, 0.0, 0.0, 0.0, 0.0, 0.0, 0.0, 0.0, 1.7297109604454288E9, 0.0, 2024-10-24 00:46:00.445
103.0, -49064.85069571146, -51007.93254470021, -50874.60438902431, -56224.62853486878, -56130.86296687877, -49179.73866221174, -21928.33536009018, 1993.7532536689346, 0.116, 0.974, 0.126, 192.0, 0.0, 0.0, 0.0, 0.0, 0.0, 0.0, 0.0, 0.0, 0.0, 1.7297109604494336E9, 0.0, 2024-10-24 00:46:00.449
104.0, -49042.387192533875, -51010.45829182366, -50869.955226177604, -56231.93755530567, -56147.44796126461, -49197.19537463133, -21978.11269499215, 1960.5385614083484, 0.116, 0.974, 0.126, 192.0, 0.0, 0.0, 0.0, 0.0, 0.0, 0.0, 0.0, 0.0, 0.0, 1.7297109604524777E9, 0.0, 2024-10-24 00:46:00.452
105.0, -49063.017852666126, -51042.1977689502, -50900.21948817009, -56263.78879115448, -56189.69275828514, -49231.68411632587, -21624.575152942558, 2366.2227232721716, 0.11, 0.966, 0.126, 192.0, 3.0, 112.0, 30.0, 48.0, 3.0, 240.0, 0.0, 0.0, 0.0, 1.7297109604564724E9, 0.0, 2024-10-24 00:46:00.456
106.0, -49085.99544596618, -51055.47470515665, -50915.10574997732, -56273.02006161452, -56198.92402874518, -49238.277880940186, -21361.629231170326, 2654.627281978999, 0.11, 0.966, 0.126, 192.0, 0.0, 0.0, 0.0, 0.0, 0.0, 0.0, 0.0, 0.0, 0.0, 1.72971096045959E9, 0.0, 2024-10-24 00:46:00.459
107.0, -49080.698082530274, -51036.274556669545, -50891.12232817678, -56247.583776424384, -56144.72104844106, -49201.0622264221, -21607.498420178705, 2357.237322001138, 0.11, 0.966, 0.126, 192.0, 0.0, 0.0, 0.0, 0.0, 0.0, 0.0, 0.0, 0.0, 0.0, 1.729710960463568E9, 0.0, 2024-10-24 00:46:00.463
108.0, -49058.65926249734, -51017.63320179382, -50869.35172907731, -56227.28839245897, -56118.56950742835, -49179.78336570065, -21951.42471211251, 1968.7640033679013, 0.11, 0.966, 0.126, 192.0, 0.0, 0.0, 0.0, 0.0, 0.0, 0.0, 0.0, 0.0, 0.0, 1.729710960467476E9, 0.0, 2024-10-24 00:46:00.467
109.0, -49035.07817209699, -51013.36401860286, -50864.38964180823, -56232.04931402794, -56136.67442043715, -49192.52386004017, -21998.07280279074, 1937.3150989192843, 0.11, 0.966, 0.126, 192.0, 0.0, 0.0, 0.0, 0.0, 0.0, 0.0, 0.0, 0.0, 0.0, 1.729710960471491E9, 0.0, 2024-10-24 00:46:00.471
110.0, -49055.01592815112, -51042.44363813921, -50894.02805495597, -56264.25817778805, -56181.57907504786, -49232.35466865953, -21663.95892667281, 2323.374429151348, 0.11, 0.966, 0.126, 192.0, 0.0, 0.0, 0.0, 0.0, 0.0, 0.0, 0.0, 0.0, 0.0, 1.7297109604745345E9, 0.0, 2024-10-24 00:46:00.474
111.0, -49088.36473087844, -51067.87992332935, -50918.65967734572, -56284.41945128673, -56195.54891533243, -49249.386697934475, -21375.53201622153, 2637.5058457262335, 0.11, 0.966, 0.126, 192.0, 0.0, 0.0, 0.0, 0.0, 0.0, 0.0, 0.0, 0.0, 0.0, 1.7297109604785109E9, 0.0, 2024-10-24 00:46:00.478
112.0, -49081.413338352846, -51049.95382427619, -50896.19617416814, -56258.44672422967, -56151.76184794449, -49210.82993874907, -21601.37404219795, 2358.019633057074, 0.11, 0.966, 0.126, 192.0, 0.0, 0.0, 0.0, 0.0, 0.0, 0.0, 0.0, 0.0, 0.0, 1.7297109604848456E9, 0.0, 2024-10-24 00:46:00.484
113.0, -49061.050899154056, -51028.33968738791, -50876.88426695875, -56239.023058298, -56129.54421395591, -49191.69684549533, -21962.242956428883, 1952.581340382259, 0.11, 0.966, 0.126, 192.0, 0.0, 0.0, 0.0, 0.0, 0.0, 0.0, 0.0, 0.0, 0.0, 1.72971096048651E9, 0.0, 2024-10-24 00:46:00.486
114.0, -49040.10731459944, -51022.23766115161, -50872.97271167907, -56243.85103510035, -56141.949432128604, -49200.861060722, -22004.666567405056, 1926.0721714582648, 0.11, 0.966, 0.126, 192.0, 0.0, 0.0, 0.0, 0.0, 0.0, 0.0, 0.0, 0.0, 0.0, 1.7297109604914765E9, 0.0, 2024-10-24 00:46:00.491
115.0, -49060.492105542675, -51045.25995794058, -50900.73357829256, -56275.52345699352, -56169.866760953286, -49237.294404184155, -21664.450665050827, 2318.211176182172, 0.106, 0.966, 0.126, 192.0, 3.0, 80.0, 30.0, 48.0, 3.0, 240.0, 0.0, 0.0, 0.0, 1.7297109604955163E9, 0.0, 2024-10-24 00:46:00.495
116.0, -49090.30933264606, -51062.60491163789, -50921.45364540263, -56292.287265335, -56186.921141972685, -49257.165105004926, -21389.23363557263, 2618.0821797945714, 0.106, 0.966, 0.126, 192.0, 0.0, 0.0, 0.0, 0.0, 0.0, 0.0, 0.0, 0.0, 0.0, 1.7297109604985344E9, 0.0, 2024-10-24 00:46:00.498
117.0, -49088.07415820052, -51045.081143984935, -50906.857956273314, -56265.86750338883, -56160.702545726606, -49219.189491175355, -21616.729690638746, 2336.047868257507, 0.106, 0.966, 0.126, 192.0, 0.0, 0.0, 0.0, 0.0, 0.0, 0.0, 0.0, 0.0, 0.0, 1.729710960502529E9, 0.0, 2024-10-24 00:46:00.502
118.0, -49068.20345737976, -51026.350382131386, -50885.66850252968, -56244.94627057866, -56136.62971694824, -49195.563697286096, -21957.102055204163, 1950.256758958907, 0.106, 0.966, 0.126, 192.0, 0.0, 0.0, 0.0, 0.0, 0.0, 0.0, 0.0, 0.0, 0.0, 1.7297109605065432E9, 0.0, 2024-10-24 00:46:00.506
119.0, -49045.13645710188, -51022.43882685171, -50880.16997339368, -56249.43897121418, -56151.739496200025, -49201.017522933194, -22009.78511688532, 1913.7340085189353, 0.106, 0.966, 0.126, 192.0, 0.0, 0.0, 0.0, 0.0, 0.0, 0.0, 0.0, 0.0, 0.0, 1.7297109605107129E9, 0.0, 2024-10-24 00:46:00.510
120.0, -49071.109184158944, -51056.681699357236, -50913.69759007664, -56285.17941059821, -56194.43132810966, -49241.83180830858, -21662.103731883017, 2313.718475546655, 0.106, 0.966, 0.126, 192.0, 0.0, 0.0, 0.0, 0.0, 0.0, 0.0, 0.0, 0.0, 0.0, 1.729710960514544E9, 0.0, 2024-10-24 00:46:00.514
121.0, -49103.541565363594, -51078.74287113463, -50931.08724726287, -56296.310579336954, -56197.22529616658, -49250.9736717908, -21362.769170137548, 2637.1705695594037, 0.106, 0.966, 0.126, 192.0, 0.0, 0.0, 0.0, 0.0, 0.0, 0.0, 0.0, 0.0, 0.0, 1.729710960519534E9, 0.0, 2024-10-24 00:46:00.519
122.0, -49099.47354787273, -51055.13942898982, -50910.143662708244, -56262.47003823162, -56159.02616489246, -49209.24296489274, -21602.938664309822, 2341.7699148380657, 0.106, 0.966, 0.126, 192.0, 0.0, 0.0, 0.0, 0.0, 0.0, 0.0, 0.0, 0.0, 0.0, 1.7297109605236506E9, 0.0, 2024-10-24 00:46:00.523
123.0, -49082.039187197595, -51036.699239814196, -50891.50230783252, -56242.04054379947, -56135.75799891449, -49188.567601271585, -21974.20113971247, 1924.8204737687677, 0.106, 0.966, 0.126, 192.0, 0.0, 0.0, 0.0, 0.0, 0.0, 0.0, 0.0, 0.0, 0.0, 1.729710960526546E9, 0.0, 2024-10-24 00:46:00.526
124.0, -49062.95079743276, -51040.96842300516, -50891.345845621334, -56251.67414565971, -56154.198188090115, -49208.639467792455, -21995.88233183412, 1919.8583864996895, 0.106, 0.966, 0.126, 192.0, 0.0, 0.0, 0.0, 0.0, 0.0, 0.0, 0.0, 0.0, 0.0, 1.7297109605305405E9, 0.0, 2024-10-24 00:46:00.530
125.0, -49080.563972063544, -51064.32599596096, -50919.866671546304, -56277.311596549946, -56192.442022853145, -49241.496532141755, -21655.353505057516, 2312.667943557256, 0.106, 0.966, 0.128, 192.0, 3.0, 80.0, 30.0, 48.0, 4.0, 0.0, 0.0, 0.0, 0.0, 1.7297109605355544E9, 0.0, 2024-10-24 00:46:00.535
126.0, -49106.76021656516, -51078.698167645714, -50933.25536647503, -56283.61478848634, -56197.247647911034, -49240.244834452256, -21375.26379528806, 2613.164796014404, 0.106, 0.966, 0.128, 192.0, 0.0, 0.0, 0.0, 0.0, 0.0, 0.0, 0.0, 0.0, 0.0, 1.7297109605395615E9, 0.0, 2024-10-24 00:46:00.539
127.0, -49102.91571651885, -51056.257016212585, -50912.401188898235, -56250.91418634823, -56157.17097010267, -49194.3119995966, -21595.450829917292, 2337.210158969183, 0.106, 0.966, 0.128, 192.0, 0.0, 0.0, 0.0, 0.0, 0.0, 0.0, 0.0, 0.0, 0.0, 1.7297109605425897E9, 0.0, 2024-10-24 00:46:00.542
128.0, -49074.4842975717, -51028.294983899, -50883.14275540623, -56224.248555213046, -56123.68805690862, -49169.702728951306, -21968.993183254384, 1919.0313719548433, 0.106, 0.966, 0.128, 192.0, 0.0, 0.0, 0.0, 0.0, 0.0, 0.0, 0.0, 0.0, 0.0, 1.729710960547564E9, 0.0, 2024-10-24 00:46:00.547
129.0, -49052.19960834976, -51025.59042281991, -50878.44888907062, -56231.66933437221, -56144.72104844106, -49181.929133168356, -22021.676244935545, 1885.682569227525, 0.106, 0.966, 0.128, 192.0, 0.0, 0.0, 0.0, 0.0, 0.0, 0.0, 0.0, 0.0, 0.0, 1.729710960551565E9, 0.0, 2024-10-24 00:46:00.551
130.0, -49067.91288470184, -51049.9985277651, -50906.589735339854, -56261.285395775485, -56182.13786865924, -49215.25558415122, -21702.828610280587, 2258.5543702309574, 0.106, 0.966, 0.128, 192.0, 0.0, 0.0, 0.0, 0.0, 0.0, 0.0, 0.0, 0.0, 0.0, 1.7297109605547023E9, 0.0, 2024-10-24 00:46:00.554
131.0, -49097.52894610512, -51070.808001852994, -50928.65090711724, -56280.66435821824, -56200.756871790516, -49236.60150010604, -21427.365711613384, 2558.850056988008, 0.106, 0.966, 0.128, 192.0, 0.0, 0.0, 0.0, 0.0, 0.0, 0.0, 0.0, 0.0, 0.0, 1.7297109605586622E9, 0.0, 2024-10-24 00:46:00.558
132.0, -49095.38317863741, -51054.312414444976, -50912.043560986946, -56259.94429110817, -56167.09514464082, -49211.32167712709, -21653.408903289903, 2279.11797512984, 0.106, 0.966, 0.128, 192.0, 0.0, 0.0, 0.0, 0.0, 0.0, 0.0, 0.0, 0.0, 0.0, 1.7297109605626929E9, 0.0, 2024-10-24 00:46:00.562
133.0, -49073.70198651576, -51034.35230664639, -50886.11553741879, -56240.69943913215, -56128.672495922154, -49189.93105768336, -22007.326424995237, 1878.0829761127206, 0.106, 0.966, 0.128, 192.0, 0.0, 0.0, 0.0, 0.0, 0.0, 0.0, 0.0, 0.0, 0.0, 1.7297109605667255E9, 0.0, 2024-10-24 00:46:00.566
134.0, -49048.891550170374, -51031.98302173412, -50880.57230479387, -56248.41079096923, -56150.46544676607, -49203.69973226783, -22048.967724915474, 1851.752621144369, 0.106, 0.966, 0.128, 192.0, 0.0, 0.0, 0.0, 0.0, 0.0, 0.0, 0.0, 0.0, 0.0, 1.729710960570698E9, 0.0, 2024-10-24 00:46:00.570
135.0, -49059.151000875354, -51052.703088844195, -50898.83368001386, -56271.70130869166, -56178.78510699095, -49229.85127328054, -21716.507877887238, 2236.6720124092117, 0.11, 0.966, 0.132, 192.0, 3.0, 112.0, 30.0, 48.0, 4.0, 32.0, 0.0, 0.0, 0.0, 1.7297109605757024E9, 0.0, 2024-10-24 00:46:00.575
136.0, -49087.269495400134, -51065.86826632837, -50914.54695636594, -56278.697404706174, -56189.5139443295, -49230.36536340301, -21447.8622612789, 2527.557614750578, 0.11, 0.966, 0.132, 192.0, 0.0, 0.0, 0.0, 0.0, 0.0, 0.0, 0.0, 0.0, 0.0, 1.729710960579713E9, 0.0, 2024-10-24 00:46:00.579
137.0, -49087.537716333594, -51046.66811784126, -50900.13008119227, -56253.77520963851, -56155.8522171798, -49203.61032529001, -21693.73145028728, 2227.083114037885, 0.11, 0.966, 0.132, 192.0, 0.0, 0.0, 0.0, 0.0, 0.0, 0.0, 0.0, 0.0, 0.0, 1.7297109605827737E9, 0.0, 2024-10-24 00:46:00.582
138.0, -49065.744765489675, -51026.484492598116, -50879.812345482394, -56232.496348917055, -56130.415931989664, -49180.78919420114, -22056.455559308, 1816.6827340939922, 0.11, 0.966, 0.132, 192.0, 0.0, 0.0, 0.0, 0.0, 0.0, 0.0, 0.0, 0.0, 0.0, 1.7297109605866969E9, 0.0, 2024-10-24 00:46:00.586
139.0, -49049.718564715215, -51030.17253043324, -50878.53829604844, -56242.93461357768, -56147.64912696471, -49192.25563910671, -22089.3126236573, 1799.7401117968693, 0.11, 0.966, 0.132, 192.0, 0.0, 0.0, 0.0, 0.0, 0.0, 0.0, 0.0, 0.0, 0.0, 1.729710960590695E9, 0.0, 2024-10-24 00:46:00.590
140.0, -49069.20928588024, -51060.12386800336, -50906.47797661758, -56276.462230260644, -56183.70249077112, -49231.639412836965, -21739.97720956531, 2203.4796718930806, 0.11, 0.966, 0.132, 192.0, 0.0, 0.0, 0.0, 0.0, 0.0, 0.0, 0.0, 0.0, 0.0, 1.729710960594648E9, 0.0, 2024-10-24 00:46:00.594
141.0, -49107.02843749862, -51083.615551425886, -50934.8199885869, -56292.77900371302, -56207.238877682554, -49243.08350599808, -21442.00610423161, 2525.948289149796, 0.11, 0.966, 0.132, 192.0, 0.0, 0.0, 0.0, 0.0, 0.0, 0.0, 0.0, 0.0, 0.0, 1.7297109605987916E9, 0.0, 2024-10-24 00:46:00.598
142.0, -49104.03330374161, -51060.77206859256, -50915.6198400998, -56259.832532385895, -56164.681156239654, -49200.48108106627, -21655.174691101874, 2258.4649632531364, 0.11, 0.966, 0.132, 192.0, 0.0, 0.0, 0.0, 0.0, 0.0, 0.0, 0.0, 0.0, 0.0, 1.729710960602702E9, 0.0, 2024-10-24 00:46:00.602
143.0, -49074.21607663824, -51032.7429810456, -50883.76860425098, -56229.635325626776, -56125.67736216514, -49167.22168531677, -22045.480852780445, 1822.3377254411848, 0.11, 0.966, 0.132, 192.0, 0.0, 0.0, 0.0, 0.0, 0.0, 0.0, 0.0, 0.0, 0.0, 1.7297109606077807E9, 0.0, 2024-10-24 00:46:00.607
144.0, -49053.227788594704, -51032.89944325679, -50880.03586292695, -56237.860767586324, -56144.966917630074, -49184.723101225274, -22103.908312786618, 1779.8917627205567, 0.11, 0.966, 0.132, 192.0, 0.0, 0.0, 0.0, 0.0, 0.0, 0.0, 0.0, 0.0, 0.0, 1.7297109606107712E9, 0.0, 2024-10-24 00:46:00.610
145.0, -49081.72626277522, -51071.81383035348, -50919.68785759066, -56281.021986129526, -56194.43132810966, -49236.735610572774, -21750.862509115042, 2184.413633872704, 0.10400000000000001, 0.97, 0.126, 192.0, 3.0, 64.0, 30.0, 80.0, 3.0, 240.0, 0.0, 0.0, 0.0, 1.7297109606147635E9, 0.0, 2024-10-24 00:46:00.614
146.0, -49109.0400944996, -51088.17530729477, -50937.770418855005, -56288.53217226651, -56200.399243879234, -49233.29344192665, -21453.137272970354, 2504.8929458728967, 0.10400000000000001, 0.97, 0.126, 192.0, 0.0, 0.0, 0.0, 0.0, 0.0, 0.0, 0.0, 0.0, 0.0, 1.7297109606187096E9, 0.0, 2024-10-24 00:46:00.618
147.0, -49096.14313794889, -51057.12873424635, -50911.775340053486, -56248.23197701359, -56166.156371373705, -49175.64829297642, -21705.711985315324, 2199.05402649093, 0.10400000000000001, 0.97, 0.126, 192.0, 0.0, 0.0, 0.0, 0.0, 0.0, 0.0, 0.0, 0.0, 0.0, 1.7297109606226964E9, 0.0, 2024-10-24 00:46:00.622
148.0, -49079.87106798543, -51041.370754405354, -50892.55283982192, -56234.50800591803, -56141.457693750584, -49162.773688170164, -22061.752922743908, 1798.041379218266, 0.10400000000000001, 0.97, 0.126, 192.0, 0.0, 0.0, 0.0, 0.0, 0.0, 0.0, 0.0, 0.0, 0.0, 1.7297109606268284E9, 0.0, 2024-10-24 00:46:00.626
149.0, -49066.46002131224, -51047.42807715274, -50897.425520113175, -56253.90932010524, -56165.32935682886, -49195.38488333045, -22081.75773403141, 1794.0404169607662, 0.10400000000000001, 0.97, 0.126, 192.0, 0.0, 0.0, 0.0, 0.0, 0.0, 0.0, 0.0, 0.0, 0.0, 1.7297109606307588E9, 0.0, 2024-10-24 00:46:00.630
