%OpenBCI Raw EXG Data
%Number of channels = 8
%Sample Rate = 250 Hz
%Board = OpenBCI_GUI$BoardCytonSerial
Sample Index, EXG Channel 0, EXG Channel 1, EXG Channel 2, EXG Channel 3, EXG Channel 4, EXG Channel 5, EXG Channel 6, EXG Channel 7, Accel Channel 0, Accel Channel 1, Accel Channel 2, Other, Other, Other, Other, Other, Other, Other, Analog Channel 0, Analog Channel 1, Analog Channel 2, Timestamp, Other, Timestamp (Formatted)
0.0, 0.0, 0.0, 0.0, 0.0, 0.0, 0.0, 0.0, 0.0, 0.148, 0.962, -0.06, 192.0, 4.0, 160.0, 30.0, 16.0, 254.0, 32.0, 0.0, 0.0, 0.0, 1.7296922345324287E9, 0.0, 2024-10-23 19:33:54.532
1.0, 15636.989848254902, 26356.797082042347, 40079.382369444655, 28604.28733876793, 28392.593967031717, 25583.62788958882, -187500.02235174447, -104599.34676877818, 0.148, 0.962, -0.06, 192.0, 0.0, 0.0, 0.0, 0.0, 0.0, 0.0, 0.0, 0.0, 0.0, 1.7296922345493972E9, 0.0, 2024-10-23 19:33:54.549
2.0, 15514.524640384274, 26383.574471899807, 40067.44653790552, 28543.177669427118, 28393.06335366528, 25591.808628059465, -187500.02235174447, -104597.80449841077, 0.148, 0.962, -0.06, 192.0, 0.0, 0.0, 0.0, 0.0, 0.0, 0.0, 0.0, 0.0, 0.0, 1.729692234553412E9, 0.0, 2024-10-23 19:33:54.553
3.0, 15522.303047454721, 26387.50837892394, 40068.16179372809, 28530.32541636532, 28389.19650187451, 25609.578264901433, -187500.02235174447, -104619.70920797696, 0.148, 0.962, -0.06, 192.0, 0.0, 0.0, 0.0, 0.0, 0.0, 0.0, 0.0, 0.0, 0.0, 1.729692234556373E9, 0.0, 2024-10-23 19:33:54.556
4.0, 15585.737298218883, 26370.78927407137, 40076.208421732, 28560.880251035724, 28389.08474315223, 25598.64826186279, -187500.02235174447, -104628.42638831453, 0.148, 0.962, -0.06, 192.0, 0.0, 0.0, 0.0, 0.0, 0.0, 0.0, 0.0, 0.0, 0.0, 1.7296922345694876E9, 0.0, 2024-10-23 19:33:54.569
5.0, 15631.156042952067, 26345.241230158954, 40080.008218289404, 28592.552672928894, 28387.028382662345, 25584.20903494466, -187500.02235174447, -104609.71797820544, 0.148, 0.962, -0.06, 192.0, 0.0, 0.0, 0.0, 0.0, 0.0, 0.0, 0.0, 0.0, 0.0, 1.729692234569519E9, 0.0, 2024-10-23 19:33:54.569
6.0, 15637.034551743813, 26324.319997348786, 40072.72154959697, 28610.590530704325, 28377.685353480025, 25581.258604676557, -187500.02235174447, -104569.64130039708, 0.148, 0.962, -0.06, 192.0, 0.0, 0.0, 0.0, 0.0, 0.0, 0.0, 0.0, 0.0, 0.0, 1.7296922345695355E9, 0.0, 2024-10-23 19:33:54.569
7.0, 15507.997931003325, 26332.88071547517, 40058.37172965667, 28552.721864309537, 28370.085760365222, 25580.319831409437, -187500.02235174447, -104563.47221892742, 0.148, 0.962, -0.06, 192.0, 0.0, 0.0, 0.0, 0.0, 0.0, 0.0, 0.0, 0.0, 0.0, 1.7296922345706823E9, 0.0, 2024-10-23 19:33:54.570
8.0, 15516.223372962879, 26320.54255253584, 40059.08698547924, 28537.88030599121, 28363.760216684368, 25569.121607437326, -187500.02235174447, -104586.09218431619, 0.148, 0.96, -0.046, 192.0, 4.0, 160.0, 30.0, 0.0, 254.0, 144.0, 0.0, 0.0, 0.0, 1.7296922345952396E9, 0.0, 2024-10-23 19:33:54.595
9.0, 15580.261120827332, 26284.846816640715, 40068.56412512829, 28564.07655049283, 28374.846681934203, 25577.123531952326, -187500.02235174447, -104577.7326318899, 0.148, 0.96, -0.046, 192.0, 0.0, 0.0, 0.0, 0.0, 0.0, 0.0, 0.0, 0.0, 0.0, 1.729692234595268E9, 0.0, 2024-10-23 19:33:54.595
10.0, 15626.976266738924, 26245.261877210367, 40072.72154959697, 28596.553635186392, 28373.371466800152, 25593.619119360344, -187500.02235174447, -104541.0757709832, 0.148, 0.96, -0.046, 192.0, 0.0, 0.0, 0.0, 0.0, 0.0, 0.0, 0.0, 0.0, 0.0, 1.7296922345952833E9, 0.0, 2024-10-23 19:33:54.595
11.0, 15633.458272630964, 26213.589455317197, 40063.33381692575, 28608.511818469982, 28353.500765979385, 25554.972953197117, -187500.02235174447, -104480.63665397605, 0.148, 0.96, -0.046, 192.0, 0.0, 0.0, 0.0, 0.0, 0.0, 0.0, 0.0, 0.0, 0.0, 1.729692234595297E9, 0.0, 2024-10-23 19:33:54.595
12.0, 15513.78703281725, 26226.732281056917, 40059.28815117933, 28553.772396298933, 28363.67080970655, 25597.68713685121, -187500.02235174447, -104489.64440699153, 0.148, 0.96, -0.046, 192.0, 0.0, 0.0, 0.0, 0.0, 0.0, 0.0, 0.0, 0.0, 0.0, 1.72969223459531E9, 0.0, 2024-10-23 19:33:54.595
13.0, 15528.628591135574, 26217.56806583024, 40074.73320659795, 28551.13489045321, 28383.966193671968, 25626.297369754004, -187500.02235174447, -104527.28474465427, 0.148, 0.96, -0.046, 192.0, 0.0, 0.0, 0.0, 0.0, 0.0, 0.0, 0.0, 0.0, 0.0, 1.729692234595323E9, 0.0, 2024-10-23 19:33:54.595
14.0, 15587.056051141746, 26176.485559521385, 40078.08596826625, 28570.089169751307, 28380.814597703768, 25607.45484917818, -187500.02235174447, -104524.15550043053, 0.148, 0.96, -0.046, 192.0, 0.0, 0.0, 0.0, 0.0, 0.0, 0.0, 0.0, 0.0, 0.0, 1.729692234598443E9, 0.0, 2024-10-23 19:33:54.598
15.0, 15632.228926685922, 26141.75094863784, 40082.42220669058, 28597.89473985371, 28378.132388369133, 25600.570511885944, -187500.02235174447, -104497.13224138407, 0.148, 0.96, -0.046, 192.0, 0.0, 0.0, 0.0, 0.0, 0.0, 0.0, 0.0, 0.0, 0.0, 1.7296922346179311E9, 0.0, 2024-10-23 19:33:54.617
16.0, 15646.511691392863, 26124.60716064062, 40083.226869490965, 28619.12889708625, 28372.2985830663, 25593.887340293808, -187500.02235174447, -104456.2061972864, 0.148, 0.96, -0.046, 192.0, 0.0, 0.0, 0.0, 0.0, 0.0, 0.0, 0.0, 0.0, 0.0, 1.7296922346179504E9, 0.0, 2024-10-23 19:33:54.617
17.0, 15513.87643979507, 26130.284503732266, 40063.579686114754, 28552.006608486965, 28359.08870209321, 25589.26052919156, -187500.02235174447, -104445.16443552548, 0.148, 0.96, -0.046, 192.0, 0.0, 0.0, 0.0, 0.0, 0.0, 0.0, 0.0, 0.0, 0.0, 1.7296922346180005E9, 0.0, 2024-10-23 19:33:54.618
18.0, 15521.721902098883, 26126.574114152685, 40066.373654171664, 28533.23114314451, 28367.358847541673, 25588.34410766889, -187500.02235174447, -104450.68531640594, 0.158, 0.968, -0.04, 192.0, 4.0, 240.0, 30.0, 64.0, 254.0, 192.0, 0.0, 0.0, 0.0, 1.7296922346180103E9, 0.0, 2024-10-23 19:33:54.618
19.0, 15589.268873842822, 26112.157238979013, 40077.48247116595, 28565.88704179371, 28376.165434857066, 25618.429555705734, -187500.02235174447, -104462.37527875607, 0.158, 0.968, -0.04, 192.0, 0.0, 0.0, 0.0, 0.0, 0.0, 0.0, 0.0, 0.0, 0.0, 1.7296922346184204E9, 0.0, 2024-10-23 19:33:54.618
20.0, 15630.574897596229, 26091.079543957658, 40074.9567240425, 28593.580853173837, 28365.10132135169, 25613.06513703646, -187500.02235174447, -104452.45110421791, 0.158, 0.968, -0.04, 192.0, 0.0, 0.0, 0.0, 0.0, 0.0, 0.0, 0.0, 0.0, 0.0, 1.7296922346224153E9, 0.0, 2024-10-23 19:33:54.622
21.0, 15638.912098278059, 26086.072753199667, 40068.43001466156, 28611.976338860553, 28355.80299565828, 25594.602596116376, -187500.02235174447, -104400.95268499288, 0.158, 0.968, -0.04, 192.0, 0.0, 0.0, 0.0, 0.0, 0.0, 0.0, 0.0, 0.0, 0.0, 1.729692234626494E9, 0.0, 2024-10-23 19:33:54.626
22.0, 15509.629608348563, 26118.147506493035, 40052.44851737601, 28549.950247997076, 28350.90796362257, 25594.98257577212, -187500.02235174447, -104386.37934760802, 0.158, 0.968, -0.04, 192.0, 0.0, 0.0, 0.0, 0.0, 0.0, 0.0, 0.0, 0.0, 0.0, 1.7296922346312785E9, 0.0, 2024-10-23 19:33:54.631
23.0, 15516.893925296537, 26133.100823533634, 40056.538886611335, 28535.354558867763, 28356.786472414315, 25599.989366530106, -187500.02235174447, -104419.1470049795, 0.158, 0.968, -0.04, 192.0, 0.0, 0.0, 0.0, 0.0, 0.0, 0.0, 0.0, 0.0, 0.0, 1.7296922346366465E9, 0.0, 2024-10-23 19:33:54.636
24.0, 15580.886969672081, 26130.35155896563, 40063.9596657705, 28560.1426434687, 28354.953629368978, 25597.709488595665, -187500.02235174447, -104428.06535101717, 0.158, 0.968, -0.04, 192.0, 0.0, 0.0, 0.0, 0.0, 0.0, 0.0, 0.0, 0.0, 0.0, 1.7296922346406078E9, 0.0, 2024-10-23 19:33:54.640
25.0, 15631.37956039662, 26133.145527022545, 40075.71668335399, 28592.686783395624, 28364.788396929314, 25590.534578625513, -187500.02235174447, -104424.62318237106, 0.158, 0.968, -0.04, 192.0, 0.0, 0.0, 0.0, 0.0, 0.0, 0.0, 0.0, 0.0, 0.0, 1.729692234643476E9, 0.0, 2024-10-23 19:33:54.643
26.0, 15645.259993703366, 26144.053178316735, 40076.56604964329, 28610.009385348487, 28355.60182995818, 25575.536558096, -187500.02235174447, -104415.36956016655, 0.158, 0.968, -0.04, 192.0, 0.0, 0.0, 0.0, 0.0, 0.0, 0.0, 0.0, 0.0, 0.0, 1.7296922346465187E9, 0.0, 2024-10-23 19:33:54.646
27.0, 15521.565439887696, 26182.36406831313, 40061.009235502395, 28547.55861134036, 28337.206344271464, 25583.337316910904, -187500.02235174447, -104418.87878404603, 0.158, 0.968, -0.04, 192.0, 0.0, 0.0, 0.0, 0.0, 0.0, 0.0, 0.0, 0.0, 0.0, 1.7296922346505227E9, 0.0, 2024-10-23 19:33:54.650
28.0, 15525.253477722823, 26199.396097588076, 40056.2036104445, 28526.860895974743, 28333.250085502874, 25596.435439161713, -187500.02235174447, -104428.93706905092, 0.148, 0.964, -0.042, 192.0, 4.0, 160.0, 30.0, 32.0, 254.0, 176.0, 0.0, 0.0, 0.0, 1.7296922346552694E9, 0.0, 2024-10-23 19:33:54.655
29.0, 15589.492391287375, 26199.172580143524, 40072.16275598559, 28551.112538708752, 28357.188803814508, 25585.6395465898, -187500.02235174447, -104413.96140026586, 0.148, 0.964, -0.042, 192.0, 0.0, 0.0, 0.0, 0.0, 0.0, 0.0, 0.0, 0.0, 0.0, 1.7296922346586325E9, 0.0, 2024-10-23 19:33:54.658
30.0, 15637.123958721633, 26198.010289431848, 40080.365846200686, 28577.688762866113, 28345.76706239785, 25573.033162717005, -187500.02235174447, -104393.97894072282, 0.148, 0.964, -0.042, 192.0, 0.0, 0.0, 0.0, 0.0, 0.0, 0.0, 0.0, 0.0, 0.0, 1.7296922346636622E9, 0.0, 2024-10-23 19:33:54.663
31.0, 15653.418380429554, 26215.645815807085, 40086.244354992436, 28605.360222501782, 28351.42205374504, 25585.4383808897, -187500.02235174447, -104369.10144914407, 0.148, 0.964, -0.042, 192.0, 0.0, 0.0, 0.0, 0.0, 0.0, 0.0, 0.0, 0.0, 0.0, 1.7296922346676147E9, 0.0, 2024-10-23 19:33:54.667
32.0, 15528.74034985785, 26253.53202265883, 40077.013084532395, 28549.41380613015, 28346.974056598432, 25595.228444961125, -187500.02235174447, -104368.36384157704, 0.148, 0.964, -0.042, 192.0, 0.0, 0.0, 0.0, 0.0, 0.0, 0.0, 0.0, 0.0, 0.0, 1.7296922346716309E9, 0.0, 2024-10-23 19:33:54.671
33.0, 15531.847242337137, 26260.841043095716, 40075.51551765389, 28529.051366931366, 28340.022664072832, 25584.566662855945, -187500.02235174447, -104370.24138811129, 0.148, 0.964, -0.042, 192.0, 0.0, 0.0, 0.0, 0.0, 0.0, 0.0, 0.0, 0.0, 0.0, 1.7296922346747887E9, 0.0, 2024-10-23 19:33:54.674
34.0, 15593.761574478338, 26256.05776978228, 40090.290020738845, 28555.493480621994, 28360.0945305937, 25592.5909391154, -187500.02235174447, -104375.9857864363, 0.148, 0.964, -0.042, 192.0, 0.0, 0.0, 0.0, 0.0, 0.0, 0.0, 0.0, 0.0, 0.0, 1.729692234682232E9, 0.0, 2024-10-23 19:33:54.682
35.0, 15637.638048844106, 26248.614638878662, 40092.63695390665, 28584.930728069634, 28349.298638021784, 25581.81739828794, -187500.02235174447, -104367.02273690973, 0.148, 0.964, -0.042, 192.0, 0.0, 0.0, 0.0, 0.0, 0.0, 0.0, 0.0, 0.0, 0.0, 1.7296922346825595E9, 0.0, 2024-10-23 19:33:54.682
36.0, 15645.99760127039, 26251.140386002113, 40091.340552728245, 28598.56529218737, 28345.61060018666, 25560.53853756649, -187500.02235174447, -104328.62243993551, 0.148, 0.964, -0.042, 192.0, 0.0, 0.0, 0.0, 0.0, 0.0, 0.0, 0.0, 0.0, 0.0, 1.7296922346866062E9, 0.0, 2024-10-23 19:33:54.686
37.0, 15519.464375908898, 26282.790456150826, 40078.98003804446, 28536.472146090528, 28339.016835572344, 25568.696924292675, -187500.02235174447, -104344.80510292115, 0.148, 0.964, -0.042, 192.0, 0.0, 0.0, 0.0, 0.0, 0.0, 0.0, 0.0, 0.0, 0.0, 1.72969223469054E9, 0.0, 2024-10-23 19:33:54.690
38.0, 15524.717035855894, 26284.82446489626, 40076.45429092101, 28522.30114010586, 28327.50568717786, 25576.5870900854, -187500.02235174447, -104351.22005357982, 0.146, 0.966, -0.038, 192.0, 4.0, 144.0, 30.0, 48.0, 254.0, 208.0, 0.0, 0.0, 0.0, 1.729692234695558E9, 0.0, 2024-10-23 19:33:54.695
39.0, 15588.195990108967, 26269.088836799725, 40090.73705562795, 28553.03478873191, 28361.167414327552, 25603.20801773167, -187500.02235174447, -104350.05776286815, 0.146, 0.966, -0.038, 192.0, 0.0, 0.0, 0.0, 0.0, 0.0, 0.0, 0.0, 0.0, 0.0, 1.7296922347027276E9, 0.0, 2024-10-23 19:33:54.702
40.0, 15630.99958074088, 26241.99852251989, 40094.82742486327, 28577.889928566212, 28363.067312606254, 25588.16529371325, -187500.02235174447, -104317.55832643012, 0.146, 0.966, -0.038, 192.0, 0.0, 0.0, 0.0, 0.0, 0.0, 0.0, 0.0, 0.0, 0.0, 1.7296922347027576E9, 0.0, 2024-10-23 19:33:54.702
41.0, 15644.90236579208, 26231.53790611481, 40098.38135223166, 28592.5973764178, 28359.155757326575, 25592.948567026684, -187500.02235174447, -104283.9189510249, 0.146, 0.966, -0.038, 192.0, 0.0, 0.0, 0.0, 0.0, 0.0, 0.0, 0.0, 0.0, 0.0, 1.729692234706669E9, 0.0, 2024-10-23 19:33:54.706
42.0, 15519.106747997612, 26247.497051655897, 40077.95185779952, 28527.151468652664, 28340.872030362134, 25590.601633858878, -187500.02235174447, -104316.03840780717, 0.146, 0.966, -0.038, 192.0, 0.0, 0.0, 0.0, 0.0, 0.0, 0.0, 0.0, 0.0, 0.0, 1.7296922347105868E9, 0.0, 2024-10-23 19:33:54.710
43.0, 15527.019265534791, 26244.367807432154, 40078.756520599905, 28512.175799867608, 28344.13538505261, 25594.669651349745, -187500.02235174447, -104354.34929780356, 0.146, 0.966, -0.038, 192.0, 0.0, 0.0, 0.0, 0.0, 0.0, 0.0, 0.0, 0.0, 0.0, 1.72969223471488E9, 0.0, 2024-10-23 19:33:54.714
44.0, 15588.866542442625, 26217.657472808063, 40082.958648557506, 28541.41188161515, 28345.76706239785, 25600.794029330496, -187500.02235174447, -104347.44260876687, 0.146, 0.966, -0.038, 192.0, 0.0, 0.0, 0.0, 0.0, 0.0, 0.0, 0.0, 0.0, 0.0, 1.729692234718806E9, 0.0, 2024-10-23 19:33:54.718
45.0, 15629.725531306927, 26184.934518925493, 40076.811918832296, 28564.680047593123, 28324.55525690976, 25580.096313964885, -187500.02235174447, -104298.11230875402, 0.146, 0.966, -0.038, 192.0, 0.0, 0.0, 0.0, 0.0, 0.0, 0.0, 0.0, 0.0, 0.0, 1.7296922347238128E9, 0.0, 2024-10-23 19:33:54.723
46.0, 15640.923755279036, 26172.93163215299, 40071.24633446292, 28580.393323945205, 28324.309387720754, 25559.756226510555, -187500.02235174447, -104249.29609886362, 0.146, 0.966, -0.038, 192.0, 0.0, 0.0, 0.0, 0.0, 0.0, 0.0, 0.0, 0.0, 0.0, 1.729692234735494E9, 0.0, 2024-10-23 19:33:54.735
47.0, 15515.530468884763, 26189.51662653883, 40059.13168896815, 28520.40124182716, 28327.729204622414, 25561.834938744898, -187500.02235174447, -104251.12894190896, 0.146, 0.966, -0.038, 192.0, 0.0, 0.0, 0.0, 0.0, 0.0, 0.0, 0.0, 0.0, 0.0, 1.7296922347355244E9, 0.0, 2024-10-23 19:33:54.735
48.0, 15523.040655021747, 26185.761533470337, 40060.53984886883, 28510.074735888807, 28322.185971997496, 25584.63371808931, -187500.02235174447, -104274.68768056485, 0.15, 0.972, -0.034, 192.0, 4.0, 176.0, 30.0, 96.0, 254.0, 240.0, 0.0, 0.0, 0.0, 1.729692234735649E9, 0.0, 2024-10-23 19:33:54.735
49.0, 15585.625539496607, 26165.600259971652, 40068.474718150464, 28535.354558867763, 28338.74861463888, 25582.979688999618, -187500.02235174447, -104275.9170265099, 0.15, 0.972, -0.034, 192.0, 0.0, 0.0, 0.0, 0.0, 0.0, 0.0, 0.0, 0.0, 0.0, 1.729692234738783E9, 0.0, 2024-10-23 19:33:54.738
50.0, 15641.057865745768, 26152.390378998563, 40090.155910272115, 28576.101789009786, 28365.011914373867, 25599.296462451992, -187500.02235174447, -104270.19497992934, 0.15, 0.972, -0.034, 192.0, 0.0, 0.0, 0.0, 0.0, 0.0, 0.0, 0.0, 0.0, 0.0, 1.7296922347426453E9, 0.0, 2024-10-23 19:33:54.742
51.0, 15651.831406573227, 26144.36610273911, 40087.89838408213, 28597.358297986782, 28349.05276883278, 25585.036049489507, -187500.02235174447, -104221.1999560833, 0.15, 0.972, -0.034, 192.0, 0.0, 0.0, 0.0, 0.0, 0.0, 0.0, 0.0, 0.0, 0.0, 1.729692234746606E9, 0.0, 2024-10-23 19:33:54.746
52.0, 15523.30887595521, 26167.589565228172, 40067.89357279463, 28532.515887321937, 28329.673806390027, 25582.35384015487, -187500.02235174447, -104217.66838045936, 0.15, 0.972, -0.034, 192.0, 0.0, 0.0, 0.0, 0.0, 0.0, 0.0, 0.0, 0.0, 0.0, 1.7296922347506208E9, 0.0, 2024-10-23 19:33:54.750
53.0, 15530.081454525169, 26175.99382114337, 40068.206497217005, 28518.568398781827, 28329.450288945474, 25588.835846046906, -187500.02235174447, -104212.3039617901, 0.15, 0.972, -0.034, 192.0, 0.0, 0.0, 0.0, 0.0, 0.0, 0.0, 0.0, 0.0, 0.0, 1.7296922347556431E9, 0.0, 2024-10-23 19:33:54.755
54.0, 15591.74991747736, 26167.053123361246, 40073.794433330826, 28541.23306765951, 28325.672844132525, 25575.78242728501, -187500.02235174447, -104183.35845272047, 0.15, 0.972, -0.034, 192.0, 0.0, 0.0, 0.0, 0.0, 0.0, 0.0, 0.0, 0.0, 0.0, 1.729692234759682E9, 0.0, 2024-10-23 19:33:54.759
55.0, 15636.229888943422, 26157.33011452319, 40076.677808365566, 28566.8928702942, 28319.101431262665, 25565.52297658002, -187500.02235174447, -104133.51406258513, 0.15, 0.972, -0.034, 192.0, 0.0, 0.0, 0.0, 0.0, 0.0, 0.0, 0.0, 0.0, 0.0, 1.7296922347626307E9, 0.0, 2024-10-23 19:33:54.762
56.0, 15649.596232127695, 26166.2261088164, 40081.17050900108, 28587.07649553734, 28315.726317849916, 25567.981668470107, -187500.02235174447, -104042.2071864852, 0.15, 0.972, -0.034, 192.0, 0.0, 0.0, 0.0, 0.0, 0.0, 0.0, 0.0, 0.0, 0.0, 1.7296922347666626E9, 0.0, 2024-10-23 19:33:54.766
57.0, 15523.755910844317, 26200.580740044206, 40069.50289839541, 28520.69181450508, 28311.07715500321, 25569.00984871505, -187500.02235174447, -104023.4987763761, 0.15, 0.972, -0.034, 192.0, 0.0, 0.0, 0.0, 0.0, 0.0, 0.0, 0.0, 0.0, 0.0, 1.729692234770692E9, 0.0, 2024-10-23 19:33:54.770
58.0, 15531.131986514567, 26210.57196981573, 40069.70406409551, 28498.809456683335, 28305.26570144483, 25564.852424246365, -187500.02235174447, -104031.38894216884, 0.154, 0.964, -0.03, 192.0, 4.0, 208.0, 30.0, 32.0, 255.0, 16.0, 0.0, 0.0, 0.0, 1.7296922347748303E9, 0.0, 2024-10-23 19:33:54.774
59.0, 15598.99188268088, 26203.37470810112, 40084.81384334729, 28525.095108162775, 28321.180143497008, 25554.05653167445, -187500.02235174447, -103995.67085452925, 0.154, 0.964, -0.03, 192.0, 0.0, 0.0, 0.0, 0.0, 0.0, 0.0, 0.0, 0.0, 0.0, 1.72969223477872E9, 0.0, 2024-10-23 19:33:54.778
60.0, 15650.020915272346, 26197.920882454026, 40103.18697728956, 28557.683951578612, 28332.646588402582, 25557.789272998485, -187500.02235174447, -103951.72732493012, 0.154, 0.964, -0.03, 192.0, 0.0, 0.0, 0.0, 0.0, 0.0, 0.0, 0.0, 0.0, 0.0, 1.7296922347860768E9, 0.0, 2024-10-23 19:33:54.786
61.0, 15660.950918310991, 26201.832437733705, 40108.70785817002, 28582.38262920173, 28342.88368736311, 25586.511264623558, -187500.02235174447, -103916.03158903499, 0.154, 0.964, -0.03, 192.0, 0.0, 0.0, 0.0, 0.0, 0.0, 0.0, 0.0, 0.0, 0.0, 1.7296922347876875E9, 0.0, 2024-10-23 19:33:54.787
62.0, 15529.388550447055, 26229.213324691456, 40088.72539862697, 28517.629625514703, 28330.92550407952, 25602.425706675735, -187500.02235174447, -103897.524344626, 0.154, 0.964, -0.03, 192.0, 0.0, 0.0, 0.0, 0.0, 0.0, 0.0, 0.0, 0.0, 0.0, 1.7296922347906787E9, 0.0, 2024-10-23 19:33:54.790
63.0, 15538.284544740267, 26243.652551609583, 40096.302639997324, 28497.133075849186, 28329.74086162339, 25594.78141007202, -187500.02235174447, -103925.39696996176, 0.154, 0.964, -0.03, 192.0, 0.0, 0.0, 0.0, 0.0, 0.0, 0.0, 0.0, 0.0, 0.0, 1.729692234794676E9, 0.0, 2024-10-23 19:33:54.794
64.0, 15601.361167593142, 26239.89745854109, 40105.08687556826, 28527.59850354177, 28330.590227912693, 25596.882474050817, -187500.02235174447, -103934.40472297726, 0.154, 0.964, -0.03, 192.0, 0.0, 0.0, 0.0, 0.0, 0.0, 0.0, 0.0, 0.0, 0.0, 1.7296922347986827E9, 0.0, 2024-10-23 19:33:54.798
65.0, 15644.164758225055, 26225.659397323063, 40107.94789885854, 28552.833623031813, 28327.058652288753, 25567.40052311427, -187500.02235174447, -103901.21238246112, 0.154, 0.964, -0.03, 192.0, 0.0, 0.0, 0.0, 0.0, 0.0, 0.0, 0.0, 0.0, 0.0, 1.7296922348027036E9, 0.0, 2024-10-23 19:33:54.802
66.0, 15653.776008340838, 26224.69827231148, 40107.70202966953, 28567.429312161126, 28323.884704576103, 25556.381113097803, -187500.02235174447, -103857.29120460644, 0.154, 0.964, -0.03, 192.0, 0.0, 0.0, 0.0, 0.0, 0.0, 0.0, 0.0, 0.0, 0.0, 1.7296922348067935E9, 0.0, 2024-10-23 19:33:54.806
67.0, 15525.49934691183, 26247.988790033913, 40091.31820098379, 28509.35948006624, 28336.13346053761, 25574.53072959551, -187500.02235174447, -103843.56723351088, 0.154, 0.964, -0.03, 192.0, 0.0, 0.0, 0.0, 0.0, 0.0, 0.0, 0.0, 0.0, 0.0, 1.7296922348117795E9, 0.0, 2024-10-23 19:33:54.811
68.0, 15528.44977717993, 26250.20161273499, 40087.47370093747, 28490.40520076814, 28326.70102437747, 25574.95541274016, -187500.02235174447, -103851.6138615148, 0.154, 0.96, -0.036000000000000004, 192.0, 4.0, 208.0, 30.0, 0.0, 254.0, 224.0, 0.0, 0.0, 0.0, 1.7296922348158016E9, 0.0, 2024-10-23 19:33:54.815
69.0, 15592.152248877555, 26234.62244684964, 40091.1617387726, 28517.383756325693, 28332.80305061377, 25571.78146502751, -187500.02235174447, -103856.4641900616, 0.154, 0.96, -0.036000000000000004, 192.0, 0.0, 0.0, 0.0, 0.0, 0.0, 0.0, 0.0, 0.0, 0.0, 1.729692234818786E9, 0.0, 2024-10-23 19:33:54.818
70.0, 15642.33191517972, 26219.71383329795, 40098.64957316513, 28555.448777133082, 28346.884649620613, 25574.754247040066, -187500.02235174447, -103835.85588167381, 0.154, 0.96, -0.036000000000000004, 192.0, 0.0, 0.0, 0.0, 0.0, 0.0, 0.0, 0.0, 0.0, 0.0, 1.729692234822796E9, 0.0, 2024-10-23 19:33:54.822
71.0, 15658.067543276256, 26219.110336197657, 40096.50380569742, 28585.266004236462, 28344.582419941715, 25589.14877046928, -187500.02235174447, -103802.77529987996, 0.154, 0.96, -0.036000000000000004, 192.0, 0.0, 0.0, 0.0, 0.0, 0.0, 0.0, 0.0, 0.0, 0.0, 1.729692234826851E9, 0.0, 2024-10-23 19:33:54.826
72.0, 15529.187384746956, 26236.61175210616, 40067.80416581681, 28526.63737853019, 28327.438631944497, 25588.29940417998, -187500.02235174447, -103828.52450949246, 0.154, 0.96, -0.036000000000000004, 192.0, 0.0, 0.0, 0.0, 0.0, 0.0, 0.0, 0.0, 0.0, 0.0, 1.7296922348308048E9, 0.0, 2024-10-23 19:33:54.830
73.0, 15528.561535902207, 26228.833345035717, 40054.19195344352, 28512.30991033434, 28313.111163748643, 25575.58126158491, -187500.02235174447, -103856.19596912814, 0.154, 0.96, -0.036000000000000004, 192.0, 0.0, 0.0, 0.0, 0.0, 0.0, 0.0, 0.0, 0.0, 0.0, 1.729692234834962E9, 0.0, 2024-10-23 19:33:54.834
74.0, 15595.952045434959, 26213.947083228482, 40057.14238371162, 28549.21264043005, 28312.574721881716, 25579.96220349815, -187500.02235174447, -103849.13281788027, 0.154, 0.96, -0.036000000000000004, 192.0, 0.0, 0.0, 0.0, 0.0, 0.0, 0.0, 0.0, 0.0, 0.0, 1.7296922348387747E9, 0.0, 2024-10-23 19:33:54.838
75.0, 15648.836272816216, 26195.52924579731, 40060.204572702, 28589.17755951614, 28306.98678576789, 25582.979688999618, -187500.02235174447, -103820.38847451074, 0.154, 0.96, -0.036000000000000004, 192.0, 0.0, 0.0, 0.0, 0.0, 0.0, 0.0, 0.0, 0.0, 0.0, 1.7296922348437767E9, 0.0, 2024-10-23 19:33:54.843
76.0, 15661.53206366683, 26182.85580669115, 40055.57776159975, 28610.210551048585, 28297.04025948528, 25549.96616243913, -187500.02235174447, -103804.67519815866, 0.154, 0.96, -0.036000000000000004, 192.0, 0.0, 0.0, 0.0, 0.0, 0.0, 0.0, 0.0, 0.0, 0.0, 1.7296922348468733E9, 0.0, 2024-10-23 19:33:54.846
77.0, 15515.619875862585, 26202.346527856178, 40039.5515608253, 28539.869611247734, 28296.436762384983, 25554.72708400811, -187500.02235174447, -103809.34671274982, 0.154, 0.96, -0.036000000000000004, 192.0, 0.0, 0.0, 0.0, 0.0, 0.0, 0.0, 0.0, 0.0, 0.0, 1.729692234850784E9, 0.0, 2024-10-23 19:33:54.850
78.0, 15522.124233499078, 26205.721641268927, 40049.49808710791, 28530.012491942944, 28301.197683953964, 25599.20705547417, -187500.02235174447, -103835.4088467847, 0.154, 0.962, -0.032, 192.0, 4.0, 208.0, 30.0, 16.0, 255.0, 0.0, 0.0, 0.0, 0.0, 1.7296922348548117E9, 0.0, 2024-10-23 19:33:54.854
79.0, 15599.75184199236, 26174.78682694278, 40058.59524710122, 28553.615934087746, 28296.235596684888, 25588.813494302452, -187500.02235174447, -103858.8111232294, 0.154, 0.962, -0.032, 192.0, 0.0, 0.0, 0.0, 0.0, 0.0, 0.0, 0.0, 0.0, 0.0, 1.7296922348587832E9, 0.0, 2024-10-23 19:33:54.858
80.0, 15668.326993981242, 26149.283486519278, 40074.46498566449, 28593.312632240373, 28302.874064788113, 25581.81739828794, -187500.02235174447, -103865.58370179936, 0.154, 0.962, -0.032, 192.0, 0.0, 0.0, 0.0, 0.0, 0.0, 0.0, 0.0, 0.0, 0.0, 1.729692234862787E9, 0.0, 2024-10-23 19:33:54.862
81.0, 15674.965462084469, 26132.184402010967, 40074.55439264231, 28611.03756559343, 28296.749686807358, 25571.937927238694, -187500.02235174447, -103854.5642917829, 0.154, 0.962, -0.032, 192.0, 0.0, 0.0, 0.0, 0.0, 0.0, 0.0, 0.0, 0.0, 0.0, 1.7296922348678186E9, 0.0, 2024-10-23 19:33:54.867
82.0, 15527.980390546369, 26150.959867353424, 40057.96939825647, 28539.623742058724, 28283.092770945164, 25574.754247040066, -187500.02235174447, -103874.41264085921, 0.154, 0.962, -0.032, 192.0, 0.0, 0.0, 0.0, 0.0, 0.0, 0.0, 0.0, 0.0, 0.0, 1.7296922348718152E9, 0.0, 2024-10-23 19:33:54.871
83.0, 15531.959001059415, 26152.99387609886, 40068.80999431729, 28518.054308659353, 28294.55921585074, 25568.96514522614, -187500.02235174447, -103917.21623149113, 0.154, 0.962, -0.032, 192.0, 0.0, 0.0, 0.0, 0.0, 0.0, 0.0, 0.0, 0.0, 0.0, 1.72969223487584E9, 0.0, 2024-10-23 19:33:54.875
84.0, 15613.118185176634, 26131.290332232755, 40087.87603233767, 28547.245686917984, 28302.337622921186, 25583.940814011195, -187500.02235174447, -103927.90036534076, 0.154, 0.962, -0.032, 192.0, 0.0, 0.0, 0.0, 0.0, 0.0, 0.0, 0.0, 0.0, 0.0, 1.7296922348788056E9, 0.0, 2024-10-23 19:33:54.878
85.0, 15672.082087049734, 26105.83169529816, 40093.79924461833, 28579.342791955805, 28288.278375658796, 25568.115778936837, -187500.02235174447, -103915.94218205717, 0.154, 0.962, -0.032, 192.0, 0.0, 0.0, 0.0, 0.0, 0.0, 0.0, 0.0, 0.0, 0.0, 1.7296922348828187E9, 0.0, 2024-10-23 19:33:54.882
86.0, 15678.206465030487, 26098.701488816918, 40089.463006194, 28595.793675874913, 28271.961602206422, 25571.49089234959, -187500.02235174447, -103884.89560900874, 0.154, 0.962, -0.032, 192.0, 0.0, 0.0, 0.0, 0.0, 0.0, 0.0, 0.0, 0.0, 0.0, 1.7296922348868124E9, 0.0, 2024-10-23 19:33:54.886
87.0, 15538.351599973632, 26132.162050266514, 40082.332799712756, 28529.163125653642, 28300.571835109215, 25589.931081525217, -187500.02235174447, -103897.41258590372, 0.154, 0.962, -0.032, 192.0, 0.0, 0.0, 0.0, 0.0, 0.0, 0.0, 0.0, 0.0, 0.0, 1.7296922348910244E9, 0.0, 2024-10-23 19:33:54.891
88.0, 15546.085303555168, 26146.46716671791, 40102.78464588936, 28508.845389943766, 28325.315216221243, 25594.714354838652, -187500.02235174447, -103944.08302832641, 0.16, 0.964, -0.032, 192.0, 5.0, 0.0, 30.0, 32.0, 255.0, 0.0, 0.0, 0.0, 0.0, 1.7296922348968277E9, 0.0, 2024-10-23 19:33:54.896
89.0, 15621.745958536383, 26129.524544420787, 40106.38327674667, 28533.87934373371, 28308.55140787976, 25597.128343239827, -187500.02235174447, -103976.96244442016, 0.16, 0.964, -0.032, 192.0, 0.0, 0.0, 0.0, 0.0, 0.0, 0.0, 0.0, 0.0, 0.0, 1.7296922348998444E9, 0.0, 2024-10-23 19:33:54.899
90.0, 15673.467895205964, 26105.1611429645, 40102.85170112273, 28561.327285924828, 28299.387192653085, 25577.078828463418, -187500.02235174447, -103961.27151981254, 0.16, 0.964, -0.032, 192.0, 0.0, 0.0, 0.0, 0.0, 0.0, 0.0, 0.0, 0.0, 0.0, 1.7296922349038208E9, 0.0, 2024-10-23 19:33:54.903
91.0, 15678.139409797122, 26103.752983063816, 40103.07521856728, 28576.481768665526, 28300.75064906486, 25562.885470734298, -187500.02235174447, -103914.86929832332, 0.16, 0.964, -0.032, 192.0, 0.0, 0.0, 0.0, 0.0, 0.0, 0.0, 0.0, 0.0, 0.0, 1.729692234906874E9, 0.0, 2024-10-23 19:33:54.906
92.0, 15522.772434088283, 26134.017245056304, 40072.475680407966, 28499.792933439367, 28262.328000346184, 25558.72804626561, -187500.02235174447, -103907.0238360195, 0.16, 0.964, -0.032, 192.0, 0.0, 0.0, 0.0, 0.0, 0.0, 0.0, 0.0, 0.0, 0.0, 1.7296922349110086E9, 0.0, 2024-10-23 19:33:54.911
93.0, 15510.411919404498, 26140.83452711517, 40059.399909901615, 28469.01458132441, 28255.13073863158, 25548.982685683095, -187500.02235174447, -103938.07040906792, 0.16, 0.964, -0.032, 192.0, 0.0, 0.0, 0.0, 0.0, 0.0, 0.0, 0.0, 0.0, 0.0, 1.729692234914978E9, 0.0, 2024-10-23 19:33:54.914
94.0, 15590.118240132124, 26133.50315493383, 40071.78277632985, 28504.933834664087, 28280.61172731063, 25565.16534866874, -187500.02235174447, -103946.29585102748, 0.16, 0.964, -0.032, 192.0, 0.0, 0.0, 0.0, 0.0, 0.0, 0.0, 0.0, 0.0, 0.0, 1.7296922349188888E9, 0.0, 2024-10-23 19:33:54.918
95.0, 15650.937336795014, 26125.233009485368, 40080.90228806761, 28552.92303000963, 28288.613651825628, 25576.028296474018, -187500.02235174447, -103941.44552248067, 0.16, 0.964, -0.032, 192.0, 0.0, 0.0, 0.0, 0.0, 0.0, 0.0, 0.0, 0.0, 0.0, 1.7296922349228773E9, 0.0, 2024-10-23 19:33:54.922
96.0, 15651.585537384217, 26121.29910246123, 40068.11709023918, 28570.737370340514, 28266.59718353715, 25550.033217672495, -187500.02235174447, -103914.86929832332, 0.16, 0.964, -0.032, 192.0, 0.0, 0.0, 0.0, 0.0, 0.0, 0.0, 0.0, 0.0, 0.0, 1.729692234927876E9, 0.0, 2024-10-23 19:33:54.927
97.0, 15504.3098931682, 26157.71009417893, 40044.69246205002, 28504.68796547508, 28248.49227052835, 25558.01279044304, -187500.02235174447, -103923.25120249405, 0.16, 0.964, -0.032, 192.0, 0.0, 0.0, 0.0, 0.0, 0.0, 0.0, 0.0, 0.0, 0.0, 1.7296922349309895E9, 0.0, 2024-10-23 19:33:54.930
98.0, 15504.77927980176, 26176.08322812119, 40044.67011030556, 28492.05922985783, 28259.623439267092, 25566.72997078061, -187500.02235174447, -103939.3891619908, 0.16, 0.968, -0.034, 192.0, 5.0, 0.0, 30.0, 64.0, 254.0, 240.0, 0.0, 0.0, 0.0, 1.7296922349349022E9, 0.0, 2024-10-23 19:33:54.934
99.0, 15581.311652816732, 26167.768379183817, 40057.96939825647, 28525.54214305188, 28274.97908770789, 25569.769808026533, -187500.02235174447, -103967.17238034874, 0.16, 0.968, -0.034, 192.0, 0.0, 0.0, 0.0, 0.0, 0.0, 0.0, 0.0, 0.0, 0.0, 1.7296922349389188E9, 0.0, 2024-10-23 19:33:54.938
100.0, 15632.43009238602, 26148.70234116344, 40059.24344769042, 28570.379742429228, 28280.20939591043, 25566.215880658136, -187500.02235174447, -103960.51156050105, 0.16, 0.968, -0.034, 192.0, 0.0, 0.0, 0.0, 0.0, 0.0, 0.0, 0.0, 0.0, 0.0, 1.7296922349429276E9, 0.0, 2024-10-23 19:33:54.942
101.0, 15647.159891982066, 26159.051198846246, 40064.138479726134, 28600.487542210525, 28277.035448197777, 25562.214918400638, -187500.02235174447, -103934.76235088854, 0.16, 0.968, -0.034, 192.0, 0.0, 0.0, 0.0, 0.0, 0.0, 0.0, 0.0, 0.0, 0.0, 1.72969223494691E9, 0.0, 2024-10-23 19:33:54.946
102.0, 15506.88034378056, 26195.551597541762, 40053.40964238759, 28544.49642234998, 28275.359067363628, 25602.15748574227, -187500.02235174447, -103938.80801663495, 0.16, 0.968, -0.034, 192.0, 0.0, 0.0, 0.0, 0.0, 0.0, 0.0, 0.0, 0.0, 0.0, 1.7296922349510567E9, 0.0, 2024-10-23 19:33:54.951
103.0, 15503.616989090086, 26199.731373754905, 40053.14142145412, 28519.50717204895, 28270.017000438813, 25597.307157195468, -187500.02235174447, -103993.83801148391, 0.16, 0.968, -0.034, 192.0, 0.0, 0.0, 0.0, 0.0, 0.0, 0.0, 0.0, 0.0, 0.0, 1.7296922349559348E9, 0.0, 2024-10-23 19:33:54.955
104.0, 15573.488542257375, 26167.880137906093, 40054.25900867689, 28540.36134962575, 28268.340619604664, 25573.033162717005, -187500.02235174447, -104030.31605843498, 0.16, 0.968, -0.034, 192.0, 0.0, 0.0, 0.0, 0.0, 0.0, 0.0, 0.0, 0.0, 0.0, 1.7296922349589093E9, 0.0, 2024-10-23 19:33:54.958
105.0, 15631.580726096718, 26142.17563178249, 40063.89261053713, 28578.873405322243, 28273.302706873743, 25560.516185822034, -187500.02235174447, -104020.99538099712, 0.16, 0.968, -0.034, 192.0, 0.0, 0.0, 0.0, 0.0, 0.0, 0.0, 0.0, 0.0, 0.0, 1.72969223496291E9, 0.0, 2024-10-23 19:33:54.962
106.0, 15644.164758225055, 26136.140660779558, 40071.469851907474, 28601.202798033097, 28276.364895864117, 25558.683342776698, -187500.02235174447, -103995.80496499599, 0.16, 0.968, -0.034, 192.0, 0.0, 0.0, 0.0, 0.0, 0.0, 0.0, 0.0, 0.0, 0.0, 1.7296922349669185E9, 0.0, 2024-10-23 19:33:54.966
107.0, 15502.052366978214, 26162.739236681373, 40059.042281990325, 28528.671387275626, 28269.25704112733, 25578.196415686183, -187500.02235174447, -104018.06730247347, 0.16, 0.968, -0.034, 192.0, 0.0, 0.0, 0.0, 0.0, 0.0, 0.0, 0.0, 0.0, 0.0, 1.7296922349711096E9, 0.0, 2024-10-23 19:33:54.971
108.0, 15503.125250712068, 26165.868480905116, 40067.155965227605, 28508.376003310204, 28275.962564463924, 25588.411162902255, -187500.02235174447, -104064.17895128476, 0.16, 0.968, -0.034, 192.0, 0.0, 0.0, 0.0, 0.0, 0.0, 0.0, 0.0, 0.0, 0.0, 1.7296922349749444E9, 0.0, 2024-10-23 19:33:54.974
109.0, 15584.262083084832, 26145.640152173062, 40080.90228806761, 28535.46631759004, 28273.63798304057, 25585.840712289897, -187500.02235174447, -104111.09526289646, 0.156, 0.964, -0.03, 192.0, 4.0, 224.0, 30.0, 32.0, 255.0, 16.0, 0.0, 0.0, 0.0, 1.7296922349790156E9, 0.0, 2024-10-23 19:33:54.979
110.0, 15646.757560581871, 26118.415727426498, 40089.2618404939, 28572.927841297133, 28277.3260208757, 25572.228499916615, -187500.02235174447, -104113.12927164188, 0.156, 0.964, -0.03, 192.0, 0.0, 0.0, 0.0, 0.0, 0.0, 0.0, 0.0, 0.0, 0.0, 1.7296922349840827E9, 0.0, 2024-10-23 19:33:54.984
111.0, 15662.202616000488, 26115.241779713844, 40100.48241621046, 28589.781056616433, 28293.50868386134, 25572.20614817216, -187500.02235174447, -104094.2196958327, 0.156, 0.964, -0.03, 192.0, 0.0, 0.0, 0.0, 0.0, 0.0, 0.0, 0.0, 0.0, 0.0, 1.7296922349870114E9, 0.0, 2024-10-23 19:33:54.987
112.0, 15526.16989924549, 26148.434120229977, 40089.2618404939, 28522.345843594772, 28282.176349422498, 25573.52490109502, -187500.02235174447, -104124.75217875864, 0.156, 0.964, -0.03, 192.0, 0.0, 0.0, 0.0, 0.0, 0.0, 0.0, 0.0, 0.0, 0.0, 1.7296922349911475E9, 0.0, 2024-10-23 19:33:54.991
113.0, 15520.02316952028, 26147.204774284935, 40080.008218289404, 28488.147674578155, 28263.713808502416, 25538.544421022467, -187500.02235174447, -104165.34294668949, 0.156, 0.964, -0.03, 192.0, 0.0, 0.0, 0.0, 0.0, 0.0, 0.0, 0.0, 0.0, 0.0, 1.72969223499503E9, 0.0, 2024-10-23 19:33:54.995
114.0, 15597.784888480293, 26124.584808896165, 40089.530061427366, 28514.209808613043, 28267.603012037638, 25557.275182876016, -187500.02235174447, -104194.37786273693, 0.156, 0.964, -0.03, 192.0, 0.0, 0.0, 0.0, 0.0, 0.0, 0.0, 0.0, 0.0, 0.0, 1.7296922349989922E9, 0.0, 2024-10-23 19:33:54.998
115.0, 15656.458217675474, 26096.86864577158, 40096.07912255277, 28558.55566961237, 28277.393076109063, 25588.5899768579, -187500.02235174447, -104172.02611828162, 0.156, 0.964, -0.03, 192.0, 0.0, 0.0, 0.0, 0.0, 0.0, 0.0, 0.0, 0.0, 0.0, 1.729692235003064E9, 0.0, 2024-10-23 19:33:55.003
116.0, 15663.677831134539, 26083.278785142757, 40094.46979695199, 28575.99003028751, 28271.246346383854, 25574.21780517314, -187500.02235174447, -104131.3235916285, 0.156, 0.964, -0.03, 192.0, 0.0, 0.0, 0.0, 0.0, 0.0, 0.0, 0.0, 0.0, 0.0, 1.7296922350070508E9, 0.0, 2024-10-23 19:33:55.007
117.0, 15522.414806176997, 26110.614968611597, 40080.27643922287, 28510.611177755738, 28266.239555625863, 25581.437418632202, -187500.02235174447, -104163.0854204995, 0.156, 0.964, -0.03, 192.0, 0.0, 0.0, 0.0, 0.0, 0.0, 0.0, 0.0, 0.0, 0.0, 1.7296922350120337E9, 0.0, 2024-10-23 19:33:55.012
118.0, 15516.536297385252, 26104.155314464013, 40076.4095874321, 28489.511130989926, 28267.334791104175, 25567.78050277001, -187500.02235174447, -104196.47892671573, 0.156, 0.964, -0.03, 192.0, 0.0, 0.0, 0.0, 0.0, 0.0, 0.0, 0.0, 0.0, 0.0, 1.7296922350150406E9, 0.0, 2024-10-23 19:33:55.015
119.0, 15593.918036689525, 26078.093180429125, 40086.311410225804, 28512.846352201268, 28272.11806441761, 25548.379188582803, -187500.02235174447, -104207.87831638794, 0.156, 0.964, -0.034, 192.0, 4.0, 224.0, 30.0, 32.0, 254.0, 240.0, 0.0, 0.0, 0.0, 1.7296922350189824E9, 0.0, 2024-10-23 19:33:55.018
120.0, 15655.76531359736, 26055.562622018173, 40098.403703976124, 28561.349637669282, 28282.39986686705, 25590.266357692046, -187500.02235174447, -104223.94922065131, 0.156, 0.964, -0.034, 192.0, 0.0, 0.0, 0.0, 0.0, 0.0, 0.0, 0.0, 0.0, 0.0, 1.7296922350230074E9, 0.0, 2024-10-23 19:33:55.023
121.0, 15668.19288351451, 26047.828918436637, 40100.39300923264, 28589.75870487198, 28279.382381365584, 25590.713392581154, -187500.02235174447, -104225.42443578535, 0.156, 0.964, -0.034, 192.0, 0.0, 0.0, 0.0, 0.0, 0.0, 0.0, 0.0, 0.0, 0.0, 1.729692235027044E9, 0.0, 2024-10-23 19:33:55.027
122.0, 15521.051349765225, 26070.4041803365, 40075.403758931614, 28519.775392982414, 28249.78867170676, 25572.25085166107, -187500.02235174447, -104252.60415704301, 0.156, 0.964, -0.034, 192.0, 0.0, 0.0, 0.0, 0.0, 0.0, 0.0, 0.0, 0.0, 0.0, 1.729692235031122E9, 0.0, 2024-10-23 19:33:55.031
123.0, 15510.97071301588, 26065.710314000884, 40063.49027913693, 28492.752133935945, 28235.416500021995, 25542.52303153551, -187500.02235174447, -104296.95001804233, 0.156, 0.964, -0.034, 192.0, 0.0, 0.0, 0.0, 0.0, 0.0, 0.0, 0.0, 0.0, 0.0, 1.729692235035262E9, 0.0, 2024-10-23 19:33:55.035
124.0, 15590.967606421425, 26055.003828406792, 40085.73026486996, 28533.499364077972, 28281.237576155374, 25572.474369105625, -187500.02235174447, -104314.8761170955, 0.156, 0.964, -0.034, 192.0, 0.0, 0.0, 0.0, 0.0, 0.0, 0.0, 0.0, 0.0, 0.0, 1.7296922350401337E9, 0.0, 2024-10-23 19:33:55.040
125.0, 15648.702162349484, 26040.564601488662, 40094.89448009664, 28585.288355980916, 28278.577718565193, 25603.744459598598, -187500.02235174447, -104303.78965184565, 0.156, 0.964, -0.034, 192.0, 0.0, 0.0, 0.0, 0.0, 0.0, 0.0, 0.0, 0.0, 0.0, 1.729692235043044E9, 0.0, 2024-10-23 19:33:55.043
126.0, 15660.258014232877, 26049.304133570688, 40096.88378535316, 28615.217341806572, 28269.815834738714, 25593.10502923787, -187500.02235174447, -104257.14156116743, 0.156, 0.964, -0.034, 192.0, 0.0, 0.0, 0.0, 0.0, 0.0, 0.0, 0.0, 0.0, 0.0, 1.7296922350462122E9, 0.0, 2024-10-23 19:33:55.046
127.0, 15512.468279894387, 26086.609195066598, 40075.13553799815, 28544.608181072257, 28256.36008457662, 25590.087543736405, -187500.02235174447, -104255.66634603338, 0.156, 0.964, -0.034, 192.0, 0.0, 0.0, 0.0, 0.0, 0.0, 0.0, 0.0, 0.0, 0.0, 1.7296922350513804E9, 0.0, 2024-10-23 19:33:55.051
128.0, 15511.171878715979, 26107.865704043594, 40074.46498566449, 28527.9337797086, 28260.584564278673, 25585.72895356762, -187500.02235174447, -104267.7139362948, 0.156, 0.964, -0.034, 192.0, 0.0, 0.0, 0.0, 0.0, 0.0, 0.0, 0.0, 0.0, 0.0, 1.7296922350552611E9, 0.0, 2024-10-23 19:33:55.055
129.0, 15587.950120919959, 26104.26707318629, 40081.975171801474, 28556.767530055946, 28260.897488701044, 25576.117703451837, -187500.02235174447, -104273.2124654308, 0.156, 0.962, -0.03, 192.0, 4.0, 224.0, 30.0, 16.0, 255.0, 16.0, 0.0, 0.0, 0.0, 1.7296922350590937E9, 0.0, 2024-10-23 19:33:55.059
130.0, 15642.086045990713, 26089.604328823607, 40085.14911951413, 28592.910300840176, 28264.78669223627, 25568.80868301495, -187500.02235174447, -104254.41464834388, 0.156, 0.962, -0.03, 192.0, 0.0, 0.0, 0.0, 0.0, 0.0, 0.0, 0.0, 0.0, 0.0, 1.7296922350632267E9, 0.0, 2024-10-23 19:33:55.063
131.0, 15655.206519985977, 26100.288462673245, 40090.3123724833, 28615.060879595385, 28259.534032289273, 25571.468540605136, -187500.02235174447, -104209.46529024426, 0.156, 0.962, -0.03, 192.0, 0.0, 0.0, 0.0, 0.0, 0.0, 0.0, 0.0, 0.0, 0.0, 1.7296922350671177E9, 0.0, 2024-10-23 19:33:55.067
132.0, 15522.839489321648, 26146.310704506723, 40089.84298584974, 28551.403111386673, 28271.246346383854, 25592.07684899293, -187500.02235174447, -104226.49731951921, 0.156, 0.962, -0.03, 192.0, 0.0, 0.0, 0.0, 0.0, 0.0, 0.0, 0.0, 0.0, 0.0, 1.729692235071334E9, 0.0, 2024-10-23 19:33:55.071
133.0, 15525.924030056482, 26162.582774470186, 40099.34247724325, 28525.139811651687, 28271.380456850584, 25591.138075725805, -187500.02235174447, -104278.08514572206, 0.156, 0.962, -0.03, 192.0, 0.0, 0.0, 0.0, 0.0, 0.0, 0.0, 0.0, 0.0, 0.0, 1.7296922350751529E9, 0.0, 2024-10-23 19:33:55.075
134.0, 15608.826650241215, 26155.787844155773, 40116.307451284825, 28549.860841019257, 28279.583547065682, 25591.361593170357, -187500.02235174447, -104321.2240125208, 0.156, 0.962, -0.03, 192.0, 0.0, 0.0, 0.0, 0.0, 0.0, 0.0, 0.0, 0.0, 0.0, 1.7296922350791783E9, 0.0, 2024-10-23 19:33:55.079
135.0, 15668.081124792234, 26134.866611345606, 40123.1694368326, 28583.030829790932, 28281.84107325567, 25581.81739828794, -187500.02235174447, -104327.86248062403, 0.156, 0.962, -0.03, 192.0, 0.0, 0.0, 0.0, 0.0, 0.0, 0.0, 0.0, 0.0, 0.0, 1.7296922350831115E9, 0.0, 2024-10-23 19:33:55.083
136.0, 15676.194808029511, 26126.12707926358, 40120.55428273133, 28600.37578348825, 28282.913956989523, 25572.09438944988, -187500.02235174447, -104291.25032320623, 0.156, 0.962, -0.03, 192.0, 0.0, 0.0, 0.0, 0.0, 0.0, 0.0, 0.0, 0.0, 0.0, 1.7296922350862083E9, 0.0, 2024-10-23 19:33:55.086
137.0, 15528.807405091216, 26146.288352762265, 40101.77881738888, 28524.201038384563, 28273.861500485124, 25562.10315967836, -187500.02235174447, -104291.36208192851, 0.156, 0.962, -0.03, 192.0, 0.0, 0.0, 0.0, 0.0, 0.0, 0.0, 0.0, 0.0, 0.0, 1.7296922350901113E9, 0.0, 2024-10-23 19:33:55.090
138.0, 15526.728692856872, 26146.444814973453, 40099.387180732156, 28496.21665432652, 28269.25704112733, 25557.565755553933, -187500.02235174447, -104321.84986136555, 0.156, 0.962, -0.03, 192.0, 0.0, 0.0, 0.0, 0.0, 0.0, 0.0, 0.0, 0.0, 0.0, 1.7296922350951607E9, 0.0, 2024-10-23 19:33:55.095
139.0, 15605.85386822866, 26123.578980395676, 40112.395896005146, 28523.910465706645, 28290.670012315517, 25576.00594472956, -187500.02235174447, -104336.8255301506, 0.148, 0.972, -0.032, 192.0, 4.0, 160.0, 30.0, 96.0, 255.0, 0.0, 0.0, 0.0, 0.0, 1.7296922351002264E9, 0.0, 2024-10-23 19:33:55.100
140.0, 15668.997546314902, 26102.143657463035, 40119.90608214213, 28563.60716385927, 28289.93240474849, 25597.01658451755, -187500.02235174447, -104318.83237586408, 0.148, 0.972, -0.032, 192.0, 0.0, 0.0, 0.0, 0.0, 0.0, 0.0, 0.0, 0.0, 0.0, 1.729692235104198E9, 0.0, 2024-10-23 19:33:55.104
141.0, 15675.144276040111, 26083.792875265226, 40107.61262269171, 28576.347658198796, 28270.017000438813, 25565.791197513485, -187500.02235174447, -104290.42330866138, 0.148, 0.972, -0.032, 192.0, 0.0, 0.0, 0.0, 0.0, 0.0, 0.0, 0.0, 0.0, 0.0, 1.7296922351072612E9, 0.0, 2024-10-23 19:33:55.107
142.0, 15533.098940026635, 26105.78699180925, 40086.087892781245, 28499.32354680581, 28269.793482994257, 25555.889374719787, -187500.02235174447, -104325.96258234532, 0.148, 0.972, -0.032, 192.0, 0.0, 0.0, 0.0, 0.0, 0.0, 0.0, 0.0, 0.0, 0.0, 1.7296922351112013E9, 0.0, 2024-10-23 19:33:55.111
143.0, 15535.73644587236, 26111.106706989613, 40095.386218474654, 28490.06992460131, 28293.084000716688, 25607.67836662273, -187500.02235174447, -104399.87980125903, 0.148, 0.972, -0.032, 192.0, 0.0, 0.0, 0.0, 0.0, 0.0, 0.0, 0.0, 0.0, 0.0, 1.729692235114169E9, 0.0, 2024-10-23 19:33:55.114
144.0, 15601.495278059874, 26080.529520574753, 40092.63695390665, 28520.334186593795, 28281.125817433098, 25599.430572918725, -187500.02235174447, -104396.39292912399, 0.148, 0.972, -0.032, 192.0, 0.0, 0.0, 0.0, 0.0, 0.0, 0.0, 0.0, 0.0, 0.0, 1.7296922351192448E9, 0.0, 2024-10-23 19:33:55.119
145.0, 15654.33480195222, 26055.070883640157, 40089.50770968291, 28556.432253889117, 28278.533015076282, 25573.882529006307, -187500.02235174447, -104382.37838535052, 0.148, 0.972, -0.032, 192.0, 0.0, 0.0, 0.0, 0.0, 0.0, 0.0, 0.0, 0.0, 0.0, 1.72969223512324E9, 0.0, 2024-10-23 19:33:55.123
146.0, 15663.342554967709, 26053.640371995018, 40085.97613405897, 28582.114408268262, 28272.78861675127, 25556.559927053444, -187500.02235174447, -104371.15780963395, 0.148, 0.972, -0.032, 192.0, 0.0, 0.0, 0.0, 0.0, 0.0, 0.0, 0.0, 0.0, 0.0, 1.7296922351271703E9, 0.0, 2024-10-23 19:33:55.127
147.0, 15514.859916551104, 26078.651974040506, 40059.601075601706, 28516.512038291938, 28247.97818040588, 25555.509395064044, -187500.02235174447, -104387.92161797543, 0.148, 0.972, -0.032, 192.0, 0.0, 0.0, 0.0, 0.0, 0.0, 0.0, 0.0, 0.0, 0.0, 1.7296922351311476E9, 0.0, 2024-10-23 19:33:55.131
148.0, 15507.282675180755, 26084.329317132157, 40054.12489821016, 28502.944529407567, 28245.228915837877, 25571.803816771964, -187500.02235174447, -104413.4920136323, 0.148, 0.972, -0.032, 192.0, 0.0, 0.0, 0.0, 0.0, 0.0, 0.0, 0.0, 0.0, 0.0, 1.7296922351352E9, 0.0, 2024-10-23 19:33:55.135
149.0, 15581.26694932782, 26066.358514590087, 40062.9091337811, 28537.12034667973, 28256.762415976813, 25568.5851655704, -187500.02235174447, -104418.65526660148, 0.15, 0.962, -0.034, 192.0, 4.0, 176.0, 30.0, 16.0, 254.0, 240.0, 0.0, 0.0, 0.0, 1.7296922351392827E9, 0.0, 2024-10-23 19:33:55.139
150.0, 15638.152138966578, 26049.326485315145, 40069.61465711769, 28583.455512935583, 28259.39992182254, 25564.628906801812, -187500.02235174447, -104402.71847280485, 0.15, 0.962, -0.034, 192.0, 0.0, 0.0, 0.0, 0.0, 0.0, 0.0, 0.0, 0.0, 0.0, 1.72969223514318E9, 0.0, 2024-10-23 19:33:55.143
151.0, 15641.147272723589, 26044.118528857056, 40060.53984886883, 28602.834475378335, 28243.083148370166, 25545.741682737076, -187500.02235174447, -104376.90220795896, 0.15, 0.962, -0.034, 192.0, 0.0, 0.0, 0.0, 0.0, 0.0, 0.0, 0.0, 0.0, 0.0, 1.729692235146172E9, 0.0, 2024-10-23 19:33:55.146
152.0, 15499.660730321495, 26081.155369419503, 40043.9995579719, 28534.79576525638, 28231.72846218687, 25563.66778179023, -187500.02235174447, -104414.31902817715, 0.15, 0.962, -0.034, 192.0, 0.0, 0.0, 0.0, 0.0, 0.0, 0.0, 0.0, 0.0, 0.0, 1.7296922351512923E9, 0.0, 2024-10-23 19:33:55.151
153.0, 15495.302140152711, 26088.374982878566, 40043.28430214933, 28517.98725342599, 28234.053043610224, 25556.62698228681, -187500.02235174447, -104476.47922950736, 0.15, 0.962, -0.034, 192.0, 0.0, 0.0, 0.0, 0.0, 0.0, 0.0, 0.0, 0.0, 0.0, 1.7296922351552277E9, 0.0, 2024-10-23 19:33:55.155
154.0, 15571.231016067388, 26070.806511736693, 40051.576799342256, 28550.397282886184, 28239.43981402395, 25557.632810787298, -187500.02235174447, -104511.8173374912, 0.15, 0.962, -0.034, 192.0, 0.0, 0.0, 0.0, 0.0, 0.0, 0.0, 0.0, 0.0, 0.0, 1.7296922351593282E9, 0.0, 2024-10-23 19:33:55.159
155.0, 15631.401912141075, 26048.611229492573, 40061.344511669224, 28594.541978185414, 28256.091863643156, 25565.38886611329, -187500.02235174447, -104502.09432865314, 0.15, 0.962, -0.034, 192.0, 0.0, 0.0, 0.0, 0.0, 0.0, 0.0, 0.0, 0.0, 0.0, 1.7296922351634457E9, 0.0, 2024-10-23 19:33:55.163
156.0, 15649.439769916507, 26048.96885740386, 40072.676846108065, 28623.219266321572, 28265.859575970124, 25554.928249708206, -187500.02235174447, -104479.47436326437, 0.15, 0.962, -0.034, 192.0, 0.0, 0.0, 0.0, 0.0, 0.0, 0.0, 0.0, 0.0, 0.0, 1.7296922351664426E9, 0.0, 2024-10-23 19:33:55.166
157.0, 15504.376948401565, 26074.11456991608, 40056.2036104445, 28557.66159983416, 28248.648732739537, 25568.96514522614, -187500.02235174447, -104498.09336639564, 0.15, 0.962, -0.034, 192.0, 0.0, 0.0, 0.0, 0.0, 0.0, 0.0, 0.0, 0.0, 0.0, 1.729692235170249E9, 0.0, 2024-10-23 19:33:55.170
158.0, 15504.712224568395, 26079.76956126327, 40059.93635176854, 28542.909448493654, 28246.614723994106, 25584.097276222383, -187500.02235174447, -104545.74728557435, 0.15, 0.962, -0.034, 192.0, 0.0, 0.0, 0.0, 0.0, 0.0, 0.0, 0.0, 0.0, 0.0, 1.7296922351742795E9, 0.0, 2024-10-23 19:33:55.174
159.0, 15578.070649870713, 26051.762825460773, 40068.09473849473, 28569.105692995276, 28253.87904094208, 25564.315982379438, -187500.02235174447, -104556.45377116845, 0.152, 0.962, -0.034, 192.0, 4.0, 192.0, 30.0, 16.0, 254.0, 240.0, 0.0, 0.0, 0.0, 1.7296922351792564E9, 0.0, 2024-10-23 19:33:55.179
160.0, 15636.85573778817, 26027.846458893593, 40072.85566006371, 28601.828646877846, 28247.598200750137, 25536.75628146604, -187500.02235174447, -104548.69771584246, 0.152, 0.962, -0.034, 192.0, 0.0, 0.0, 0.0, 0.0, 0.0, 0.0, 0.0, 0.0, 0.0, 1.7296922351832204E9, 0.0, 2024-10-23 19:33:55.183
161.0, 15644.544737880797, 26020.135107056514, 40071.51455539639, 28619.218304064074, 28236.601142478128, 25547.395711826768, -187500.02235174447, -104515.28185788177, 0.152, 0.962, -0.034, 192.0, 0.0, 0.0, 0.0, 0.0, 0.0, 0.0, 0.0, 0.0, 0.0, 1.7296922351872375E9, 0.0, 2024-10-23 19:33:55.187
162.0, 15506.813288547193, 26054.48973828432, 40058.550543612306, 28549.234992174508, 28249.83337519567, 25563.980706212606, -187500.02235174447, -104520.40040736205, 0.152, 0.962, -0.034, 192.0, 0.0, 0.0, 0.0, 0.0, 0.0, 0.0, 0.0, 0.0, 0.0, 1.7296922351912603E9, 0.0, 2024-10-23 19:33:55.191
163.0, 15517.16214623, 26074.002811193805, 40072.4086251746, 28529.69956752057, 28265.658410270025, 25575.044819717983, -187500.02235174447, -104594.29527453128, 0.152, 0.962, -0.034, 192.0, 0.0, 0.0, 0.0, 0.0, 0.0, 0.0, 0.0, 0.0, 0.0, 1.7296922351943796E9, 0.0, 2024-10-23 19:33:55.194
164.0, 15594.789754723282, 26053.10393012809, 40079.89645956713, 28548.20681192956, 28274.800273752247, 25551.664895017733, -187500.02235174447, -104610.63439972812, 0.152, 0.962, -0.034, 192.0, 0.0, 0.0, 0.0, 0.0, 0.0, 0.0, 0.0, 0.0, 0.0, 1.729692235198242E9, 0.0, 2024-10-23 19:33:55.198
165.0, 15658.134598509623, 26035.96014213087, 40090.06650329429, 28580.214509989564, 28280.432913354984, 25571.714409794142, -187500.02235174447, -104606.5887339817, 0.152, 0.962, -0.034, 192.0, 0.0, 0.0, 0.0, 0.0, 0.0, 0.0, 0.0, 0.0, 0.0, 1.729692235204246E9, 0.0, 2024-10-23 19:33:55.204
166.0, 15669.66809864856, 26033.792022918708, 40088.83715734925, 28598.81116137638, 28276.163730164022, 25575.44715111818, -187500.02235174447, -104568.0319747963, 0.152, 0.962, -0.034, 192.0, 0.0, 0.0, 0.0, 0.0, 0.0, 0.0, 0.0, 0.0, 0.0, 1.72969223520726E9, 0.0, 2024-10-23 19:33:55.207
167.0, 15526.348713201132, 26059.317715086665, 40063.9596657705, 28520.289483104883, 28257.097692143645, 25561.119682922326, -187500.02235174447, -104569.32837597471, 0.152, 0.962, -0.034, 192.0, 0.0, 0.0, 0.0, 0.0, 0.0, 0.0, 0.0, 0.0, 0.0, 1.7296922352123172E9, 0.0, 2024-10-23 19:33:55.212
168.0, 15521.230163720867, 26064.81624422267, 40054.97426449946, 28489.332317034285, 28235.997645377833, 25554.950601452663, -187500.02235174447, -104600.44200425649, 0.152, 0.962, -0.034, 192.0, 0.0, 0.0, 0.0, 0.0, 0.0, 0.0, 0.0, 0.0, 0.0, 1.7296922352152956E9, 0.0, 2024-10-23 19:33:55.215
169.0, 15592.308711088743, 26040.028159621736, 40061.2551046914, 28512.756945223446, 28246.88294492757, 25547.86509846033, -187500.02235174447, -104608.8909636606, 0.154, 0.964, -0.036000000000000004, 192.0, 4.0, 208.0, 30.0, 32.0, 254.0, 224.0, 0.0, 0.0, 0.0, 1.7296922352192907E9, 0.0, 2024-10-23 19:33:55.219
170.0, 15652.054924017779, 26019.509258211765, 40070.151098984614, 28553.012436987454, 28259.377570078086, 25544.445281558666, -187500.02235174447, -104591.68012043001, 0.154, 0.964, -0.036000000000000004, 192.0, 0.0, 0.0, 0.0, 0.0, 0.0, 0.0, 0.0, 0.0, 0.0, 1.7296922352223825E9, 0.0, 2024-10-23 19:33:55.222
171.0, 15660.883863077624, 26015.575351187632, 40070.93341004055, 28579.186329744618, 28252.44852929694, 25547.127490893305, -187500.02235174447, -104574.49162894388, 0.154, 0.964, -0.036000000000000004, 192.0, 0.0, 0.0, 0.0, 0.0, 0.0, 0.0, 0.0, 0.0, 0.0, 1.7296922352263002E9, 0.0, 2024-10-23 19:33:55.226
172.0, 15516.335131685155, 26038.575296232142, 40047.30761615129, 28512.287558589884, 28236.087052355655, 25551.530784551, -187500.02235174447, -104606.76754793734, 0.154, 0.964, -0.036000000000000004, 192.0, 0.0, 0.0, 0.0, 0.0, 0.0, 0.0, 0.0, 0.0, 0.0, 1.7296922352303534E9, 0.0, 2024-10-23 19:33:55.230
173.0, 15510.233105448855, 26039.022331121247, 40045.92180799506, 28497.602462482748, 28237.674026211982, 25557.565755553933, -187500.02235174447, -104647.38066761264, 0.154, 0.964, -0.036000000000000004, 192.0, 0.0, 0.0, 0.0, 0.0, 0.0, 0.0, 0.0, 0.0, 0.0, 1.7296922352343447E9, 0.0, 2024-10-23 19:33:55.234
174.0, 15584.664414485029, 26016.558827943663, 40056.047148233316, 28532.73940476649, 28241.607933236115, 25559.085674176895, -187500.02235174447, -104674.24746444792, 0.154, 0.964, -0.036000000000000004, 192.0, 0.0, 0.0, 0.0, 0.0, 0.0, 0.0, 0.0, 0.0, 0.0, 1.7296922352444007E9, 0.0, 2024-10-23 19:33:55.244
175.0, 15636.520461621341, 25987.367449685033, 40056.36007265569, 28572.123178496742, 28236.243514566842, 25551.01669442853, -187500.02235174447, -104662.08811546423, 0.154, 0.964, -0.036000000000000004, 192.0, 0.0, 0.0, 0.0, 0.0, 0.0, 0.0, 0.0, 0.0, 0.0, 1.7296922352444375E9, 0.0, 2024-10-23 19:33:55.244
176.0, 15643.85183380268, 25979.14200772548, 40056.248313933414, 28598.408829976182, 28236.35527328912, 25549.29561010547, -187500.02235174447, -104631.28741160482, 0.154, 0.964, -0.036000000000000004, 192.0, 0.0, 0.0, 0.0, 0.0, 0.0, 0.0, 0.0, 0.0, 0.0, 1.7296922352473238E9, 0.0, 2024-10-23 19:33:55.247
177.0, 15505.896867024527, 26007.551074928175, 40044.91597949457, 28538.662617047146, 28234.67889245497, 25561.67847653371, -187500.02235174447, -104643.13383616613, 0.154, 0.964, -0.036000000000000004, 192.0, 0.0, 0.0, 0.0, 0.0, 0.0, 0.0, 0.0, 0.0, 0.0, 1.7296922352503471E9, 0.0, 2024-10-23 19:33:55.250
178.0, 15502.678215822962, 26013.20606627537, 40046.07827020625, 28523.038747672887, 28229.15801157451, 25563.31015387895, -187500.02235174447, -104679.38836567264, 0.154, 0.964, -0.036000000000000004, 192.0, 0.0, 0.0, 0.0, 0.0, 0.0, 0.0, 0.0, 0.0, 0.0, 1.729692235254324E9, 0.0, 2024-10-23 19:33:55.254
179.0, 15572.080382356691, 25991.793095087185, 40054.95191275501, 28551.872498020235, 28233.91893314349, 25554.168290396727, -187500.02235174447, -104674.49333363693, 0.154, 0.966, -0.032, 192.0, 4.0, 208.0, 30.0, 48.0, 255.0, 0.0, 0.0, 0.0, 0.0, 1.7296922352583349E9, 0.0, 2024-10-23 19:33:55.258
180.0, 15627.065673716746, 25971.184786699392, 40064.02672100386, 28589.915167083167, 28241.317360558198, 25558.705694521155, -187500.02235174447, -104663.76449629838, 0.154, 0.966, -0.032, 192.0, 0.0, 0.0, 0.0, 0.0, 0.0, 0.0, 0.0, 0.0, 0.0, 1.729692235262336E9, 0.0, 2024-10-23 19:33:55.262
181.0, 15634.665266831551, 25959.80774877164, 40064.54081112633, 28609.405888248195, 28222.43013649346, 25537.71740647762, -187500.02235174447, -104649.9958217139, 0.154, 0.966, -0.032, 192.0, 0.0, 0.0, 0.0, 0.0, 0.0, 0.0, 0.0, 0.0, 0.0, 1.7296922352673287E9, 0.0, 2024-10-23 19:33:55.267
182.0, 15493.335186640643, 25980.57251937062, 40043.77604052735, 28541.36717812624, 28202.827656606158, 25543.081825146895, -187500.02235174447, -104653.08036244875, 0.154, 0.966, -0.032, 192.0, 0.0, 0.0, 0.0, 0.0, 0.0, 0.0, 0.0, 0.0, 0.0, 1.72969223527135E9, 0.0, 2024-10-23 19:33:55.271
183.0, 15500.39833788852, 25995.034098033204, 40061.81389830278, 28536.89682923518, 28256.717712487905, 25590.735744325608, -187500.02235174447, -104684.97630178646, 0.154, 0.966, -0.032, 192.0, 0.0, 0.0, 0.0, 0.0, 0.0, 0.0, 0.0, 0.0, 0.0, 1.7296922352754145E9, 0.0, 2024-10-23 19:33:55.275
184.0, 15577.89183591507, 25977.71149608034, 40074.93437229805, 28570.80442557388, 28265.233727125375, 25580.476293620624, -187500.02235174447, -104711.19489803254, 0.154, 0.966, -0.032, 192.0, 0.0, 0.0, 0.0, 0.0, 0.0, 0.0, 0.0, 0.0, 0.0, 1.7296922352783947E9, 0.0, 2024-10-23 19:33:55.278
185.0, 15633.055941230768, 25952.588135312577, 40075.94020079854, 28603.259158522986, 28251.129776374077, 25567.311116136447, -187500.02235174447, -104713.5641829448, 0.154, 0.966, -0.032, 192.0, 0.0, 0.0, 0.0, 0.0, 0.0, 0.0, 0.0, 0.0, 0.0, 1.7296922352823648E9, 0.0, 2024-10-23 19:33:55.282
186.0, 15641.236679701411, 25949.011856199726, 40066.35130242721, 28618.52539998596, 28232.555476731715, 25555.844671230876, -187500.02235174447, -104688.39611868814, 0.154, 0.966, -0.032, 192.0, 0.0, 0.0, 0.0, 0.0, 0.0, 0.0, 0.0, 0.0, 0.0, 1.7296922352864032E9, 0.0, 2024-10-23 19:33:55.286
187.0, 15505.606294346608, 25981.421885659922, 40046.68176730654, 28548.40797762966, 28230.052081352722, 25542.52303153551, -187500.02235174447, -104709.09383405374, 0.154, 0.966, -0.032, 192.0, 0.0, 0.0, 0.0, 0.0, 0.0, 0.0, 0.0, 0.0, 0.0, 1.7296922352903898E9, 0.0, 2024-10-23 19:33:55.290
188.0, 15514.88226829556, 25999.884426580003, 40061.23275294695, 28538.707320536058, 28250.950962418436, 25593.373250171335, -187500.02235174447, -104744.1190176152, 0.154, 0.966, -0.032, 192.0, 0.0, 0.0, 0.0, 0.0, 0.0, 0.0, 0.0, 0.0, 0.0, 1.7296922352953963E9, 0.0, 2024-10-23 19:33:55.295
189.0, 15590.095888387668, 25983.411190916442, 40070.709892595994, 28564.83650980431, 28254.460186297918, 25614.294482981502, -187500.02235174447, -104752.67973574159, 0.156, 0.964, -0.034, 192.0, 4.0, 224.0, 30.0, 32.0, 254.0, 240.0, 0.0, 0.0, 0.0, 1.7296922352995229E9, 0.0, 2024-10-23 19:33:55.299
190.0, 15649.95386003898, 25967.317934908624, 40076.677808365566, 28594.921957841154, 28270.821663239203, 25590.19930245868, -187500.02235174447, -104723.80128190534, 0.156, 0.964, -0.034, 192.0, 0.0, 0.0, 0.0, 0.0, 0.0, 0.0, 0.0, 0.0, 0.0, 1.7296922353064325E9, 0.0, 2024-10-23 19:33:55.306
191.0, 15661.62147064465, 25969.84368203207, 40074.53204089785, 28607.394231247217, 28258.59525902215, 25555.777615997507, -187500.02235174447, -104699.95197057152, 0.156, 0.964, -0.034, 192.0, 0.0, 0.0, 0.0, 0.0, 0.0, 0.0, 0.0, 0.0, 0.0, 1.7296922353094177E9, 0.0, 2024-10-23 19:33:55.309
192.0, 15527.823928335183, 26001.940787069892, 40055.60011334421, 28534.41578560064, 28236.332921544665, 25553.29657236297, -187500.02235174447, -104735.11126459972, 0.156, 0.964, -0.034, 192.0, 0.0, 0.0, 0.0, 0.0, 0.0, 0.0, 0.0, 0.0, 0.0, 1.729692235313408E9, 0.0, 2024-10-23 19:33:55.313
193.0, 15532.07075978169, 26015.06126106516, 40058.63995059013, 28510.499419033462, 28234.075395354677, 25558.281011376504, -187500.02235174447, -104789.5824658373, 0.156, 0.964, -0.034, 192.0, 0.0, 0.0, 0.0, 0.0, 0.0, 0.0, 0.0, 0.0, 0.0, 1.7296922353164089E9, 0.0, 2024-10-23 19:33:55.316
194.0, 15607.418490340531, 26005.226493504822, 40069.681712351055, 28535.55572456786, 28234.34361628814, 25551.240211873082, -187500.02235174447, -104825.30055347689, 0.156, 0.964, -0.034, 192.0, 0.0, 0.0, 0.0, 0.0, 0.0, 0.0, 0.0, 0.0, 0.0, 1.729692235319425E9, 0.0, 2024-10-23 19:33:55.319
195.0, 15664.080162534734, 25990.519045653233, 40077.147194999125, 28566.93757378311, 28237.02582562278, 25541.47249954611, -187500.02235174447, -104808.44733815758, 0.156, 0.964, -0.034, 192.0, 0.0, 0.0, 0.0, 0.0, 0.0, 0.0, 0.0, 0.0, 0.0, 1.7296922353234167E9, 0.0, 2024-10-23 19:33:55.323
196.0, 15668.885787592626, 25987.076877007115, 40077.862450821696, 28582.248518734996, 28228.95684587441, 25536.82333669941, -187500.02235174447, -104766.67192777061, 0.156, 0.964, -0.034, 192.0, 0.0, 0.0, 0.0, 0.0, 0.0, 0.0, 0.0, 0.0, 0.0, 1.7296922353274336E9, 0.0, 2024-10-23 19:33:55.327
197.0, 15528.628591135574, 26016.89410411049, 40060.383386657646, 28509.337128321786, 28213.601197433618, 25542.187755368683, -187500.02235174447, -104797.49498337448, 0.156, 0.964, -0.034, 192.0, 0.0, 0.0, 0.0, 0.0, 0.0, 0.0, 0.0, 0.0, 0.0, 1.7296922353314457E9, 0.0, 2024-10-23 19:33:55.331
198.0, 15526.661637623507, 26025.879505381527, 40064.4067006596, 28491.12045659071, 28220.038499836744, 25548.334485093892, -187500.02235174447, -104844.50070196399, 0.156, 0.964, -0.034, 192.0, 0.0, 0.0, 0.0, 0.0, 0.0, 0.0, 0.0, 0.0, 0.0, 1.729692235335456E9, 0.0, 2024-10-23 19:33:55.335
199.0, 15592.934559933492, 26006.09821153858, 40071.51455539639, 28517.875494703712, 28225.73819467285, 25547.06043565994, -187500.02235174447, -104863.11970509526, 0.148, 0.966, -0.034, 192.0, 4.0, 160.0, 30.0, 48.0, 254.0, 240.0, 0.0, 0.0, 0.0, 1.7296922353384511E9, 0.0, 2024-10-23 19:33:55.338
200.0, 15638.152138966578, 25977.957365269347, 40067.64770360562, 28549.100881707775, 28214.897598612024, 25539.48319428959, -187500.02235174447, -104849.12751306624, 0.148, 0.966, -0.034, 192.0, 0.0, 0.0, 0.0, 0.0, 0.0, 0.0, 0.0, 0.0, 0.0, 1.7296922353425145E9, 0.0, 2024-10-23 19:33:55.342
201.0, 15641.057865745768, 25969.776626798706, 40064.69727333752, 28568.502195894984, 28206.895674097024, 25534.230534342594, -187500.02235174447, -104802.90410553267, 0.148, 0.966, -0.034, 192.0, 0.0, 0.0, 0.0, 0.0, 0.0, 0.0, 0.0, 0.0, 0.0, 1.7296922353464568E9, 0.0, 2024-10-23 19:33:55.346
202.0, 15503.2593611788, 25998.63272889051, 40049.49808710791, 28507.12430562071, 28208.035613064247, 25547.641581015778, -187500.02235174447, -104804.15580322217, 0.148, 0.966, -0.034, 192.0, 0.0, 0.0, 0.0, 0.0, 0.0, 0.0, 0.0, 0.0, 0.0, 1.729692235351441E9, 0.0, 2024-10-23 19:33:55.351
203.0, 15497.649073320517, 26001.359641714054, 40048.2016859295, 28492.238043813475, 28211.500133454818, 25543.77472922501, -187500.02235174447, -104839.0468763169, 0.148, 0.966, -0.034, 192.0, 0.0, 0.0, 0.0, 0.0, 0.0, 0.0, 0.0, 0.0, 0.0, 1.72969223535544E9, 0.0, 2024-10-23 19:33:55.355
204.0, 15562.402077007542, 25977.3315164246, 40055.98009299995, 28518.434288315093, 28213.40003173352, 25535.303418076448, -187500.02235174447, -104853.3519927683, 0.148, 0.966, -0.034, 192.0, 0.0, 0.0, 0.0, 0.0, 0.0, 0.0, 0.0, 0.0, 0.0, 1.7296922353594933E9, 0.0, 2024-10-23 19:33:55.359
205.0, 15614.61575205514, 25953.683370790885, 40063.42322390356, 28558.421559145638, 28210.203732276408, 25550.323790350412, -187500.02235174447, -104832.60957391377, 0.148, 0.966, -0.034, 192.0, 0.0, 0.0, 0.0, 0.0, 0.0, 0.0, 0.0, 0.0, 0.0, 1.7296922353625188E9, 0.0, 2024-10-23 19:33:55.362
206.0, 15625.590458582696, 25951.783472512183, 40063.3561686702, 28581.421504190148, 28196.30094722521, 25546.76986298202, -187500.02235174447, -104800.33365492031, 0.148, 0.966, -0.034, 192.0, 0.0, 0.0, 0.0, 0.0, 0.0, 0.0, 0.0, 0.0, 0.0, 1.7296922353665218E9, 0.0, 2024-10-23 19:33:55.366
207.0, 15499.459564621398, 25984.819350817128, 40060.91982852457, 28531.018320443432, 28213.02005207778, 25562.416084100736, -187500.02235174447, -104809.65433235817, 0.148, 0.966, -0.034, 192.0, 0.0, 0.0, 0.0, 0.0, 0.0, 0.0, 0.0, 0.0, 0.0, 1.729692235370511E9, 0.0, 2024-10-23 19:33:55.370
208.0, 15503.751099556817, 25992.731868354305, 40072.85566006371, 28523.79870698437, 28232.0637383537, 25571.35678188286, -187500.02235174447, -104831.26846924645, 0.148, 0.966, -0.034, 192.0, 0.0, 0.0, 0.0, 0.0, 0.0, 0.0, 0.0, 0.0, 0.0, 1.7296922353744965E9, 0.0, 2024-10-23 19:33:55.374
209.0, 15575.544902747262, 25968.94961225386, 40081.483433423455, 28546.93276249561, 28229.314473785696, 25564.941831224183, -187500.02235174447, -104844.56775719736, 0.146, 0.97, -0.038, 192.0, 4.0, 144.0, 30.0, 80.0, 254.0, 208.0, 0.0, 0.0, 0.0, 1.7296922353805473E9, 0.0, 2024-10-23 19:33:55.380
210.0, 15631.223098185434, 25944.429748586386, 40089.597116660734, 28583.70138212459, 28218.853857380614, 25580.409238387256, -187500.02235174447, -104818.05858827336, 0.146, 0.97, -0.038, 192.0, 0.0, 0.0, 0.0, 0.0, 0.0, 0.0, 0.0, 0.0, 0.0, 1.7296922353835285E9, 0.0, 2024-10-23 19:33:55.383
211.0, 15639.605002356173, 25936.293713604657, 40087.54075617084, 28599.079382309843, 28210.695470654427, 25564.897127735276, -187500.02235174447, -104775.56792206383, 0.146, 0.97, -0.038, 192.0, 0.0, 0.0, 0.0, 0.0, 0.0, 0.0, 0.0, 0.0, 0.0, 1.7296922353875213E9, 0.0, 2024-10-23 19:33:55.387
212.0, 15514.234067706355, 25963.451083117856, 40084.59032590274, 28533.298198377874, 28249.20752635092, 25545.4287583147, -187500.02235174447, -104770.00233769446, 0.146, 0.97, -0.038, 192.0, 0.0, 0.0, 0.0, 0.0, 0.0, 0.0, 0.0, 0.0, 0.0, 1.729692235391532E9, 0.0, 2024-10-23 19:33:55.391
213.0, 15518.659713108507, 25971.251841932757, 40091.340552728245, 28516.824962714312, 28261.322171845695, 25571.468540605136, -187500.02235174447, -104793.02463448342, 0.146, 0.97, -0.038, 192.0, 0.0, 0.0, 0.0, 0.0, 0.0, 0.0, 0.0, 0.0, 0.0, 1.7296922353945825E9, 0.0, 2024-10-23 19:33:55.394
214.0, 15590.520571532319, 25956.969077225815, 40092.74871262893, 28542.730634538013, 28252.225011852388, 25593.26149144906, -187500.02235174447, -104833.5930506698, 0.146, 0.97, -0.038, 192.0, 0.0, 0.0, 0.0, 0.0, 0.0, 0.0, 0.0, 0.0, 0.0, 1.7296922353985677E9, 0.0, 2024-10-23 19:33:55.398
215.0, 15644.120054736146, 25936.60663802703, 40083.852718335715, 28573.50898665297, 28229.917970885992, 25568.339296381393, -187500.02235174447, -104880.66582449268, 0.146, 0.97, -0.038, 192.0, 0.0, 0.0, 0.0, 0.0, 0.0, 0.0, 0.0, 0.0, 0.0, 1.7296922354025183E9, 0.0, 2024-10-23 19:33:55.402
216.0, 15648.411589671565, 25930.97399842429, 40070.35226468471, 28590.965699072567, 28206.359232230097, 25564.047761445974, -187500.02235174447, -104879.05649889189, 0.146, 0.97, -0.038, 192.0, 0.0, 0.0, 0.0, 0.0, 0.0, 0.0, 0.0, 0.0, 0.0, 1.7296922354065304E9, 0.0, 2024-10-23 19:33:55.406
217.0, 15522.2136404769, 25964.70278080735, 40060.718662824474, 28526.279750618905, 28212.125982299567, 25570.932098738205, -187500.02235174447, -104910.25953415151, 0.146, 0.97, -0.038, 192.0, 0.0, 0.0, 0.0, 0.0, 0.0, 0.0, 0.0, 0.0, 0.0, 1.729692235411556E9, 0.0, 2024-10-23 19:33:55.411
218.0, 15529.097977769135, 25977.309164680144, 40070.62048561817, 28509.8288666998, 28231.281427297763, 25568.339296381393, -187500.02235174447, -104976.64421518377, 0.146, 0.97, -0.038, 192.0, 0.0, 0.0, 0.0, 0.0, 0.0, 0.0, 0.0, 0.0, 0.0, 1.729692235415615E9, 0.0, 2024-10-23 19:33:55.415
219.0, 15600.310635603742, 25958.354885382043, 40077.92950605506, 28536.203925157064, 28235.483555255363, 25550.52495605051, -187500.02235174447, -105004.44978528617, 0.154, 0.972, -0.04, 192.0, 4.0, 208.0, 30.0, 96.0, 254.0, 192.0, 0.0, 0.0, 0.0, 1.7296922354195857E9, 0.0, 2024-10-23 19:33:55.419
220.0, 15652.323144951242, 25938.84181247256, 40079.65059037812, 28572.950193041586, 28229.850915652623, 25574.620136573332, -187500.02235174447, -105000.04649162847, 0.154, 0.972, -0.04, 192.0, 0.0, 0.0, 0.0, 0.0, 0.0, 0.0, 0.0, 0.0, 0.0, 1.7296922354225883E9, 0.0, 2024-10-23 19:33:55.422
221.0, 15658.983964798925, 25933.41033856992, 40074.01795077538, 28593.08911479582, 28216.23870327934, 25567.847558003374, -187500.02235174447, -104981.80746815294, 0.154, 0.972, -0.04, 192.0, 0.0, 0.0, 0.0, 0.0, 0.0, 0.0, 0.0, 0.0, 0.0, 1.729692235426586E9, 0.0, 2024-10-23 19:33:55.426
222.0, 15524.717035855894, 25960.053617960646, 40053.49904936541, 28527.0844134193, 28197.642051892526, 25562.77371201202, -187500.02235174447, -104985.11552633233, 0.154, 0.972, -0.04, 192.0, 0.0, 0.0, 0.0, 0.0, 0.0, 0.0, 0.0, 0.0, 0.0, 1.7296922354305797E9, 0.0, 2024-10-23 19:33:55.430
223.0, 15519.017341019791, 25964.300449407157, 40051.152116197605, 28502.005756140443, 28190.75771460029, 25549.92145895022, -187500.02235174447, -105007.46727078763, 0.154, 0.972, -0.04, 192.0, 0.0, 0.0, 0.0, 0.0, 0.0, 0.0, 0.0, 0.0, 0.0, 1.7296922354346328E9, 0.0, 2024-10-23 19:33:55.434
224.0, 15588.37480406461, 25946.776681754196, 40063.1550029701, 28527.553800052858, 28206.58274967465, 25548.06626416043, -187500.02235174447, -105030.6907332767, 0.154, 0.972, -0.04, 192.0, 0.0, 0.0, 0.0, 0.0, 0.0, 0.0, 0.0, 0.0, 0.0, 1.729692235439628E9, 0.0, 2024-10-23 19:33:55.439
225.0, 15642.041342501801, 25928.80587921213, 40073.19093623054, 28568.18927147261, 28215.8587236236, 25551.217860128625, -187500.02235174447, -105033.10472167787, 0.154, 0.972, -0.04, 192.0, 0.0, 0.0, 0.0, 0.0, 0.0, 0.0, 0.0, 0.0, 0.0, 1.729692235443626E9, 0.0, 2024-10-23 19:33:55.443
226.0, 15645.863490803658, 25921.161582608413, 40074.46498566449, 28590.51866418346, 28212.39420323303, 25563.220746901126, -187500.02235174447, -104992.20102932466, 0.154, 0.972, -0.04, 192.0, 0.0, 0.0, 0.0, 0.0, 0.0, 0.0, 0.0, 0.0, 0.0, 1.7296922354478335E9, 0.0, 2024-10-23 19:33:55.447
227.0, 15516.1116142406, 25948.877745732992, 40062.35034016971, 28526.54797155237, 28203.073525795167, 25575.670668562732, -187500.02235174447, -105004.3827300528, 0.154, 0.972, -0.04, 192.0, 0.0, 0.0, 0.0, 0.0, 0.0, 0.0, 0.0, 0.0, 0.0, 1.729692235451635E9, 0.0, 2024-10-23 19:33:55.451
228.0, 15511.909486283004, 25949.23537364428, 40064.138479726134, 28508.487762032484, 28203.72172638437, 25572.54142433899, -187500.02235174447, -105031.42834084372, 0.154, 0.972, -0.04, 192.0, 0.0, 0.0, 0.0, 0.0, 0.0, 0.0, 0.0, 0.0, 0.0, 1.72969223545462E9, 0.0, 2024-10-23 19:33:55.454
229.0, 15584.79852495176, 25933.387986825466, 40080.008218289404, 28542.305951393362, 28211.567188688183, 25572.67553480572, -187500.02235174447, -105043.16300668276, 0.154, 0.97, -0.038, 192.0, 4.0, 208.0, 30.0, 80.0, 254.0, 208.0, 0.0, 0.0, 0.0, 1.7296922354586074E9, 0.0, 2024-10-23 19:33:55.458
230.0, 15630.731359807416, 25907.54937023513, 40081.17050900108, 28575.36418144276, 28202.939415328434, 25562.080807933904, -187500.02235174447, -105045.19701542819, 0.154, 0.97, -0.038, 192.0, 0.0, 0.0, 0.0, 0.0, 0.0, 0.0, 0.0, 0.0, 0.0, 1.7296922354629257E9, 0.0, 2024-10-23 19:33:55.462
231.0, 15639.00150525588, 25903.83898065555, 40084.54562241383, 28599.03467882093, 28195.004546046803, 25553.698903763165, -187500.02235174447, -105014.21749761314, 0.154, 0.97, -0.038, 192.0, 0.0, 0.0, 0.0, 0.0, 0.0, 0.0, 0.0, 0.0, 0.0, 1.7296922354666612E9, 0.0, 2024-10-23 19:33:55.466
232.0, 15510.523678126774, 25928.828230956584, 40072.743901341426, 28538.79672751388, 28187.159083742987, 25554.369456096825, -187500.02235174447, -105042.40304737128, 0.154, 0.97, -0.038, 192.0, 0.0, 0.0, 0.0, 0.0, 0.0, 0.0, 0.0, 0.0, 0.0, 1.7296922354716537E9, 0.0, 2024-10-23 19:33:55.471
233.0, 15513.049425250225, 25932.22569611379, 40084.85854683621, 28530.526582065417, 28218.228008535865, 25587.07005823494, -187500.02235174447, -105065.29123369351, 0.154, 0.97, -0.038, 192.0, 0.0, 0.0, 0.0, 0.0, 0.0, 0.0, 0.0, 0.0, 0.0, 1.7296922354756713E9, 0.0, 2024-10-23 19:33:55.475
234.0, 15588.1289348756, 25915.014852883203, 40107.500863969435, 28556.119329466743, 28247.464090283407, 25568.5851655704, -187500.02235174447, -105074.41074543128, 0.154, 0.97, -0.038, 192.0, 0.0, 0.0, 0.0, 0.0, 0.0, 0.0, 0.0, 0.0, 0.0, 1.7296922354786508E9, 0.0, 2024-10-23 19:33:55.478
235.0, 15643.829482058227, 25895.233559040258, 40116.307451284825, 28599.86169336578, 28249.565154262207, 25602.023375275538, -187500.02235174447, -105056.3952394003, 0.154, 0.97, -0.038, 192.0, 0.0, 0.0, 0.0, 0.0, 0.0, 0.0, 0.0, 0.0, 0.0, 1.7296922354826746E9, 0.0, 2024-10-23 19:33:55.482
236.0, 15650.982040283925, 25890.02560258217, 40110.138369815155, 28618.413641263684, 28236.712901200404, 25608.72889861213, -187500.02235174447, -104993.81035492544, 0.154, 0.97, -0.038, 192.0, 0.0, 0.0, 0.0, 0.0, 0.0, 0.0, 0.0, 0.0, 0.0, 1.729692235486637E9, 0.0, 2024-10-23 19:33:55.486
237.0, 15530.997876047835, 25927.643588500454, 40105.98094534647, 28561.08141673582, 28262.998552679845, 25619.88241909533, -187500.02235174447, -104995.21851482613, 0.154, 0.97, -0.038, 192.0, 0.0, 0.0, 0.0, 0.0, 0.0, 0.0, 0.0, 0.0, 0.0, 1.7296922354907277E9, 0.0, 2024-10-23 19:33:55.490
238.0, 15528.136852757556, 25934.103242648038, 40100.34830574373, 28540.763681025946, 28249.87807868458, 25614.473296937143, -187500.02235174447, -105030.17664315423, 0.154, 0.97, -0.038, 192.0, 0.0, 0.0, 0.0, 0.0, 0.0, 0.0, 0.0, 0.0, 0.0, 1.7296922354946885E9, 0.0, 2024-10-23 19:33:55.494
239.0, 15595.348548334665, 25912.13147784847, 40101.10826505521, 28555.761701555457, 28245.02775013778, 25596.748363584087, -187500.02235174447, -105047.29807940699, 0.154, 0.97, -0.038, 192.0, 0.0, 0.0, 0.0, 0.0, 0.0, 0.0, 0.0, 0.0, 0.0, 1.7296922354996533E9, 0.0, 2024-10-23 19:33:55.499
240.0, 15645.170586725544, 25885.287032757646, 40094.53685218535, 28572.32434419684, 28228.085127840655, 25544.981723425597, -187500.02235174447, -105029.32727686493, 0.152, 0.968, -0.044, 192.0, 4.0, 192.0, 30.0, 64.0, 254.0, 160.0, 0.0, 0.0, 0.0, 1.7296922355036848E9, 0.0, 2024-10-23 19:33:55.503
241.0, 15657.709915364972, 25883.811817623595, 40093.84394810724, 28590.026925805443, 28220.932569614957, 25571.647354560777, -187500.02235174447, -105028.00852394206, 0.152, 0.968, -0.044, 192.0, 0.0, 0.0, 0.0, 0.0, 0.0, 0.0, 0.0, 0.0, 0.0, 1.729692235506704E9, 0.0, 2024-10-23 19:33:55.506
242.0, 15535.423521449986, 25911.393870281445, 40078.130671755156, 28530.75009950997, 28211.16485728799, 25598.357689184868, -187500.02235174447, -105068.1969604727, 0.152, 0.968, -0.044, 192.0, 0.0, 0.0, 0.0, 0.0, 0.0, 0.0, 0.0, 0.0, 0.0, 1.7296922355118215E9, 0.0, 2024-10-23 19:33:55.511
243.0, 15536.876384839581, 25909.56102723611, 40074.9567240425, 28506.431401542595, 28210.04727006522, 25578.509340108558, -187500.02235174447, -105126.64677222334, 0.152, 0.968, -0.044, 192.0, 0.0, 0.0, 0.0, 0.0, 0.0, 0.0, 0.0, 0.0, 0.0, 1.729692235514776E9, 0.0, 2024-10-23 19:33:55.514
244.0, 15608.021987440825, 25886.806951380608, 40079.82940433376, 28527.88907621969, 28217.937435857944, 25565.500624835568, -187500.02235174447, -105154.18412139227, 0.152, 0.968, -0.044, 192.0, 0.0, 0.0, 0.0, 0.0, 0.0, 0.0, 0.0, 0.0, 0.0, 1.729692235518774E9, 0.0, 2024-10-23 19:33:55.518
245.0, 15664.258976490377, 25864.79048309213, 40088.680695138064, 28566.71405633856, 28224.978235361366, 25574.44132261769, -187500.02235174447, -105150.85371146843, 0.152, 0.968, -0.044, 192.0, 0.0, 0.0, 0.0, 0.0, 0.0, 0.0, 0.0, 0.0, 0.0, 1.7296922355227537E9, 0.0, 2024-10-23 19:33:55.522
246.0, 15668.90813933708, 25855.916840543374, 40084.07623578027, 28583.500216424494, 28213.735307900348, 25567.512281836545, -187500.02235174447, -105126.0656268675, 0.152, 0.968, -0.044, 192.0, 0.0, 0.0, 0.0, 0.0, 0.0, 0.0, 0.0, 0.0, 0.0, 1.7296922355268078E9, 0.0, 2024-10-23 19:33:55.526
247.0, 15539.178614518478, 25879.475579199265, 40065.88191579365, 28517.517866792427, 28206.672156652472, 25564.71831377963, -187500.02235174447, -105152.97712719168, 0.152, 0.968, -0.044, 192.0, 0.0, 0.0, 0.0, 0.0, 0.0, 0.0, 0.0, 0.0, 0.0, 1.72969223553187E9, 0.0, 2024-10-23 19:33:55.531
248.0, 15531.131986514567, 25881.375477477966, 40061.50097388041, 28497.043668871363, 28198.491418181828, 25559.420950343723, -187500.02235174447, -105177.83226702598, 0.152, 0.968, -0.044, 192.0, 0.0, 0.0, 0.0, 0.0, 0.0, 0.0, 0.0, 0.0, 0.0, 1.7296922355349023E9, 0.0, 2024-10-23 19:33:55.534
249.0, 15593.448650055963, 25864.298744714113, 40067.33477918324, 28520.557704038347, 28197.39618270352, 25547.954505438152, -187500.02235174447, -105194.66313060083, 0.152, 0.968, -0.044, 192.0, 0.0, 0.0, 0.0, 0.0, 0.0, 0.0, 0.0, 0.0, 0.0, 1.7296922355387619E9, 0.0, 2024-10-23 19:33:55.538
250.0, 15645.036476258812, 25847.53493637263, 40069.815822817785, 28556.007570744467, 28192.165874500977, 25544.82526121441, -187500.02235174447, -105190.10337473195, 0.154, 0.96, -0.038, 192.0, 4.0, 208.0, 30.0, 0.0, 254.0, 208.0, 0.0, 0.0, 0.0, 1.729692235542832E9, 0.0, 2024-10-23 19:33:55.542
251.0, 15653.61954612965, 25851.759416074685, 40075.962552542995, 28582.583794901824, 28201.039517049732, 25559.62211604382, -187500.02235174447, -105179.28513041558, 0.154, 0.96, -0.038, 192.0, 0.0, 0.0, 0.0, 0.0, 0.0, 0.0, 0.0, 0.0, 0.0, 1.7296922355468404E9, 0.0, 2024-10-23 19:33:55.546
252.0, 15529.299143469232, 25882.917747845382, 40069.681712351055, 28524.446907573572, 28193.372868701565, 25557.34223810938, -187500.02235174447, -105225.66500016034, 0.154, 0.96, -0.038, 192.0, 0.0, 0.0, 0.0, 0.0, 0.0, 0.0, 0.0, 0.0, 0.0, 1.7296922355527787E9, 0.0, 2024-10-23 19:33:55.552
253.0, 15523.59944863313, 25886.628137424963, 40069.59230537323, 28510.700584733557, 28201.553607172205, 25561.700828278164, -187500.02235174447, -105244.28400329161, 0.154, 0.96, -0.038, 192.0, 0.0, 0.0, 0.0, 0.0, 0.0, 0.0, 0.0, 0.0, 0.0, 1.7296922355557659E9, 0.0, 2024-10-23 19:33:55.555
254.0, 15592.599283766662, 25874.915823330382, 40084.16564275809, 28539.690797292093, 28212.684775910948, 25552.804833984952, -187500.02235174447, -105272.80482921659, 0.154, 0.96, -0.038, 192.0, 0.0, 0.0, 0.0, 0.0, 0.0, 0.0, 0.0, 0.0, 0.0, 1.72969223555977E9, 0.0, 2024-10-23 19:33:55.559
255.0, 15643.449502402485, 25856.02859926565, 40094.335686485254, 28580.192158245107, 28215.836371879148, 25555.889374719787, -187500.02235174447, -105275.50939029567, 0.154, 0.96, -0.038, 192.0, 0.0, 0.0, 0.0, 0.0, 0.0, 0.0, 0.0, 0.0, 0.0, 1.7296922355627725E9, 0.0, 2024-10-23 19:33:55.562
0.0, 15648.702162349484, 25851.982933519237, 40096.54850918633, 28605.963719602078, 28214.517618956284, 25575.40244762927, -187500.02235174447, -105249.26844230515, 0.154, 0.96, -0.038, 192.0, 0.0, 0.0, 0.0, 0.0, 0.0, 0.0, 0.0, 0.0, 0.0, 1.729692235566868E9, 0.0, 2024-10-23 19:33:55.566
1.0, 15525.700512611927, 25884.75059089072, 40089.15008177162, 28549.056178218863, 28215.232874778852, 25599.430572918725, -187500.02235174447, -105258.49971276519, 0.154, 0.96, -0.038, 192.0, 0.0, 0.0, 0.0, 0.0, 0.0, 0.0, 0.0, 0.0, 0.0, 1.7296922355708077E9, 0.0, 2024-10-23 19:33:55.570
2.0, 15527.958038801915, 25896.64171894094, 40095.58738417475, 28532.9852739555, 28220.53023821476, 25595.608424616865, -187500.02235174447, -105285.59002704502, 0.154, 0.96, -0.038, 192.0, 0.0, 0.0, 0.0, 0.0, 0.0, 0.0, 0.0, 0.0, 0.0, 1.7296922355748653E9, 0.0, 2024-10-23 19:33:55.574
3.0, 15588.933597675992, 25878.112122787494, 40094.44744520753, 28554.21943118804, 28206.82861886366, 25593.239139704605, -187500.02235174447, -105278.21395137477, 0.154, 0.96, -0.038, 192.0, 0.0, 0.0, 0.0, 0.0, 0.0, 0.0, 0.0, 0.0, 0.0, 1.7296922355788023E9, 0.0, 2024-10-23 19:33:55.578
4.0, 15639.180319211522, 25862.041218524126, 40096.4143987196, 28583.410809446672, 28215.25522652331, 25580.16336919825, -187500.02235174447, -105242.4958637352, 0.156, 0.966, -0.034, 192.0, 4.0, 224.0, 30.0, 48.0, 254.0, 240.0, 0.0, 0.0, 0.0, 1.7296922355828085E9, 0.0, 2024-10-23 19:33:55.582
5.0, 15651.67494436204, 25870.53488141714, 40108.17141630309, 28606.075478324354, 28232.220200564887, 25586.06422973445, -187500.02235174447, -105207.91771506282, 0.156, 0.966, -0.034, 192.0, 0.0, 0.0, 0.0, 0.0, 0.0, 0.0, 0.0, 0.0, 0.0, 1.7296922355879064E9, 0.0, 2024-10-23 19:33:55.587
6.0, 15526.393416690044, 25910.097469103035, 40098.15783478711, 28542.305951393362, 28230.96850287539, 25592.166255970747, -187500.02235174447, -105213.93033432131, 0.156, 0.966, -0.034, 192.0, 0.0, 0.0, 0.0, 0.0, 0.0, 0.0, 0.0, 0.0, 0.0, 1.7296922355909138E9, 0.0, 2024-10-23 19:33:55.590
7.0, 15524.784091089261, 25925.5201727772, 40096.92848884207, 28514.053346401855, 28222.854819638113, 25577.972898241627, -187500.02235174447, -105260.37725929944, 0.156, 0.966, -0.034, 192.0, 0.0, 0.0, 0.0, 0.0, 0.0, 0.0, 0.0, 0.0, 0.0, 1.7296922355948124E9, 0.0, 2024-10-23 19:33:55.594
8.0, 15597.784888480293, 25919.060518629616, 40106.36092500221, 28537.92500948012, 28230.767337175294, 25580.67745932072, -187500.02235174447, -105268.40153555889, 0.156, 0.966, -0.034, 192.0, 0.0, 0.0, 0.0, 0.0, 0.0, 0.0, 0.0, 0.0, 0.0, 1.7296922355988133E9, 0.0, 2024-10-23 19:33:55.598
9.0, 15647.741037337904, 25900.106239331515, 40098.76133188741, 28559.98618125751, 28217.602159691116, 25549.76499673903, -187500.02235174447, -105229.75536939566, 0.156, 0.966, -0.034, 192.0, 0.0, 0.0, 0.0, 0.0, 0.0, 0.0, 0.0, 0.0, 0.0, 1.729692235602872E9, 0.0, 2024-10-23 19:33:55.602
10.0, 15655.631203130628, 25905.291844045147, 40092.16756727309, 28575.11831225375, 28215.188171289945, 25555.5317468085, -187500.02235174447, -105190.21513345423, 0.156, 0.966, -0.034, 192.0, 0.0, 0.0, 0.0, 0.0, 0.0, 0.0, 0.0, 0.0, 0.0, 1.7296922356068711E9, 0.0, 2024-10-23 19:33:55.606
11.0, 15527.868631824093, 25939.60177178404, 40070.575782129265, 28507.034898642887, 28205.755735129802, 25565.52297658002, -187500.02235174447, -105205.77194759512, 0.156, 0.966, -0.034, 192.0, 0.0, 0.0, 0.0, 0.0, 0.0, 0.0, 0.0, 0.0, 0.0, 1.7296922356128523E9, 0.0, 2024-10-23 19:33:55.612
12.0, 15524.761739344805, 25948.363655610523, 40070.95576178501, 28485.577223965793, 28215.8587236236, 25573.077866205917, -187500.02235174447, -105241.22181430124, 0.156, 0.966, -0.034, 192.0, 0.0, 0.0, 0.0, 0.0, 0.0, 0.0, 0.0, 0.0, 0.0, 1.7296922356158996E9, 0.0, 2024-10-23 19:33:55.615
13.0, 15589.626501754106, 25933.27622810319, 40071.71572109649, 28506.364346309227, 28219.68087192546, 25557.58810729839, -187500.02235174447, -105252.39768652889, 0.156, 0.966, -0.034, 192.0, 0.0, 0.0, 0.0, 0.0, 0.0, 0.0, 0.0, 0.0, 0.0, 1.7296922356198804E9, 0.0, 2024-10-23 19:33:55.619
14.0, 15638.643877344595, 25915.75246045023, 40067.33477918324, 28543.31177989385, 28208.661461908992, 25555.777615997507, -187500.02235174447, -105236.57265145454, 0.156, 0.97, -0.036000000000000004, 192.0, 4.0, 224.0, 30.0, 80.0, 254.0, 224.0, 0.0, 0.0, 0.0, 1.7296922356228523E9, 0.0, 2024-10-23 19:33:55.622
15.0, 15637.302772677276, 25909.56102723611, 40050.43686037503, 28561.707265580568, 28183.96278428588, 25556.850499731365, -187500.02235174447, -105167.01402270961, 0.156, 0.97, -0.036000000000000004, 192.0, 0.0, 0.0, 0.0, 0.0, 0.0, 0.0, 0.0, 0.0, 0.0, 1.7296922356269577E9, 0.0, 2024-10-23 19:33:55.626
16.0, 15515.59752411813, 25943.84860323055, 40039.752726525396, 28502.16221835163, 28191.67413612296, 25557.208127642647, -187500.02235174447, -105176.96054899223, 0.156, 0.97, -0.036000000000000004, 192.0, 0.0, 0.0, 0.0, 0.0, 0.0, 0.0, 0.0, 0.0, 0.0, 1.729692235631062E9, 0.0, 2024-10-23 19:33:55.631
17.0, 15516.715111340895, 25949.50359457774, 40045.36301438368, 28485.06313384332, 28199.474894937863, 25553.162461896238, -187500.02235174447, -105224.8826891044, 0.156, 0.97, -0.036000000000000004, 192.0, 0.0, 0.0, 0.0, 0.0, 0.0, 0.0, 0.0, 0.0, 0.0, 1.7296922356348605E9, 0.0, 2024-10-23 19:33:55.634
18.0, 15579.74703070486, 25923.46381228731, 40047.93346499604, 28501.78223869589, 28186.62264187606, 25529.894295918264, -187500.02235174447, -105269.42971580384, 0.156, 0.97, -0.036000000000000004, 192.0, 0.0, 0.0, 0.0, 0.0, 0.0, 0.0, 0.0, 0.0, 0.0, 1.7296922356389008E9, 0.0, 2024-10-23 19:33:55.638
19.0, 15630.105510962667, 25900.93325387636, 40051.21917143097, 28544.87640200572, 28186.48853140933, 25549.697941505667, -187500.02235174447, -105240.93124162332, 0.156, 0.97, -0.036000000000000004, 192.0, 0.0, 0.0, 0.0, 0.0, 0.0, 0.0, 0.0, 0.0, 0.0, 1.7296922356440086E9, 0.0, 2024-10-23 19:33:55.644
20.0, 15639.828519800725, 25899.949777120328, 40057.03062498935, 28570.513852895958, 28191.115342511577, 25548.15567113825, -187500.02235174447, -105200.78750858159, 0.156, 0.97, -0.036000000000000004, 192.0, 0.0, 0.0, 0.0, 0.0, 0.0, 0.0, 0.0, 0.0, 0.0, 1.7296922356470208E9, 0.0, 2024-10-23 19:33:55.647
21.0, 15517.273904952277, 25925.85544894403, 40050.39215688612, 28511.125267878208, 28193.126999512555, 25547.283953104492, -187500.02235174447, -105216.61254365594, 0.156, 0.97, -0.036000000000000004, 192.0, 0.0, 0.0, 0.0, 0.0, 0.0, 0.0, 0.0, 0.0, 0.0, 1.7296922356510143E9, 0.0, 2024-10-23 19:33:55.651
22.0, 15512.35652117211, 25927.621236755997, 40052.58262784274, 28494.16029383663, 28197.642051892526, 25567.78050277001, -187500.02235174447, -105251.48126500622, 0.156, 0.97, -0.036000000000000004, 192.0, 0.0, 0.0, 0.0, 0.0, 0.0, 0.0, 0.0, 0.0, 0.0, 1.7296922356549368E9, 0.0, 2024-10-23 19:33:55.654
23.0, 15575.500199258353, 25910.566855736597, 40063.19970645901, 28518.858971459744, 28206.359232230097, 25566.282935891504, -187500.02235174447, -105269.76499197066, 0.156, 0.97, -0.036000000000000004, 192.0, 0.0, 0.0, 0.0, 0.0, 0.0, 0.0, 0.0, 0.0, 0.0, 1.7296922356589184E9, 0.0, 2024-10-23 19:33:55.658
24.0, 15629.814938284748, 25895.188855551347, 40069.92758154006, 28559.717960324047, 28205.889845596535, 25557.09636892037, -187500.02235174447, -105266.70280298029, 0.158, 0.972, -0.036000000000000004, 192.0, 4.0, 240.0, 30.0, 96.0, 254.0, 224.0, 0.0, 0.0, 0.0, 1.7296922356629646E9, 0.0, 2024-10-23 19:33:55.662
25.0, 15639.582650611717, 25894.630061939963, 40072.07334900777, 28588.618765904757, 28205.643976407526, 25551.664895017733, -187500.02235174447, -105229.95653509576, 0.158, 0.972, -0.036000000000000004, 192.0, 0.0, 0.0, 0.0, 0.0, 0.0, 0.0, 0.0, 0.0, 0.0, 1.7296922356669827E9, 0.0, 2024-10-23 19:33:55.666
26.0, 15508.243800192333, 25913.89726566044, 40054.415470888074, 28531.957093710556, 28200.48072343835, 25562.080807933904, -187500.02235174447, -105214.48912793268, 0.158, 0.972, -0.036000000000000004, 192.0, 0.0, 0.0, 0.0, 0.0, 0.0, 0.0, 0.0, 0.0, 0.0, 1.7296922356719642E9, 0.0, 2024-10-23 19:33:55.671
27.0, 15506.45566063591, 25919.105222118524, 40054.68369182154, 28517.45081155906, 28198.58082515965, 25563.48896783459, -187500.02235174447, -105216.38902621139, 0.158, 0.972, -0.036000000000000004, 192.0, 0.0, 0.0, 0.0, 0.0, 0.0, 0.0, 0.0, 0.0, 0.0, 1.729692235675023E9, 0.0, 2024-10-23 19:33:55.675
28.0, 15577.020117881313, 25907.79523942414, 40066.64187510513, 28550.799614286378, 28202.894711839523, 25573.54725283948, -187500.02235174447, -105214.62323839942, 0.158, 0.972, -0.036000000000000004, 192.0, 0.0, 0.0, 0.0, 0.0, 0.0, 0.0, 0.0, 0.0, 0.0, 1.7296922356790676E9, 0.0, 2024-10-23 19:33:55.679
29.0, 15630.731359807416, 25888.438628725842, 40073.21328797499, 28591.680954895135, 28215.523447456773, 25568.518110337034, -187500.02235174447, -105205.10139526146, 0.158, 0.972, -0.036000000000000004, 192.0, 0.0, 0.0, 0.0, 0.0, 0.0, 0.0, 0.0, 0.0, 0.0, 1.7296922356829731E9, 0.0, 2024-10-23 19:33:55.682
30.0, 15639.917926778548, 25886.136399046947, 40076.811918832296, 28624.180391333153, 28212.72947939986, 25574.307212150958, -187500.02235174447, -105169.40565936634, 0.158, 0.972, -0.036000000000000004, 192.0, 0.0, 0.0, 0.0, 0.0, 0.0, 0.0, 0.0, 0.0, 0.0, 1.729692235687053E9, 0.0, 2024-10-23 19:33:55.687
31.0, 15517.765643330295, 25916.40066103943, 40065.814860560284, 28571.676143607634, 28202.04534555022, 25579.761037798053, -187500.02235174447, -105185.78948805208, 0.158, 0.972, -0.036000000000000004, 192.0, 0.0, 0.0, 0.0, 0.0, 0.0, 0.0, 0.0, 0.0, 0.0, 1.7296922356911733E9, 0.0, 2024-10-23 19:33:55.691
32.0, 15520.35844568711, 25922.74855646474, 40071.17927922956, 28557.952172512076, 28206.739211885837, 25601.755154342074, -187500.02235174447, -105241.66884919035, 0.158, 0.972, -0.036000000000000004, 192.0, 0.0, 0.0, 0.0, 0.0, 0.0, 0.0, 0.0, 0.0, 0.0, 1.729692235694976E9, 0.0, 2024-10-23 19:33:55.694
33.0, 15590.185295365489, 25902.22965505477, 40082.466910179486, 28580.639193134215, 28217.53510445775, 25598.26828220705, -187500.02235174447, -105265.80873320208, 0.158, 0.972, -0.036000000000000004, 192.0, 0.0, 0.0, 0.0, 0.0, 0.0, 0.0, 0.0, 0.0, 0.0, 1.7296922357000022E9, 0.0, 2024-10-23 19:33:55.700
34.0, 15644.656496603073, 25876.413390208887, 40087.496052681934, 28607.014251591478, 28213.176514288967, 25587.897072779786, -187500.02235174447, -105243.9934306137, 0.154, 0.97, -0.04, 192.0, 4.0, 208.0, 30.0, 80.0, 254.0, 192.0, 0.0, 0.0, 0.0, 1.7296922357029696E9, 0.0, 2024-10-23 19:33:55.702
35.0, 15650.467950161452, 25864.20933773629, 40084.74678811393, 28613.786830161433, 28205.86749385208, 25564.941831224183, -187500.02235174447, -105205.6825406173, 0.154, 0.97, -0.04, 192.0, 0.0, 0.0, 0.0, 0.0, 0.0, 0.0, 0.0, 0.0, 0.0, 1.7296922357060125E9, 0.0, 2024-10-23 19:33:55.706
36.0, 15521.856012565615, 25883.11891354548, 40062.77502331436, 28536.338035623794, 28180.610022617584, 25553.542441551977, -187500.02235174447, -105249.08962834951, 0.154, 0.97, -0.04, 192.0, 0.0, 0.0, 0.0, 0.0, 0.0, 0.0, 0.0, 0.0, 0.0, 1.7296922357110565E9, 0.0, 2024-10-23 19:33:55.711
37.0, 15514.144660728534, 25878.469750698776, 40053.78962204333, 28511.907578934144, 28190.19892098891, 25556.71638926463, -187500.02235174447, -105257.42682903133, 0.154, 0.97, -0.04, 192.0, 0.0, 0.0, 0.0, 0.0, 0.0, 0.0, 0.0, 0.0, 0.0, 1.729692235715998E9, 0.0, 2024-10-23 19:33:55.715
38.0, 15577.46715277042, 25859.470767911767, 40055.66716857757, 28527.062061674842, 28174.418589403464, 25562.4831393341, -187500.02235174447, -105251.16834058386, 0.154, 0.97, -0.04, 192.0, 0.0, 0.0, 0.0, 0.0, 0.0, 0.0, 0.0, 0.0, 0.0, 1.729692235719983E9, 0.0, 2024-10-23 19:33:55.719
39.0, 15624.696388804483, 25838.50483161269, 40055.197781944014, 28549.50321310797, 28174.843272548114, 25549.29561010547, -187500.02235174447, -105236.66205843235, 0.154, 0.97, -0.04, 192.0, 0.0, 0.0, 0.0, 0.0, 0.0, 0.0, 0.0, 0.0, 0.0, 1.7296922357250133E9, 0.0, 2024-10-23 19:33:55.725
40.0, 15631.446615629986, 25837.320189156555, 40060.49514537992, 28568.725713339536, 28199.2066740044, 25541.49485129057, -187500.02235174447, -105218.15481402336, 0.154, 0.97, -0.04, 192.0, 0.0, 0.0, 0.0, 0.0, 0.0, 0.0, 0.0, 0.0, 0.0, 1.7296922357281075E9, 0.0, 2024-10-23 19:33:55.728
41.0, 15499.414861132487, 25859.4037126784, 40038.67984279154, 28501.1787415956, 28189.32720295515, 25540.28785708998, -187500.02235174447, -105223.1839565258, 0.154, 0.97, -0.04, 192.0, 0.0, 0.0, 0.0, 0.0, 0.0, 0.0, 0.0, 0.0, 0.0, 1.7296922357310443E9, 0.0, 2024-10-23 19:33:55.731
42.0, 15502.231180933855, 25872.345372718024, 40044.44659286101, 28486.806569910834, 28193.05994427919, 25553.117758407327, -187500.02235174447, -105261.51719826665, 0.154, 0.97, -0.04, 192.0, 0.0, 0.0, 0.0, 0.0, 0.0, 0.0, 0.0, 0.0, 0.0, 1.7296922357350173E9, 0.0, 2024-10-23 19:33:55.735
43.0, 15571.365126534121, 25857.615573121977, 40052.29205516482, 28516.64614875867, 28197.262072236786, 25559.756226510555, -187500.02235174447, -105310.1545942014, 0.154, 0.97, -0.04, 192.0, 0.0, 0.0, 0.0, 0.0, 0.0, 0.0, 0.0, 0.0, 0.0, 1.729692235739044E9, 0.0, 2024-10-23 19:33:55.739
44.0, 15619.264914901843, 25832.000473976193, 40051.554447597795, 28553.347713154282, 28192.18822624543, 25549.653238016755, -187500.02235174447, -105300.23041966325, 0.158, 0.964, -0.04, 192.0, 4.0, 240.0, 30.0, 32.0, 254.0, 192.0, 0.0, 0.0, 0.0, 1.729692235743466E9, 0.0, 2024-10-23 19:33:55.743
45.0, 15626.417473127542, 25822.948017471794, 40050.45921211949, 28578.113446010764, 28183.448694163406, 25546.322828092914, -187500.02235174447, -105262.52302676714, 0.158, 0.964, -0.04, 192.0, 0.0, 0.0, 0.0, 0.0, 0.0, 0.0, 0.0, 0.0, 0.0, 1.729692235747131E9, 0.0, 2024-10-23 19:33:55.747
46.0, 15501.135945455546, 25841.20939269178, 40035.57295031226, 28517.719032492525, 28174.664458592473, 25548.423892071714, -187500.02235174447, -105269.56382627056, 0.158, 0.964, -0.04, 192.0, 0.0, 0.0, 0.0, 0.0, 0.0, 0.0, 0.0, 0.0, 0.0, 1.729692235751073E9, 0.0, 2024-10-23 19:33:55.751
47.0, 15496.933817497948, 25834.995607733206, 40038.769249769364, 28496.618985726713, 28175.357362670587, 25545.875793203806, -187500.02235174447, -105299.8504400075, 0.158, 0.964, -0.04, 192.0, 0.0, 0.0, 0.0, 0.0, 0.0, 0.0, 0.0, 0.0, 0.0, 1.7296922357560573E9, 0.0, 2024-10-23 19:33:55.756
48.0, 15562.536187474274, 25809.20169463178, 40050.45921211949, 28520.557704038347, 28177.14550222701, 25546.25577285955, -187500.02235174447, -105299.78338477414, 0.158, 0.964, -0.04, 192.0, 0.0, 0.0, 0.0, 0.0, 0.0, 0.0, 0.0, 0.0, 0.0, 1.7296922357590864E9, 0.0, 2024-10-23 19:33:55.759
49.0, 15616.3368363782, 25783.653650719363, 40058.84111629023, 28554.97939049952, 28179.96182202838, 25538.298551833457, -187500.02235174447, -105276.6493292629, 0.158, 0.964, -0.04, 192.0, 0.0, 0.0, 0.0, 0.0, 0.0, 0.0, 0.0, 0.0, 0.0, 1.7296922357621152E9, 0.0, 2024-10-23 19:33:55.762
50.0, 15618.639066057094, 25767.873319133916, 40054.03549123234, 28570.759722084968, 28158.079464206632, 25526.206258083137, -187500.02235174447, -105244.21694805825, 0.158, 0.964, -0.04, 192.0, 0.0, 0.0, 0.0, 0.0, 0.0, 0.0, 0.0, 0.0, 0.0, 1.7296922357671084E9, 0.0, 2024-10-23 19:33:55.767
51.0, 15495.59271283063, 25787.72166821023, 40044.223075416456, 28510.566474266827, 28159.822900274146, 25533.49292677557, -187500.02235174447, -105249.24609056069, 0.158, 0.964, -0.04, 192.0, 0.0, 0.0, 0.0, 0.0, 0.0, 0.0, 0.0, 0.0, 0.0, 1.7296922357710676E9, 0.0, 2024-10-23 19:33:55.771
52.0, 15506.276846680266, 25796.237682847703, 40066.48541289394, 28500.955224151043, 28199.139618771034, 25552.067226417927, -187500.02235174447, -105265.67462273534, 0.158, 0.964, -0.04, 192.0, 0.0, 0.0, 0.0, 0.0, 0.0, 0.0, 0.0, 0.0, 0.0, 1.729692235775079E9, 0.0, 2024-10-23 19:33:55.775
53.0, 15579.925844660504, 25779.362115783944, 40084.94795381403, 28535.376910612216, 28203.34174672863, 25562.43843584519, -187500.02235174447, -105297.81643126208, 0.158, 0.964, -0.04, 192.0, 0.0, 0.0, 0.0, 0.0, 0.0, 0.0, 0.0, 0.0, 0.0, 1.7296922357791245E9, 0.0, 2024-10-23 19:33:55.779
54.0, 15631.670133074538, 25752.070635804015, 40090.9605730725, 28578.158149499675, 28200.927758327456, 25562.147863167273, -187500.02235174447, -105298.19641091782, 0.16, 0.972, -0.044, 192.0, 5.0, 0.0, 30.0, 96.0, 254.0, 160.0, 0.0, 0.0, 0.0, 1.7296922357830925E9, 0.0, 2024-10-23 19:33:55.783
55.0, 15632.497147619386, 25741.118281020914, 40085.86437533669, 28597.581815431335, 28187.04732502071, 25543.439453058178, -187500.02235174447, -105241.4900352347, 0.16, 0.972, -0.044, 192.0, 0.0, 0.0, 0.0, 0.0, 0.0, 0.0, 0.0, 0.0, 0.0, 1.729692235787117E9, 0.0, 2024-10-23 19:33:55.787
56.0, 15513.07177699468, 25770.756694168653, 40075.73903509844, 28541.143660681686, 28181.1017609956, 25529.6260749848, -187500.02235174447, -105255.16930284134, 0.16, 0.972, -0.044, 192.0, 0.0, 0.0, 0.0, 0.0, 0.0, 0.0, 0.0, 0.0, 0.0, 1.7296922357901204E9, 0.0, 2024-10-23 19:33:55.790
57.0, 15516.268076451788, 25778.06571460554, 40082.5116136684, 28534.996930956477, 28199.273729237764, 25560.426778844212, -187500.02235174447, -105278.48217230823, 0.16, 0.972, -0.044, 192.0, 0.0, 0.0, 0.0, 0.0, 0.0, 0.0, 0.0, 0.0, 0.0, 1.7296922357951143E9, 0.0, 2024-10-23 19:33:55.795
58.0, 15577.422449281508, 25753.63525791589, 40079.33766595575, 28561.237878947006, 28189.416609932974, 25564.226575401615, -187500.02235174447, -105290.88739048093, 0.16, 0.972, -0.044, 192.0, 0.0, 0.0, 0.0, 0.0, 0.0, 0.0, 0.0, 0.0, 0.0, 1.7296922357991495E9, 0.0, 2024-10-23 19:33:55.799
59.0, 15623.288228903799, 25722.320463934, 40076.70016011002, 28590.76453337247, 28201.397144961018, 25559.82328174392, -187500.02235174447, -105271.03904140461, 0.16, 0.972, -0.044, 192.0, 0.0, 0.0, 0.0, 0.0, 0.0, 0.0, 0.0, 0.0, 0.0, 1.7296922358031683E9, 0.0, 2024-10-23 19:33:55.803
60.0, 15641.661362846062, 25723.929789534785, 40097.152006286626, 28623.219266321572, 28233.941284887947, 25602.73863109811, -187500.02235174447, -105228.4813199617, 0.16, 0.972, -0.044, 192.0, 0.0, 0.0, 0.0, 0.0, 0.0, 0.0, 0.0, 0.0, 0.0, 1.7296922358071425E9, 0.0, 2024-10-23 19:33:55.807
61.0, 15519.799652075728, 25748.449653202257, 40078.465947921984, 28559.18151845712, 28211.38837473254, 25597.933006040217, -187500.02235174447, -105241.55709046806, 0.16, 0.972, -0.044, 192.0, 0.0, 0.0, 0.0, 0.0, 0.0, 0.0, 0.0, 0.0, 0.0, 1.7296922358114996E9, 0.0, 2024-10-23 19:33:55.811
62.0, 15515.59752411813, 25746.080368289993, 40068.94410478403, 28524.581018040302, 28202.850008350615, 25566.059418446952, -187500.02235174447, -105290.73092826974, 0.16, 0.972, -0.044, 192.0, 0.0, 0.0, 0.0, 0.0, 0.0, 0.0, 0.0, 0.0, 0.0, 1.7296922358151305E9, 0.0, 2024-10-23 19:33:55.815
63.0, 15573.041507368269, 25722.633388356375, 40062.953837270004, 28536.65096004617, 28199.139618771034, 25566.126473680317, -187500.02235174447, -105307.47238486676, 0.16, 0.972, -0.044, 192.0, 0.0, 0.0, 0.0, 0.0, 0.0, 0.0, 0.0, 0.0, 0.0, 1.7296922358181615E9, 0.0, 2024-10-23 19:33:55.818
64.0, 15629.077330717724, 25712.172771951293, 40069.681712351055, 28569.99976277349, 28201.330089727653, 25574.329563895415, -187500.02235174447, -105295.17892541635, 0.156, 0.97, -0.038, 192.0, 4.0, 224.0, 30.0, 80.0, 254.0, 208.0, 0.0, 0.0, 0.0, 1.729692235822382E9, 0.0, 2024-10-23 19:33:55.822
65.0, 15638.420359900041, 25718.94535052125, 40071.24633446292, 28591.300975239395, 28197.39618270352, 25565.902956235765, -187500.02235174447, -105249.46960800525, 0.156, 0.97, -0.038, 192.0, 0.0, 0.0, 0.0, 0.0, 0.0, 0.0, 0.0, 0.0, 0.0, 1.7296922358271587E9, 0.0, 2024-10-23 19:33:55.827
66.0, 15504.645169335028, 25747.734397379685, 40046.01121497288, 28522.16702963913, 28178.82188306116, 25558.59393579888, -187500.02235174447, -105256.97979414223, 0.156, 0.97, -0.038, 192.0, 0.0, 0.0, 0.0, 0.0, 0.0, 0.0, 0.0, 0.0, 0.0, 1.729692235831148E9, 0.0, 2024-10-23 19:33:55.831
67.0, 15502.275884422766, 25760.296077763567, 40043.84309576072, 28503.816247441322, 28185.885034309034, 25562.527842823012, -187500.02235174447, -105291.46853583677, 0.156, 0.97, -0.038, 192.0, 0.0, 0.0, 0.0, 0.0, 0.0, 0.0, 0.0, 0.0, 0.0, 1.7296922358351936E9, 0.0, 2024-10-23 19:33:55.835
68.0, 15561.619765951607, 25742.14646126586, 40042.054956204294, 28525.698605263067, 28181.593499373615, 25562.840767245387, -187500.02235174447, -105285.79119274512, 0.156, 0.97, -0.038, 192.0, 0.0, 0.0, 0.0, 0.0, 0.0, 0.0, 0.0, 0.0, 0.0, 1.7296922358392055E9, 0.0, 2024-10-23 19:33:55.839
69.0, 15610.592438053185, 25727.193144225257, 40042.345528882215, 28554.822928288333, 28176.899633038003, 25548.021560671517, -187500.02235174447, -105264.86995993495, 0.156, 0.97, -0.038, 192.0, 0.0, 0.0, 0.0, 0.0, 0.0, 0.0, 0.0, 0.0, 0.0, 1.7296922358442173E9, 0.0, 2024-10-23 19:33:55.844
70.0, 15619.309618390755, 25729.76359483762, 40044.67011030556, 28579.90158556719, 28182.688734851927, 25547.172194382216, -187500.02235174447, -105229.42009322884, 0.156, 0.97, -0.038, 192.0, 0.0, 0.0, 0.0, 0.0, 0.0, 0.0, 0.0, 0.0, 0.0, 1.729692235847226E9, 0.0, 2024-10-23 19:33:55.847
71.0, 15498.92312275447, 25757.233888773193, 40034.94710146751, 28522.25643661695, 28177.748999327305, 25552.938944451686, -187500.02235174447, -105214.39972095487, 0.156, 0.97, -0.038, 192.0, 0.0, 0.0, 0.0, 0.0, 0.0, 0.0, 0.0, 0.0, 0.0, 1.7296922358501792E9, 0.0, 2024-10-23 19:33:55.850
72.0, 15505.002797246314, 25763.380618498402, 40046.458249861986, 28508.152485865652, 28189.193092488422, 25557.610459042844, -187500.02235174447, -105245.80392191457, 0.156, 0.97, -0.038, 192.0, 0.0, 0.0, 0.0, 0.0, 0.0, 0.0, 0.0, 0.0, 0.0, 1.72969223585523E9, 0.0, 2024-10-23 19:33:55.855
73.0, 15572.639175968074, 25736.93850480777, 40059.86929653517, 28542.6859310491, 28197.463237936885, 25561.00792420005, -187500.02235174447, -105259.70670696578, 0.156, 0.97, -0.038, 192.0, 0.0, 0.0, 0.0, 0.0, 0.0, 0.0, 0.0, 0.0, 0.0, 1.7296922358591993E9, 0.0, 2024-10-23 19:33:55.859
74.0, 15621.030702713813, 25705.51195210361, 40065.345473926725, 28581.443855934605, 28197.19501700342, 25553.58714504089, -187500.02235174447, -105230.26945951814, 0.162, 0.97, -0.04, 192.0, 5.0, 16.0, 30.0, 80.0, 254.0, 192.0, 0.0, 0.0, 0.0, 1.729692235863194E9, 0.0, 2024-10-23 19:33:55.863
75.0, 15623.735263792905, 25685.61889953839, 40065.36782567118, 28598.833513120833, 28191.920005311968, 25544.489985047578, -187500.02235174447, -105182.43672638378, 0.162, 0.97, -0.04, 192.0, 0.0, 0.0, 0.0, 0.0, 0.0, 0.0, 0.0, 0.0, 0.0, 1.7296922358672087E9, 0.0, 2024-10-23 19:33:55.867
76.0, 15507.193268202935, 25707.881237015874, 40059.31050292379, 28542.46241360455, 28184.275708708254, 25549.027389172006, -187500.02235174447, -105193.4784881447, 0.162, 0.97, -0.04, 192.0, 0.0, 0.0, 0.0, 0.0, 0.0, 0.0, 0.0, 0.0, 0.0, 1.7296922358712256E9, 0.0, 2024-10-23 19:33:55.871
77.0, 15515.2622479513, 25713.491524874156, 40071.22398271847, 28534.12521292272, 28195.786857102736, 25558.504528821057, -187500.02235174447, -105226.67082866083, 0.162, 0.97, -0.04, 192.0, 0.0, 0.0, 0.0, 0.0, 0.0, 0.0, 0.0, 0.0, 0.0, 1.729692235874302E9, 0.0, 2024-10-23 19:33:55.874
78.0, 15583.211551095434, 25690.044544940538, 40085.327933469765, 28559.919126024142, 28207.76739213078, 25558.795101498974, -187500.02235174447, -105264.73584946823, 0.162, 0.97, -0.04, 192.0, 0.0, 0.0, 0.0, 0.0, 0.0, 0.0, 0.0, 0.0, 0.0, 1.729692235878235E9, 0.0, 2024-10-23 19:33:55.878
79.0, 15629.881993518115, 25659.757931203596, 40089.48535793845, 28595.257234007986, 28212.461258466396, 25554.05653167445, -187500.02235174447, -105236.95263111027, 0.162, 0.97, -0.04, 192.0, 0.0, 0.0, 0.0, 0.0, 0.0, 0.0, 0.0, 0.0, 0.0, 1.7296922358832345E9, 0.0, 2024-10-23 19:33:55.883
80.0, 15637.548641866284, 25652.918297400272, 40091.94404982854, 28613.742126672525, 28202.06769729468, 25562.751360267564, -187500.02235174447, -105195.40073816785, 0.162, 0.97, -0.04, 192.0, 0.0, 0.0, 0.0, 0.0, 0.0, 0.0, 0.0, 0.0, 0.0, 1.7296922358872883E9, 0.0, 2024-10-23 19:33:55.887
81.0, 15515.463413651398, 25678.689858757243, 40082.89159332414, 28556.722826567035, 28198.267900737275, 25583.538482611, -187500.02235174447, -105212.835098843, 0.162, 0.97, -0.04, 192.0, 0.0, 0.0, 0.0, 0.0, 0.0, 0.0, 0.0, 0.0, 0.0, 1.729692235891304E9, 0.0, 2024-10-23 19:33:55.891
82.0, 15519.062044508702, 25682.400248336824, 40092.525195184375, 28546.686893306603, 28209.19790377592, 25575.737723796097, -187500.02235174447, -105215.94199132228, 0.162, 0.97, -0.04, 192.0, 0.0, 0.0, 0.0, 0.0, 0.0, 0.0, 0.0, 0.0, 0.0, 1.7296922358952856E9, 0.0, 2024-10-23 19:33:55.895
83.0, 15589.89472268757, 25665.099998128415, 40102.114093555705, 28576.302954709885, 28199.76546761578, 25560.471482333123, -187500.02235174447, -105209.25881973015, 0.162, 0.97, -0.04, 192.0, 0.0, 0.0, 0.0, 0.0, 0.0, 0.0, 0.0, 0.0, 0.0, 1.729692235898292E9, 0.0, 2024-10-23 19:33:55.898
84.0, 15647.159891982066, 25647.419768264266, 40117.93912863006, 28619.888856397734, 28233.78482267676, 25564.047761445974, -187500.02235174447, -105183.55431360654, 0.164, 0.966, -0.038, 192.0, 5.0, 32.0, 30.0, 48.0, 254.0, 208.0, 0.0, 0.0, 0.0, 1.7296922359022994E9, 0.0, 2024-10-23 19:33:55.902
85.0, 15653.172511240544, 25644.290524040523, 40114.85458789523, 28640.47481304107, 28223.838296394148, 25578.91167150875, -187500.02235174447, -105124.2104320777, 0.164, 0.966, -0.038, 192.0, 0.0, 0.0, 0.0, 0.0, 0.0, 0.0, 0.0, 0.0, 0.0, 1.7296922359062724E9, 0.0, 2024-10-23 19:33:55.906
86.0, 15527.041617279247, 25676.812312222995, 40096.19088127505, 28579.499254166993, 28219.993796347833, 25587.315927423948, -187500.02235174447, -105115.02386510657, 0.164, 0.966, -0.038, 192.0, 0.0, 0.0, 0.0, 0.0, 0.0, 0.0, 0.0, 0.0, 0.0, 1.7296922359103386E9, 0.0, 2024-10-23 19:33:55.910
87.0, 15524.985256789358, 25689.105771673414, 40094.425093463076, 28559.449739390584, 28230.119136586087, 25590.311061180957, -187500.02235174447, -105158.83328423898, 0.164, 0.966, -0.038, 192.0, 0.0, 0.0, 0.0, 0.0, 0.0, 0.0, 0.0, 0.0, 0.0, 1.7296922359153085E9, 0.0, 2024-10-23 19:33:55.915
88.0, 15592.979263422403, 25681.439123325246, 40099.00720107641, 28589.89281533871, 28229.15801157451, 25606.02433753304, -187500.02235174447, -105182.03439498358, 0.164, 0.966, -0.038, 192.0, 0.0, 0.0, 0.0, 0.0, 0.0, 0.0, 0.0, 0.0, 0.0, 1.7296922359192972E9, 0.0, 2024-10-23 19:33:55.919
89.0, 15644.030647758324, 25670.37500981987, 40096.593212675245, 28622.548713987915, 28216.037537579246, 25591.45100014818, -187500.02235174447, -105178.2793019151, 0.164, 0.966, -0.038, 192.0, 0.0, 0.0, 0.0, 0.0, 0.0, 0.0, 0.0, 0.0, 0.0, 1.7296922359233134E9, 0.0, 2024-10-23 19:33:55.923
90.0, 15651.630240873128, 25673.951288932716, 40092.97223007348, 28640.832440952356, 28213.332976500154, 25585.572491356434, -187500.02235174447, -105156.26283362662, 0.164, 0.966, -0.038, 192.0, 0.0, 0.0, 0.0, 0.0, 0.0, 0.0, 0.0, 0.0, 0.0, 1.7296922359263532E9, 0.0, 2024-10-23 19:33:55.926
91.0, 15523.532393399764, 25703.813219525007, 40075.87314556517, 28575.408884931672, 28211.902464855015, 25586.265395434548, -187500.02235174447, -105159.54854006154, 0.164, 0.966, -0.038, 192.0, 0.0, 0.0, 0.0, 0.0, 0.0, 0.0, 0.0, 0.0, 0.0, 1.7296922359303536E9, 0.0, 2024-10-23 19:33:55.930
92.0, 15523.465338166397, 25713.37976615188, 40073.97324728647, 28554.867631777244, 28210.203732276408, 25589.908729780764, -187500.02235174447, -105208.65532262986, 0.164, 0.966, -0.038, 192.0, 0.0, 0.0, 0.0, 0.0, 0.0, 0.0, 0.0, 0.0, 0.0, 1.7296922359344387E9, 0.0, 2024-10-23 19:33:55.934
93.0, 15585.782001707794, 25690.826855996474, 40073.526212397366, 28572.346695941294, 28207.856799108602, 25577.659973819256, -187500.02235174447, -105212.32100872052, 0.164, 0.966, -0.038, 192.0, 0.0, 0.0, 0.0, 0.0, 0.0, 0.0, 0.0, 0.0, 0.0, 1.7296922359403143E9, 0.0, 2024-10-23 19:33:55.940
94.0, 15635.67109533204, 25668.475111541167, 40074.68850310904, 28597.224187520053, 28204.34757522912, 25573.927232495218, -187500.02235174447, -105219.29475299058, 0.168, 0.966, -0.04, 192.0, 5.0, 64.0, 30.0, 48.0, 254.0, 192.0, 0.0, 0.0, 0.0, 1.7296922359434147E9, 0.0, 2024-10-23 19:33:55.943
95.0, 15632.76536855285, 25653.097111355917, 40065.09960473771, 28613.540960972427, 28189.260147721787, 25556.828147986907, -187500.02235174447, -105171.70788904524, 0.168, 0.966, -0.04, 192.0, 0.0, 0.0, 0.0, 0.0, 0.0, 0.0, 0.0, 0.0, 0.0, 1.7296922359473274E9, 0.0, 2024-10-23 19:33:55.947
96.0, 15507.886172281049, 25687.161169905805, 40056.0024447444, 28553.97356199903, 28181.995830773812, 25560.359723610847, -187500.02235174447, -105175.10535420245, 0.168, 0.966, -0.04, 192.0, 0.0, 0.0, 0.0, 0.0, 0.0, 0.0, 0.0, 0.0, 0.0, 1.7296922359513671E9, 0.0, 2024-10-23 19:33:55.951
97.0, 15502.499401867319, 25688.301108873024, 40051.152116197605, 28528.850201231267, 28177.927813282946, 25548.28978160498, -187500.02235174447, -105219.87589834642, 0.168, 0.966, -0.04, 192.0, 0.0, 0.0, 0.0, 0.0, 0.0, 0.0, 0.0, 0.0, 0.0, 1.7296922359545567E9, 0.0, 2024-10-23 19:33:55.954
98.0, 15570.471056755909, 25673.07957089896, 40061.903305280604, 28554.398245143682, 28182.889900552025, 25545.160537381238, -187500.02235174447, -105220.81467161354, 0.168, 0.966, -0.04, 192.0, 0.0, 0.0, 0.0, 0.0, 0.0, 0.0, 0.0, 0.0, 0.0, 1.7296922359584684E9, 0.0, 2024-10-23 19:33:55.958
99.0, 15627.222135927932, 25664.22828009466, 40074.912020553595, 28601.13574279973, 28194.892787324523, 25576.67649706322, -187500.02235174447, -105229.91183160685, 0.168, 0.966, -0.04, 192.0, 0.0, 0.0, 0.0, 0.0, 0.0, 0.0, 0.0, 0.0, 0.0, 1.72969223596248E9, 0.0, 2024-10-23 19:33:55.962
100.0, 15637.52629012183, 25672.721942987675, 40086.13259627016, 28633.47871702656, 28212.95299684441, 25595.384907172313, -187500.02235174447, -105193.59024686698, 0.168, 0.966, -0.04, 192.0, 0.0, 0.0, 0.0, 0.0, 0.0, 0.0, 0.0, 0.0, 0.0, 1.729692235966411E9, 0.0, 2024-10-23 19:33:55.966
101.0, 15512.512983383296, 25706.428373626277, 40075.02377927587, 28571.542033140904, 28203.453505450907, 25586.93594776821, -187500.02235174447, -105194.59607536747, 0.168, 0.966, -0.04, 192.0, 0.0, 0.0, 0.0, 0.0, 0.0, 0.0, 0.0, 0.0, 0.0, 1.7296922359715092E9, 0.0, 2024-10-23 19:33:55.971
102.0, 15515.418710162487, 25717.984225509674, 40078.44359617753, 28548.40797762966, 28200.927758327456, 25581.884453521307, -187500.02235174447, -105234.62804968691, 0.168, 0.966, -0.04, 192.0, 0.0, 0.0, 0.0, 0.0, 0.0, 0.0, 0.0, 0.0, 0.0, 1.729692235975412E9, 0.0, 2024-10-23 19:33:55.975
103.0, 15580.37287954961, 25698.13587643336, 40080.231735733956, 28568.479844150526, 28187.762580843282, 25566.95348822516, -187500.02235174447, -105263.26063433418, 0.168, 0.966, -0.04, 192.0, 0.0, 0.0, 0.0, 0.0, 0.0, 0.0, 0.0, 0.0, 0.0, 1.7296922359793897E9, 0.0, 2024-10-23 19:33:55.979
104.0, 15626.529231849818, 25678.399286079322, 40076.387235687645, 28599.03467882093, 28165.075560221143, 25560.270316633025, -187500.02235174447, -105255.12459935244, 0.16, 0.966, -0.038, 192.0, 5.0, 0.0, 30.0, 48.0, 254.0, 208.0, 0.0, 0.0, 0.0, 1.729692235982426E9, 0.0, 2024-10-23 19:33:55.982
105.0, 15637.481586632919, 25680.90268145832, 40084.612677647194, 28620.224132564563, 28183.0016592743, 25535.526935521, -187500.02235174447, -105252.6435557179, 0.16, 0.966, -0.038, 192.0, 0.0, 0.0, 0.0, 0.0, 0.0, 0.0, 0.0, 0.0, 0.0, 1.7296922359863937E9, 0.0, 2024-10-23 19:33:55.986
106.0, 15518.391492175042, 25707.545960849046, 40087.69721838203, 28561.75196906948, 28204.638147907037, 25543.528860036, -187500.02235174447, -105264.33351806803, 0.16, 0.966, -0.038, 192.0, 0.0, 0.0, 0.0, 0.0, 0.0, 0.0, 0.0, 0.0, 0.0, 1.7296922359903972E9, 0.0, 2024-10-23 19:33:55.990
107.0, 15523.040655021747, 25710.630501583877, 40096.88378535316, 28551.850146275778, 28202.000642061314, 25587.91942452424, -187500.02235174447, -105263.66296573437, 0.16, 0.966, -0.038, 192.0, 0.0, 0.0, 0.0, 0.0, 0.0, 0.0, 0.0, 0.0, 0.0, 1.7296922359945068E9, 0.0, 2024-10-23 19:33:55.994
108.0, 15598.857772214149, 25694.738411276154, 40112.664116938606, 28585.310707725374, 28216.81984863518, 25592.836808304408, -187500.02235174447, -105279.26448336417, 0.16, 0.966, -0.038, 192.0, 0.0, 0.0, 0.0, 0.0, 0.0, 0.0, 0.0, 0.0, 0.0, 1.7296922359994094E9, 0.0, 2024-10-23 19:33:55.999
109.0, 15651.272612961844, 25671.157320875805, 40119.50375074193, 28618.257179052496, 28221.089031826144, 25580.476293620624, -187500.02235174447, -105286.57350380106, 0.16, 0.966, -0.038, 192.0, 0.0, 0.0, 0.0, 0.0, 0.0, 0.0, 0.0, 0.0, 0.0, 1.7296922360036983E9, 0.0, 2024-10-23 19:33:56.003
110.0, 15655.452389174985, 25666.374047562367, 40113.714648928006, 28634.216324593584, 28199.58665366014, 25566.417046358234, -187500.02235174447, -105272.6036635165, 0.16, 0.966, -0.038, 192.0, 0.0, 0.0, 0.0, 0.0, 0.0, 0.0, 0.0, 0.0, 0.0, 1.729692236007434E9, 0.0, 2024-10-23 19:33:56.007
111.0, 15531.131986514567, 25696.66066129931, 40100.68358191056, 28576.839396576812, 28193.708144868393, 25584.521959367034, -187500.02235174447, -105284.78536424463, 0.16, 0.966, -0.038, 192.0, 0.0, 0.0, 0.0, 0.0, 0.0, 0.0, 0.0, 0.0, 0.0, 1.729692236010418E9, 0.0, 2024-10-23 19:33:56.010
112.0, 15538.12808252908, 25711.211646939715, 40103.49990171193, 28560.433216146615, 28189.751886099803, 25594.87081704984, -187500.02235174447, -105347.75022837523, 0.16, 0.966, -0.038, 192.0, 0.0, 0.0, 0.0, 0.0, 0.0, 0.0, 0.0, 0.0, 0.0, 1.7296922360144303E9, 0.0, 2024-10-23 19:33:56.014
113.0, 15607.46319382944, 25698.784077022563, 40107.88084362517, 28586.22712924804, 28198.20084550391, 25585.527787867522, -187500.02235174447, -105394.42067079792, 0.16, 0.966, -0.038, 192.0, 0.0, 0.0, 0.0, 0.0, 0.0, 0.0, 0.0, 0.0, 0.0, 1.7296922360184133E9, 0.0, 2024-10-23 19:33:56.018
114.0, 15661.86733983366, 25687.496446072633, 40115.70395418453, 28627.756670446, 28212.10363055511, 25585.080752978418, -187500.02235174447, -105371.39837400895, 0.16, 0.966, -0.038, 192.0, 0.0, 0.0, 0.0, 0.0, 0.0, 0.0, 0.0, 0.0, 0.0, 1.7296922360244725E9, 0.0, 2024-10-23 19:33:56.024
115.0, 15669.735153881928, 25695.163094420805, 40118.07323909679, 28649.99665617903, 28208.88497935355, 25585.281918678513, -187500.02235174447, -105324.03502750814, 0.154, 0.96, -0.036000000000000004, 192.0, 4.0, 208.0, 30.0, 0.0, 254.0, 224.0, 0.0, 0.0, 0.0, 1.7296922360275376E9, 0.0, 2024-10-23 19:33:56.027
116.0, 15536.943440072948, 25722.499277889645, 40097.152006286626, 28579.722771611545, 28195.697450124917, 25586.44420939019, -187500.02235174447, -105320.19052746183, 0.154, 0.96, -0.036000000000000004, 192.0, 0.0, 0.0, 0.0, 0.0, 0.0, 0.0, 0.0, 0.0, 0.0, 1.7296922360316114E9, 0.0, 2024-10-23 19:33:56.031
117.0, 15539.35742847412, 25730.747071593654, 40102.62818367818, 28557.169861456143, 28201.374793216564, 25589.461694891655, -187500.02235174447, -105363.57526344959, 0.154, 0.96, -0.036000000000000004, 192.0, 0.0, 0.0, 0.0, 0.0, 0.0, 0.0, 0.0, 0.0, 0.0, 1.7296922360355155E9, 0.0, 2024-10-23 19:33:56.035
118.0, 15611.955894464958, 25712.95508300723, 40116.10628558473, 28578.783998344425, 28209.376717731564, 25586.10893322336, -187500.02235174447, -105397.81813595512, 0.154, 0.96, -0.036000000000000004, 192.0, 0.0, 0.0, 0.0, 0.0, 0.0, 0.0, 0.0, 0.0, 0.0, 1.729692236038477E9, 0.0, 2024-10-23 19:33:56.038
119.0, 15651.026743772834, 25675.873538955875, 40109.0654860813, 28596.732449142033, 28194.892787324523, 25562.751360267564, -187500.02235174447, -105382.48483925877, 0.154, 0.96, -0.036000000000000004, 192.0, 0.0, 0.0, 0.0, 0.0, 0.0, 0.0, 0.0, 0.0, 0.0, 1.7296922360424492E9, 0.0, 2024-10-23 19:33:56.042
120.0, 15650.66911586155, 25663.490672527634, 40102.65053542263, 28602.18627478913, 28183.58280463014, 25547.48511880459, -187500.02235174447, -105346.02914405217, 0.154, 0.96, -0.036000000000000004, 192.0, 0.0, 0.0, 0.0, 0.0, 0.0, 0.0, 0.0, 0.0, 0.0, 1.729692236046463E9, 0.0, 2024-10-23 19:33:56.046
121.0, 15520.470204409386, 25681.84145472544, 40087.83132884876, 28535.399262356674, 28175.62558360405, 25548.401540327257, -187500.02235174447, -105358.99315583624, 0.154, 0.96, -0.036000000000000004, 192.0, 0.0, 0.0, 0.0, 0.0, 0.0, 0.0, 0.0, 0.0, 0.0, 1.7296922360504744E9, 0.0, 2024-10-23 19:33:56.050
122.0, 15520.470204409386, 25681.08149541396, 40091.5640701728, 28513.293387090373, 28186.600290131606, 25556.023485186517, -187500.02235174447, -105385.99406313826, 0.154, 0.96, -0.036000000000000004, 192.0, 0.0, 0.0, 0.0, 0.0, 0.0, 0.0, 0.0, 0.0, 0.0, 1.7296922360544772E9, 0.0, 2024-10-23 19:33:56.054
123.0, 15601.495278059874, 25675.024172666574, 40112.79822740534, 28546.21750667304, 28205.085182796145, 25560.62794454431, -187500.02235174447, -105421.86861298903, 0.154, 0.96, -0.036000000000000004, 192.0, 0.0, 0.0, 0.0, 0.0, 0.0, 0.0, 0.0, 0.0, 0.0, 1.7296922360595033E9, 0.0, 2024-10-23 19:33:56.059
124.0, 15654.357153696676, 25657.187480591238, 40119.727268186485, 28584.707210625078, 28202.760601372793, 25571.692058049688, -187500.02235174447, -105435.05614221765, 0.154, 0.96, -0.036000000000000004, 192.0, 0.0, 0.0, 0.0, 0.0, 0.0, 0.0, 0.0, 0.0, 0.0, 1.729692236064669E9, 0.0, 2024-10-23 19:33:56.064
125.0, 15655.407685686076, 25651.286620055034, 40110.294832026346, 28601.09103931082, 28181.1017609956, 25562.30432537846, -187500.02235174447, -105414.04550242967, 0.15, 0.968, -0.04, 192.0, 4.0, 176.0, 30.0, 64.0, 254.0, 192.0, 0.0, 0.0, 0.0, 1.72969223606847E9, 0.0, 2024-10-23 19:33:56.068
126.0, 15526.639285879051, 25682.802579737017, 40093.285154495854, 28535.26515188994, 28175.446769648406, 25561.924345722717, -187500.02235174447, -105423.94732522337, 0.15, 0.968, -0.04, 192.0, 0.0, 0.0, 0.0, 0.0, 0.0, 0.0, 0.0, 0.0, 0.0, 1.7296922360715036E9, 0.0, 2024-10-23 19:33:56.071
127.0, 15528.293314968743, 25695.766591521096, 40097.37552373118, 28516.9814249255, 28187.762580843282, 25563.779540512507, -187500.02235174447, -105477.70327063839, 0.15, 0.968, -0.04, 192.0, 0.0, 0.0, 0.0, 0.0, 0.0, 0.0, 0.0, 0.0, 0.0, 1.729692236074546E9, 0.0, 2024-10-23 19:33:56.074
128.0, 15600.37769083711, 25687.496446072633, 40110.428942493076, 28548.45268111857, 28196.14448501402, 25558.683342776698, -187500.02235174447, -105496.67990168094, 0.15, 0.968, -0.04, 192.0, 0.0, 0.0, 0.0, 0.0, 0.0, 0.0, 0.0, 0.0, 0.0, 1.7296922360785103E9, 0.0, 2024-10-23 19:33:56.078
129.0, 15652.971345540447, 25675.851187211418, 40109.62427969269, 28586.875329837243, 28178.151330727498, 25550.748473495063, -187500.02235174447, -105465.94625305489, 0.15, 0.968, -0.04, 192.0, 0.0, 0.0, 0.0, 0.0, 0.0, 0.0, 0.0, 0.0, 0.0, 1.7296922360824904E9, 0.0, 2024-10-23 19:33:56.082
130.0, 15659.408647943575, 25678.108713401405, 40103.07521856728, 28608.08713532533, 28175.29030743722, 25554.10123516336, -187500.02235174447, -105425.44489210188, 0.15, 0.968, -0.04, 192.0, 0.0, 0.0, 0.0, 0.0, 0.0, 0.0, 0.0, 0.0, 0.0, 1.7296922360875063E9, 0.0, 2024-10-23 19:33:56.087
131.0, 15534.082416782669, 25709.89289401685, 40093.97805857397, 28547.60331482927, 28177.369019671565, 25559.510357321546, -187500.02235174447, -105407.98817968229, 0.15, 0.968, -0.04, 192.0, 0.0, 0.0, 0.0, 0.0, 0.0, 0.0, 0.0, 0.0, 0.0, 1.7296922360915449E9, 0.0, 2024-10-23 19:33:56.091
132.0, 15538.284544740267, 25719.95117902174, 40107.83614013626, 28533.70052977807, 28206.046307807723, 25559.77857825501, -187500.02235174447, -105431.0328282157, 0.15, 0.968, -0.04, 192.0, 0.0, 0.0, 0.0, 0.0, 0.0, 0.0, 0.0, 0.0, 0.0, 1.7296922360945363E9, 0.0, 2024-10-23 19:33:56.094
133.0, 15607.329083362709, 25700.840437512452, 40117.02270710739, 28561.08141673582, 28213.802363133713, 25562.505491078555, -187500.02235174447, -105436.7325230518, 0.15, 0.968, -0.04, 192.0, 0.0, 0.0, 0.0, 0.0, 0.0, 0.0, 0.0, 0.0, 0.0, 1.7296922360985243E9, 0.0, 2024-10-23 19:33:56.098
134.0, 15658.179301998533, 25684.27779487107, 40116.08393384027, 28595.436047963627, 28203.945243828923, 25563.466616090136, -187500.02235174447, -105437.3360201521, 0.15, 0.968, -0.04, 192.0, 0.0, 0.0, 0.0, 0.0, 0.0, 0.0, 0.0, 0.0, 0.0, 1.7296922361025376E9, 0.0, 2024-10-23 19:33:56.102
135.0, 15665.644784646605, 25684.478960571167, 40111.85945413822, 28619.106545341798, 28190.78006634475, 25555.30822936395, -187500.02235174447, -105427.81417701414, 0.154, 0.96, -0.04, 192.0, 4.0, 208.0, 30.0, 0.0, 254.0, 192.0, 0.0, 0.0, 0.0, 1.7296922361065447E9, 0.0, 2024-10-23 19:33:56.106
136.0, 15533.635381893562, 25708.395327138347, 40090.04415154984, 28556.36519865575, 28183.4039906745, 25564.651258546266, -187500.02235174447, -105443.48274987731, 0.154, 0.96, -0.04, 192.0, 0.0, 0.0, 0.0, 0.0, 0.0, 0.0, 0.0, 0.0, 0.0, 1.7296922361106503E9, 0.0, 2024-10-23 19:33:56.110
137.0, 15528.963867302404, 25705.690766059255, 40085.08206428076, 28534.25932338945, 28179.04540050571, 25566.34999112487, -187500.02235174447, -105483.4476689634, 0.154, 0.96, -0.04, 192.0, 0.0, 0.0, 0.0, 0.0, 0.0, 0.0, 0.0, 0.0, 0.0, 1.7296922361156497E9, 0.0, 2024-10-23 19:33:56.115
138.0, 15595.348548334665, 25679.04748666853, 40090.73705562795, 28557.058102733863, 28181.660554606984, 25567.37817136981, -187500.02235174447, -105499.36211101558, 0.154, 0.96, -0.04, 192.0, 0.0, 0.0, 0.0, 0.0, 0.0, 0.0, 0.0, 0.0, 0.0, 1.7296922361195908E9, 0.0, 2024-10-23 19:33:56.119
139.0, 15646.198766970489, 25648.492651998124, 40095.63208766367, 28590.876292094745, 28184.901557553003, 25558.236307887593, -187500.02235174447, -105470.70717462388, 0.154, 0.96, -0.04, 192.0, 0.0, 0.0, 0.0, 0.0, 0.0, 0.0, 0.0, 0.0, 0.0, 1.7296922361225784E9, 0.0, 2024-10-23 19:33:56.122
140.0, 15649.95386003898, 25636.31095126998, 40091.74288412844, 28607.528341713947, 28179.559490628184, 25556.783444497996, -187500.02235174447, -105434.60910732855, 0.154, 0.96, -0.04, 192.0, 0.0, 0.0, 0.0, 0.0, 0.0, 0.0, 0.0, 0.0, 0.0, 1.7296922361265552E9, 0.0, 2024-10-23 19:33:56.126
141.0, 15519.21850671989, 25652.158338088793, 40072.63214261915, 28544.585829327803, 28163.06390322017, 25553.095406662873, -187500.02235174447, -105447.640174346, 0.154, 0.96, -0.04, 192.0, 0.0, 0.0, 0.0, 0.0, 0.0, 0.0, 0.0, 0.0, 0.0, 1.7296922361305952E9, 0.0, 2024-10-23 19:33:56.130
142.0, 15515.016378762291, 25642.770605417565, 40067.49124139443, 28523.463430817537, 28158.70531305138, 25540.06433964543, -187500.02235174447, -105450.5459011252, 0.154, 0.96, -0.04, 192.0, 0.0, 0.0, 0.0, 0.0, 0.0, 0.0, 0.0, 0.0, 0.0, 1.729692236134611E9, 0.0, 2024-10-23 19:33:56.134
143.0, 15588.508914531341, 25620.240047006613, 40082.3104479683, 28558.287448678908, 28185.505054653295, 25570.86504350484, -187500.02235174447, -105458.79369482919, 0.154, 0.96, -0.04, 192.0, 0.0, 0.0, 0.0, 0.0, 0.0, 0.0, 0.0, 0.0, 0.0, 1.7296922361386635E9, 0.0, 2024-10-23 19:33:56.138
144.0, 15638.934450022514, 25590.02048850304, 40084.32210496928, 28599.7499346435, 28180.47591215085, 25583.15850295526, -187500.02235174447, -105423.94732522337, 0.154, 0.96, -0.04, 192.0, 0.0, 0.0, 0.0, 0.0, 0.0, 0.0, 0.0, 0.0, 0.0, 1.7296922361436172E9, 0.0, 2024-10-23 19:33:56.143
145.0, 15645.61762161465, 25584.320793666935, 40087.31723872629, 28626.52732450096, 28176.318487682165, 25576.743552296586, -187500.02235174447, -105366.59274895105, 0.16, 0.9580000000000001, -0.036000000000000004, 192.0, 5.0, 0.0, 29.0, 240.0, 254.0, 224.0, 0.0, 0.0, 0.0, 1.729692236147633E9, 0.0, 2024-10-23 19:33:56.147
146.0, 15521.923067798982, 25615.07679403744, 40079.69529386703, 28572.436102919117, 28176.13967372652, 25586.35480241237, -187500.02235174447, -105373.34297577656, 0.16, 0.9580000000000001, -0.036000000000000004, 192.0, 0.0, 0.0, 0.0, 0.0, 0.0, 0.0, 0.0, 0.0, 0.0, 1.72969223615063E9, 0.0, 2024-10-23 19:33:56.150
147.0, 15522.54891664373, 25618.474259194645, 40083.13746251315, 28558.30980042336, 28180.811188317683, 25596.614253117354, -187500.02235174447, -105387.73749920577, 0.16, 0.9580000000000001, -0.036000000000000004, 192.0, 0.0, 0.0, 0.0, 0.0, 0.0, 0.0, 0.0, 0.0, 0.0, 1.7296922361546347E9, 0.0, 2024-10-23 19:33:56.154
148.0, 15586.676071486007, 25590.15459896977, 40083.49509042443, 28574.537166897913, 28168.160100955978, 25566.81937775843, -187500.02235174447, -105428.68589504789, 0.16, 0.9580000000000001, -0.036000000000000004, 192.0, 0.0, 0.0, 0.0, 0.0, 0.0, 0.0, 0.0, 0.0, 0.0, 1.729692236158666E9, 0.0, 2024-10-23 19:33:56.158
149.0, 15632.832423786214, 25561.946697467174, 40082.91394506859, 28604.220283534563, 28174.48564463683, 25554.10123516336, -187500.02235174447, -105418.02411294272, 0.16, 0.9580000000000001, -0.036000000000000004, 192.0, 0.0, 0.0, 0.0, 0.0, 0.0, 0.0, 0.0, 0.0, 0.0, 1.7296922361626706E9, 0.0, 2024-10-23 19:33:56.162
150.0, 15639.85087154518, 25562.4831393341, 40089.55241317182, 28627.08611811234, 28190.33303145564, 25569.233366159602, -187500.02235174447, -105396.45467954334, 0.16, 0.9580000000000001, -0.036000000000000004, 192.0, 0.0, 0.0, 0.0, 0.0, 0.0, 0.0, 0.0, 0.0, 0.0, 1.7296922361666307E9, 0.0, 2024-10-23 19:33:56.166
151.0, 15517.296256696733, 25599.20705547417, 40084.94795381403, 28573.79955933089, 28189.1036855106, 25581.884453521307, -187500.02235174447, -105402.9813889243, 0.16, 0.9580000000000001, -0.036000000000000004, 192.0, 0.0, 0.0, 0.0, 0.0, 0.0, 0.0, 0.0, 0.0, 0.0, 1.7296922361706111E9, 0.0, 2024-10-23 19:33:56.170
