%OpenBCI Raw EXG Data
%Number of channels = 8
%Sample Rate = 250 Hz
%Board = OpenBCI_GUI$BoardCytonSerial
Sample Index, EXG Channel 0, EXG Channel 1, EXG Channel 2, EXG Channel 3, EXG Channel 4, EXG Channel 5, EXG Channel 6, EXG Channel 7, Accel Channel 0, Accel Channel 1, Accel Channel 2, Other, Other, Other, Other, Other, Other, Other, Analog Channel 0, Analog Channel 1, Analog Channel 2, Timestamp, Other, Timestamp (Formatted)
0.0, 0.0, 0.0, 0.0, 0.0, 0.0, 0.0, 0.0, 0.0, -0.134, 0.898, 0.318, 192.0, 251.0, 208.0, 28.0, 16.0, 9.0, 240.0, 0.0, 0.0, 0.0, 1.7297047495932665E9, 0.0, 2024-10-23 23:02:29.593
1.0, -47177.223524716326, -55395.311760343524, -17123.738482444107, -20959.38723795262, -17020.115795149304, -15297.578608701064, -187500.02235174447, -187500.02235174447, -0.134, 0.898, 0.318, 192.0, 0.0, 0.0, 0.0, 0.0, 0.0, 0.0, 0.0, 0.0, 0.0, 1.7297047496093197E9, 0.0, 2024-10-23 23:02:29.609
2.0, -47212.60633618908, -55482.304749763585, -16973.78062889345, -21087.820361592814, -17022.66389401721, -15326.680579981874, -187500.02235174447, -187500.02235174447, -0.134, 0.898, 0.318, 192.0, 0.0, 0.0, 0.0, 0.0, 0.0, 0.0, 0.0, 0.0, 0.0, 1.7297047496125562E9, 0.0, 2024-10-23 23:02:29.612
3.0, -47238.042621379216, -55537.7594277572, -16814.94913279404, -21199.75789782499, -17014.952542180126, -15334.637801007964, -187500.02235174447, -187500.02235174447, -0.134, 0.898, 0.318, 192.0, 0.0, 0.0, 0.0, 0.0, 0.0, 0.0, 0.0, 0.0, 0.0, 1.7297047496162748E9, 0.0, 2024-10-23 23:02:29.616
4.0, -47204.64911516299, -55483.98113059773, -16879.34450856978, -21130.22162082453, -17007.576466509876, -15318.321027555588, -187500.02235174447, -187500.02235174447, -0.134, 0.898, 0.318, 192.0, 0.0, 0.0, 0.0, 0.0, 0.0, 0.0, 0.0, 0.0, 0.0, 1.7297047496203208E9, 0.0, 2024-10-23 23:02:29.620
5.0, -47178.98931252829, -55421.23978391168, -16990.499733746023, -21013.053776389814, -16994.94773089263, -15281.463000948788, -187500.02235174447, -187500.02235174447, -0.134, 0.898, 0.318, 192.0, 0.0, 0.0, 0.0, 0.0, 0.0, 0.0, 0.0, 0.0, 0.0, 1.7297047496246006E9, 0.0, 2024-10-23 23:02:29.624
6.0, -47162.82900128711, -55378.279731068586, -17119.2904852975, -20935.493223129895, -16992.913722147194, -15272.768172355674, -187500.02235174447, -187500.02235174447, -0.134, 0.898, 0.318, 192.0, 0.0, 0.0, 0.0, 0.0, 0.0, 0.0, 0.0, 0.0, 0.0, 1.7297047496283264E9, 0.0, 2024-10-23 23:02:29.628
7.0, -47213.075722822636, -55477.186200283315, -16978.809771395896, -21069.31311718382, -17008.247018843536, -15317.248143821735, -187500.02235174447, -187500.02235174447, -0.134, 0.898, 0.318, 192.0, 0.0, 0.0, 0.0, 0.0, 0.0, 0.0, 0.0, 0.0, 0.0, 1.7297047496333117E9, 0.0, 2024-10-23 23:02:29.633
8.0, -47246.6033395056, -55543.548529571126, -16827.13083352218, -21192.38182215474, -17013.61143751281, -15340.695123755351, -187500.02235174447, -187500.02235174447, -0.132, 0.892, 0.336, 192.0, 251.0, 224.0, 27.0, 224.0, 10.0, 128.0, 0.0, 0.0, 0.0, 1.7297047496373403E9, 0.0, 2024-10-23 23:02:29.637
9.0, -47210.37116174355, -55487.2444852882, -16883.72545048302, -21122.353806776264, -17000.043928628438, -15321.60673399052, -187500.02235174447, -187500.02235174447, -0.132, 0.892, 0.336, 192.0, 0.0, 0.0, 0.0, 0.0, 0.0, 0.0, 0.0, 0.0, 0.0, 1.7297047496403544E9, 0.0, 2024-10-23 23:02:29.640
10.0, -47195.77547261423, -55433.332077662, -16994.83597217035, -21015.087785135245, -16988.5104284895, -15287.676785907363, -187500.02235174447, -187500.02235174447, -0.132, 0.892, 0.336, 192.0, 0.0, 0.0, 0.0, 0.0, 0.0, 0.0, 0.0, 0.0, 0.0, 1.7297047496443212E9, 0.0, 2024-10-23 23:02:29.644
11.0, -47174.36250142605, -55386.48282128368, -17117.547049229986, -20938.443653397997, -16992.734908191553, -15280.948910826315, -187500.02235174447, -187500.02235174447, -0.132, 0.892, 0.336, 192.0, 0.0, 0.0, 0.0, 0.0, 0.0, 0.0, 0.0, 0.0, 0.0, 1.7297047496484146E9, 0.0, 2024-10-23 23:02:29.648
12.0, -47195.68606563641, -55465.18331351082, -16956.167454262668, -21056.147939699644, -16991.684376202153, -15306.564009972099, -187500.02235174447, -187500.02235174447, -0.132, 0.892, 0.336, 192.0, 0.0, 0.0, 0.0, 0.0, 0.0, 0.0, 0.0, 0.0, 0.0, 1.7297047496523273E9, 0.0, 2024-10-23 23:02:29.652
13.0, -47231.06887710916, -55525.51067179569, -16806.768394323397, -21175.506255090982, -16994.210123325603, -15323.618390991496, -187500.02235174447, -187500.02235174447, -0.132, 0.892, 0.336, 192.0, 0.0, 0.0, 0.0, 0.0, 0.0, 0.0, 0.0, 0.0, 0.0, 1.729704749656449E9, 0.0, 2024-10-23 23:02:29.656
14.0, -47203.73269364032, -55471.8441333585, -16875.09767712327, -21111.736728159995, -16983.88361738725, -15309.02270186218, -187500.02235174447, -187500.02235174447, -0.132, 0.892, 0.336, 192.0, 0.0, 0.0, 0.0, 0.0, 0.0, 0.0, 0.0, 0.0, 0.0, 1.7297047496613536E9, 0.0, 2024-10-23 23:02:29.661
15.0, -47182.47618466332, -55413.68489428579, -16999.64159722824, -21006.817639686782, -16986.677585444162, -15282.245312004723, -187500.02235174447, -187500.02235174447, -0.132, 0.892, 0.336, 192.0, 0.0, 0.0, 0.0, 0.0, 0.0, 0.0, 0.0, 0.0, 0.0, 1.7297047496653595E9, 0.0, 2024-10-23 23:02:29.665
16.0, -47170.54035312419, -55373.33999554396, -17141.150491374792, -20935.068539985245, -16996.13237334876, -15280.010137559193, -187500.02235174447, -187500.02235174447, -0.132, 0.892, 0.336, 192.0, 0.0, 0.0, 0.0, 0.0, 0.0, 0.0, 0.0, 0.0, 0.0, 1.72970474966835E9, 0.0, 2024-10-23 23:02:29.668
17.0, -47219.222452547845, -55469.81012461307, -17009.833992699863, -21071.905919540637, -17011.778594467472, -15320.511498512209, -187500.02235174447, -187500.02235174447, -0.132, 0.892, 0.336, 192.0, 0.0, 0.0, 0.0, 0.0, 0.0, 0.0, 0.0, 0.0, 0.0, 1.7297047496723528E9, 0.0, 2024-10-23 23:02:29.672
18.0, -47252.25833085279, -55536.84300623453, -16860.077304849303, -21197.67918559065, -17017.724158492587, -15339.152853387935, -187500.02235174447, -187500.02235174447, -0.132, 0.888, 0.352, 192.0, 251.0, 224.0, 27.0, 192.0, 11.0, 0.0, 0.0, 0.0, 0.0, 1.7297047496763723E9, 0.0, 2024-10-23 23:02:29.676
19.0, -47221.3458682711, -55488.67499693335, -16926.64079983721, -21136.010722638457, -17014.863135202308, -15324.400702047433, -187500.02235174447, -187500.02235174447, -0.132, 0.888, 0.352, 192.0, 0.0, 0.0, 0.0, 0.0, 0.0, 0.0, 0.0, 0.0, 0.0, 1.7297047496803753E9, 0.0, 2024-10-23 23:02:29.680
20.0, -47207.95717334237, -55438.54003412009, -17052.27995542049, -21035.517279567397, -17029.525879564986, -15305.178201815868, -187500.02235174447, -187500.02235174447, -0.132, 0.888, 0.352, 192.0, 0.0, 0.0, 0.0, 0.0, 0.0, 0.0, 0.0, 0.0, 0.0, 1.7297047496863735E9, 0.0, 2024-10-23 23:02:29.686
21.0, -47186.8347748321, -55396.20583012174, -17177.0026894811, -20958.940203063514, -17014.79607996894, -15291.141306297935, -187500.02235174447, -187500.02235174447, -0.132, 0.888, 0.352, 192.0, 0.0, 0.0, 0.0, 0.0, 0.0, 0.0, 0.0, 0.0, 0.0, 1.7297047496893933E9, 0.0, 2024-10-23 23:02:29.689
22.0, -47219.60243220359, -55480.87423811844, -17023.4685568176, -21082.45594292354, -17004.670739730685, -15316.801108932628, -187500.02235174447, -187500.02235174447, -0.132, 0.888, 0.352, 192.0, 0.0, 0.0, 0.0, 0.0, 0.0, 0.0, 0.0, 0.0, 0.0, 1.729704749693395E9, 0.0, 2024-10-23 23:02:29.693
23.0, -47251.520723285765, -55543.63793654894, -16863.072438606316, -21205.43524091664, -17009.811640955406, -15334.347228330045, -187500.02235174447, -187500.02235174447, -0.132, 0.888, 0.352, 192.0, 0.0, 0.0, 0.0, 0.0, 0.0, 0.0, 0.0, 0.0, 0.0, 1.7297047496964064E9, 0.0, 2024-10-23 23:02:29.696
24.0, -47222.53051072723, -55493.70413943579, -16922.997465490993, -21143.699722731082, -17003.575504252374, -15319.259800822712, -187500.02235174447, -187500.02235174447, -0.132, 0.888, 0.352, 192.0, 0.0, 0.0, 0.0, 0.0, 0.0, 0.0, 0.0, 0.0, 0.0, 1.7297047497004108E9, 0.0, 2024-10-23 23:02:29.700
25.0, -47192.0874347791, -55421.35154263396, -17035.516147079008, -21023.290875350343, -16989.94094013464, -15276.92559682436, -187500.02235174447, -187500.02235174447, -0.132, 0.888, 0.352, 192.0, 0.0, 0.0, 0.0, 0.0, 0.0, 0.0, 0.0, 0.0, 0.0, 1.7297047497044086E9, 0.0, 2024-10-23 23:02:29.704
26.0, -47154.71531804983, -55332.57041365748, -17244.303792036033, -20897.13762964459, -16990.276216301467, -15256.093770992014, -187500.02235174447, -187500.02235174447, -0.132, 0.888, 0.352, 192.0, 0.0, 0.0, 0.0, 0.0, 0.0, 0.0, 0.0, 0.0, 0.0, 1.7297047497083943E9, 0.0, 2024-10-23 23:02:29.708
27.0, -47192.78033885722, -55442.49629288868, -17069.71431609563, -21045.039122705355, -16990.387975023743, -15296.483373222754, -187500.02235174447, -187500.02235174447, -0.132, 0.888, 0.352, 192.0, 0.0, 0.0, 0.0, 0.0, 0.0, 0.0, 0.0, 0.0, 0.0, 1.7297047497124248E9, 0.0, 2024-10-23 23:02:29.712
28.0, -47255.097002398616, -55577.32201544309, -16777.5099608314, -21259.884090409767, -17002.79319319644, -15336.56005103112, -187500.02235174447, -187500.02235174447, -0.128, 0.886, 0.354, 192.0, 252.0, 0.0, 27.0, 176.0, 11.0, 16.0, 0.0, 0.0, 0.0, 1.7297047497165017E9, 0.0, 2024-10-23 23:02:29.716
29.0, -47234.399287033, -55523.72253223926, -16831.08709229077, -21190.168999453665, -16991.818486668883, -15321.60673399052, -187500.02235174447, -187500.02235174447, -0.128, 0.886, 0.354, 192.0, 0.0, 0.0, 0.0, 0.0, 0.0, 0.0, 0.0, 0.0, 0.0, 1.7297047497214997E9, 0.0, 2024-10-23 23:02:29.721
30.0, -47189.360521955554, -55413.17080416332, -17015.064300902402, -21017.59118051424, -16980.88848363024, -15273.863407833984, -187500.02235174447, -187500.02235174447, -0.128, 0.886, 0.354, 192.0, 0.0, 0.0, 0.0, 0.0, 0.0, 0.0, 0.0, 0.0, 0.0, 1.72970474972444E9, 0.0, 2024-10-23 23:02:29.724
31.0, -47142.55596906614, -55316.92419253876, -17252.059847362023, -20870.382591531587, -16973.221835282067, -15245.856672031483, -187500.02235174447, -187500.02235174447, -0.128, 0.886, 0.354, 192.0, 0.0, 0.0, 0.0, 0.0, 0.0, 0.0, 0.0, 0.0, 0.0, 1.7297047497284212E9, 0.0, 2024-10-23 23:02:29.728
32.0, -47195.37314121403, -55437.9365370198, -17102.19140078919, -21028.185907386054, -16985.26942554348, -15294.762288899696, -187500.02235174447, -187500.02235174447, -0.128, 0.886, 0.354, 192.0, 0.0, 0.0, 0.0, 0.0, 0.0, 0.0, 0.0, 0.0, 0.0, 1.7297047497324426E9, 0.0, 2024-10-23 23:02:29.732
33.0, -47254.26998785377, -55568.87305603899, -16809.09297574675, -21251.502186239028, -16996.758222193508, -15336.89532719795, -187500.02235174447, -187500.02235174447, -0.128, 0.886, 0.354, 192.0, 0.0, 0.0, 0.0, 0.0, 0.0, 0.0, 0.0, 0.0, 0.0, 1.7297047497364688E9, 0.0, 2024-10-23 23:02:29.736
34.0, -47214.50623446778, -55499.87322090545, -16851.24836578946, -21174.9474614796, -16982.676623186664, -15311.056710607614, -187500.02235174447, -187500.02235174447, -0.128, 0.886, 0.354, 192.0, 0.0, 0.0, 0.0, 0.0, 0.0, 0.0, 0.0, 0.0, 0.0, 1.729704749740513E9, 0.0, 2024-10-23 23:02:29.740
35.0, -47185.00193178677, -55403.00076043615, -17049.441283874665, -21012.696148478528, -16978.675660929162, -15268.901320564906, -187500.02235174447, -187500.02235174447, -0.128, 0.886, 0.354, 192.0, 0.0, 0.0, 0.0, 0.0, 0.0, 0.0, 0.0, 0.0, 0.0, 1.729704749744513E9, 0.0, 2024-10-23 23:02:29.744
36.0, -47160.705585563854, -55321.573355385466, -17304.251170665168, -20886.408792306043, -16986.07408834387, -15253.54567212411, -187500.02235174447, -187500.02235174447, -0.128, 0.886, 0.354, 192.0, 0.0, 0.0, 0.0, 0.0, 0.0, 0.0, 0.0, 0.0, 0.0, 1.7297047497494748E9, 0.0, 2024-10-23 23:02:29.749
37.0, -47210.50527221028, -55441.043429499085, -17154.226261881144, -21042.222802903987, -17002.770841451984, -15301.26664653619, -187500.02235174447, -187500.02235174447, -0.128, 0.886, 0.354, 192.0, 0.0, 0.0, 0.0, 0.0, 0.0, 0.0, 0.0, 0.0, 0.0, 1.7297047497524755E9, 0.0, 2024-10-23 23:02:29.752
38.0, -47268.88802872754, -55576.673814853886, -16856.724543181008, -21264.980288145576, -17010.392786311244, -15340.22573712179, -187500.02235174447, -187500.02235174447, -0.128, 0.888, 0.36, 192.0, 252.0, 0.0, 27.0, 192.0, 11.0, 64.0, 0.0, 0.0, 0.0, 1.7297047497564611E9, 0.0, 2024-10-23 23:02:29.756
39.0, -47235.40511553349, -55512.010218144685, -16899.72929951302, -21190.70544132059, -16997.808754182908, -15315.616466476496, -187500.02235174447, -187500.02235174447, -0.128, 0.888, 0.36, 192.0, 0.0, 0.0, 0.0, 0.0, 0.0, 0.0, 0.0, 0.0, 0.0, 1.7297047497606068E9, 0.0, 2024-10-23 23:02:29.760
40.0, -47198.23416450431, -55406.73350176019, -17087.975691315616, -21022.866192205693, -16986.92345463317, -15266.442628674822, -187500.02235174447, -187500.02235174447, -0.128, 0.888, 0.36, 192.0, 0.0, 0.0, 0.0, 0.0, 0.0, 0.0, 0.0, 0.0, 0.0, 1.7297047497644813E9, 0.0, 2024-10-23 23:02:29.764
41.0, -47162.51607686473, -55314.53255588205, -17326.71467384275, -20884.50889402734, -16987.817524411385, -15245.029657486637, -187500.02235174447, -187500.02235174447, -0.128, 0.888, 0.36, 192.0, 0.0, 0.0, 0.0, 0.0, 0.0, 0.0, 0.0, 0.0, 0.0, 1.7297047497685125E9, 0.0, 2024-10-23 23:02:29.768
42.0, -47202.34688548409, -55427.431217125806, -17163.122256174356, -21031.58337254326, -17001.541495506943, -15289.710794652796, -187500.02235174447, -187500.02235174447, -0.128, 0.888, 0.36, 192.0, 0.0, 0.0, 0.0, 0.0, 0.0, 0.0, 0.0, 0.0, 0.0, 1.7297047497725153E9, 0.0, 2024-10-23 23:02:29.772
43.0, -47257.5556942887, -55560.7146693128, -16851.449531489558, -21252.865642650802, -17013.074995645882, -15330.435673050366, -187500.02235174447, -187500.02235174447, -0.128, 0.888, 0.36, 192.0, 0.0, 0.0, 0.0, 0.0, 0.0, 0.0, 0.0, 0.0, 0.0, 1.7297047497774978E9, 0.0, 2024-10-23 23:02:29.777
44.0, -47224.58687121712, -55500.7002354503, -16885.021851661426, -21183.932862750633, -16997.540533249445, -15308.910943139905, -187500.02235174447, -187500.02235174447, -0.128, 0.888, 0.36, 192.0, 0.0, 0.0, 0.0, 0.0, 0.0, 0.0, 0.0, 0.0, 0.0, 1.729704749780538E9, 0.0, 2024-10-23 23:02:29.780
45.0, -47184.979580042316, -55396.42934756629, -17060.95243226915, -21015.78068921336, -16982.006070853004, -15260.653526860897, -187500.02235174447, -187500.02235174447, -0.128, 0.888, 0.36, 192.0, 0.0, 0.0, 0.0, 0.0, 0.0, 0.0, 0.0, 0.0, 0.0, 1.729704749783534E9, 0.0, 2024-10-23 23:02:29.783
46.0, -47155.27411166121, -55313.102044236904, -17294.528161827107, -20882.027850392802, -16981.670794686175, -15239.911108006372, -187500.02235174447, -187500.02235174447, -0.128, 0.888, 0.36, 192.0, 0.0, 0.0, 0.0, 0.0, 0.0, 0.0, 0.0, 0.0, 0.0, 1.7297047497885334E9, 0.0, 2024-10-23 23:02:29.788
47.0, -47201.76574012825, -55432.19213869479, -17134.221450593646, -21034.48909932245, -16995.908855904207, -15287.050937062615, -187500.02235174447, -187500.02235174447, -0.128, 0.888, 0.36, 192.0, 0.0, 0.0, 0.0, 0.0, 0.0, 0.0, 0.0, 0.0, 0.0, 1.7297047497925448E9, 0.0, 2024-10-23 23:02:29.792
48.0, -47254.672319253965, -55567.174323460385, -16817.89956306214, -21257.53715724196, -17007.08472813186, -15329.720417227796, -187500.02235174447, -187500.02235174447, -0.122, 0.896, 0.358, 192.0, 252.0, 48.0, 28.0, 0.0, 11.0, 48.0, 0.0, 0.0, 0.0, 1.7297047497966113E9, 0.0, 2024-10-23 23:02:29.796
49.0, -47222.016420604756, -55504.388273285425, -16843.29114476337, -21187.41973488566, -16987.70576568911, -15305.625236704975, -187500.02235174447, -187500.02235174447, -0.122, 0.896, 0.358, 192.0, 0.0, 0.0, 0.0, 0.0, 0.0, 0.0, 0.0, 0.0, 0.0, 1.7297047498005955E9, 0.0, 2024-10-23 23:02:29.800
50.0, -47189.137004511, -55405.9288389598, -17022.932114950672, -21026.10719515171, -16982.341347019836, -15265.25798621869, -187500.02235174447, -187500.02235174447, -0.122, 0.896, 0.358, 192.0, 0.0, 0.0, 0.0, 0.0, 0.0, 0.0, 0.0, 0.0, 0.0, 1.7297047498057528E9, 0.0, 2024-10-23 23:02:29.805
51.0, -47141.86306498803, -55314.510204137594, -17245.51078623662, -20885.04533589427, -16975.769934149976, -15237.430064371832, -187500.02235174447, -187500.02235174447, -0.122, 0.896, 0.358, 192.0, 0.0, 0.0, 0.0, 0.0, 0.0, 0.0, 0.0, 0.0, 0.0, 1.729704749808584E9, 0.0, 2024-10-23 23:02:29.808
52.0, -47199.46351044936, -55434.404961395856, -17097.832810620406, -21037.216012146, -16993.83014366986, -15289.911960352894, -187500.02235174447, -187500.02235174447, -0.122, 0.896, 0.358, 192.0, 0.0, 0.0, 0.0, 0.0, 0.0, 0.0, 0.0, 0.0, 0.0, 1.7297047498116293E9, 0.0, 2024-10-23 23:02:29.811
53.0, -47257.44393556642, -55569.7671258172, -16790.22810342647, -21265.15910210122, -17001.630902484765, -15336.448292308844, -187500.02235174447, -187500.02235174447, -0.122, 0.896, 0.358, 192.0, 0.0, 0.0, 0.0, 0.0, 0.0, 0.0, 0.0, 0.0, 0.0, 1.7297047498165848E9, 0.0, 2024-10-23 23:02:29.816
54.0, -47225.7491619288, -55511.6525902334, -16828.04725504485, -21196.651005345706, -16991.706727946606, -15316.21996357679, -187500.02235174447, -187500.02235174447, -0.122, 0.896, 0.358, 192.0, 0.0, 0.0, 0.0, 0.0, 0.0, 0.0, 0.0, 0.0, 0.0, 1.7297047498206105E9, 0.0, 2024-10-23 23:02:29.820
55.0, -47197.78712961521, -55415.048350697565, -17019.22172537109, -21033.416215588597, -16987.906931389207, -15273.215207244779, -187500.02235174447, -187500.02235174447, -0.122, 0.896, 0.358, 192.0, 0.0, 0.0, 0.0, 0.0, 0.0, 0.0, 0.0, 0.0, 0.0, 1.7297047498245778E9, 0.0, 2024-10-23 23:02:29.824
56.0, -47171.277960691215, -55330.71521886769, -17261.402876544344, -20899.23869362339, -16982.02842259746, -15250.081151733537, -187500.02235174447, -187500.02235174447, -0.122, 0.896, 0.358, 192.0, 0.0, 0.0, 0.0, 0.0, 0.0, 0.0, 0.0, 0.0, 0.0, 1.729704749828653E9, 0.0, 2024-10-23 23:02:29.828
57.0, -47225.61505146206, -55445.11144698995, -17118.06113935246, -21044.279163393876, -16996.847629171327, -15296.438669733843, -187500.02235174447, -187500.02235174447, -0.122, 0.896, 0.358, 192.0, 0.0, 0.0, 0.0, 0.0, 0.0, 0.0, 0.0, 0.0, 0.0, 1.7297047498336666E9, 0.0, 2024-10-23 23:02:29.833
58.0, -47293.02791273927, -55588.81081209312, -16825.163880010114, -21277.340802829363, -17023.580315539875, -15347.758275003229, -187500.02235174447, -187500.02235174447, -0.12, 0.89, 0.358, 192.0, 252.0, 64.0, 27.0, 208.0, 11.0, 48.0, 0.0, 0.0, 0.0, 1.7297047498366387E9, 0.0, 2024-10-23 23:02:29.836
59.0, -47255.47698205435, -55523.6554770059, -16859.071476348814, -21200.271987947464, -16996.73587044905, -15315.46000426531, -187500.02235174447, -187500.02235174447, -0.12, 0.89, 0.358, 192.0, 0.0, 0.0, 0.0, 0.0, 0.0, 0.0, 0.0, 0.0, 0.0, 1.7297047498397331E9, 0.0, 2024-10-23 23:02:29.839
60.0, -47217.99310660281, -55416.724731531714, -17044.568603583408, -21024.58727652875, -16982.229588297556, -15261.413486172378, -187500.02235174447, -187500.02235174447, -0.12, 0.89, 0.358, 192.0, 0.0, 0.0, 0.0, 0.0, 0.0, 0.0, 0.0, 0.0, 0.0, 1.72970474984463E9, 0.0, 2024-10-23 23:02:29.844
61.0, -47183.370254441536, -55328.41298918879, -17290.571903058517, -20889.091001640678, -16988.5104284895, -15241.676895818342, -187500.02235174447, -187500.02235174447, -0.12, 0.89, 0.358, 192.0, 0.0, 0.0, 0.0, 0.0, 0.0, 0.0, 0.0, 0.0, 0.0, 1.72970474984867E9, 0.0, 2024-10-23 23:02:29.848
62.0, -47225.61505146206, -55439.41175215385, -17145.57613677694, -21031.695131265536, -16999.4627832726, -15283.653471905409, -187500.02235174447, -187500.02235174447, -0.12, 0.89, 0.358, 192.0, 0.0, 0.0, 0.0, 0.0, 0.0, 0.0, 0.0, 0.0, 0.0, 1.7297047498526478E9, 0.0, 2024-10-23 23:02:29.852
63.0, -47280.73445328885, -55578.59606487704, -16839.848976117253, -21259.995849132043, -17008.55994326591, -15325.831213692572, -187500.02235174447, -187500.02235174447, -0.12, 0.89, 0.358, 192.0, 0.0, 0.0, 0.0, 0.0, 0.0, 0.0, 0.0, 0.0, 0.0, 1.7297047498568823E9, 0.0, 2024-10-23 23:02:29.856
64.0, -47248.950272673406, -55519.36394207048, -16883.92661618312, -21195.37695591175, -17006.905914176215, -15310.810841418606, -187500.02235174447, -187500.02235174447, -0.12, 0.89, 0.358, 192.0, 0.0, 0.0, 0.0, 0.0, 0.0, 0.0, 0.0, 0.0, 0.0, 1.7297047498607528E9, 0.0, 2024-10-23 23:02:29.860
65.0, -47210.37116174355, -55413.215507652225, -17072.17300798571, -21025.280180606864, -16995.50652450401, -15265.459151918789, -187500.02235174447, -187500.02235174447, -0.12, 0.89, 0.358, 192.0, 0.0, 0.0, 0.0, 0.0, 0.0, 0.0, 0.0, 0.0, 0.0, 1.7297047498646538E9, 0.0, 2024-10-23 23:02:29.864
66.0, -47179.19047822839, -55326.267221721086, -17319.606819105964, -20895.32713834371, -16999.88746641725, -15250.036448244626, -187500.02235174447, -187500.02235174447, -0.12, 0.89, 0.358, 192.0, 0.0, 0.0, 0.0, 0.0, 0.0, 0.0, 0.0, 0.0, 0.0, 1.7297047498677225E9, 0.0, 2024-10-23 23:02:29.867
67.0, -47218.75306591429, -55434.11438871794, -17178.723773804162, -21033.036235932857, -17007.375300809777, -15292.907094109905, -187500.02235174447, -187500.02235174447, -0.12, 0.89, 0.358, 192.0, 0.0, 0.0, 0.0, 0.0, 0.0, 0.0, 0.0, 0.0, 0.0, 1.7297047498729112E9, 0.0, 2024-10-23 23:02:29.872
68.0, -47261.84722922411, -55567.82252404959, -16866.447552019068, -21256.48662525256, -17016.539516036453, -15335.50951904172, -187500.02235174447, -187500.02235174447, -0.128, 0.89, 0.36, 192.0, 252.0, 0.0, 27.0, 208.0, 11.0, 64.0, 0.0, 0.0, 0.0, 1.729704749876788E9, 0.0, 2024-10-23 23:02:29.876
69.0, -47226.419714262454, -55507.36105529798, -16901.785660002908, -21187.039755229922, -16996.400594282222, -15309.112108840003, -187500.02235174447, -187500.02235174447, -0.128, 0.89, 0.36, 192.0, 0.0, 0.0, 0.0, 0.0, 0.0, 0.0, 0.0, 0.0, 0.0, 1.7297047498807712E9, 0.0, 2024-10-23 23:02:29.880
70.0, -47191.50628942326, -55409.46041458374, -17094.2341797631, -21020.228686359966, -16985.917626132683, -15261.569948383565, -187500.02235174447, -187500.02235174447, -0.128, 0.89, 0.36, 192.0, 0.0, 0.0, 0.0, 0.0, 0.0, 0.0, 0.0, 0.0, 0.0, 1.7297047498856893E9, 0.0, 2024-10-23 23:02:29.885
71.0, -47158.87274251851, -55325.86489032089, -17339.075188526534, -20882.474885281907, -16981.78255340845, -15238.905279505883, -187500.02235174447, -187500.02235174447, -0.128, 0.89, 0.36, 192.0, 0.0, 0.0, 0.0, 0.0, 0.0, 0.0, 0.0, 0.0, 0.0, 1.729704749888742E9, 0.0, 2024-10-23 23:02:29.888
72.0, -47202.07866455062, -55438.048295742075, -17205.747032850628, -21020.854535204715, -16993.561922736397, -15283.094678294025, -187500.02235174447, -187500.02235174447, -0.128, 0.89, 0.36, 192.0, 0.0, 0.0, 0.0, 0.0, 0.0, 0.0, 0.0, 0.0, 0.0, 1.7297047498937953E9, 0.0, 2024-10-23 23:02:29.893
73.0, -47261.511953057285, -55581.211218978315, -16901.20451464707, -21252.15038682823, -17003.262579830003, -15324.445405536344, -187500.02235174447, -187500.02235174447, -0.128, 0.89, 0.36, 192.0, 0.0, 0.0, 0.0, 0.0, 0.0, 0.0, 0.0, 0.0, 0.0, 1.7297047498988736E9, 0.0, 2024-10-23 23:02:29.898
74.0, -47220.11652232606, -55512.569011756066, -16929.077139982837, -21170.790037010913, -16978.720364418074, -15291.208361531302, -187500.02235174447, -187500.02235174447, -0.128, 0.89, 0.36, 192.0, 0.0, 0.0, 0.0, 0.0, 0.0, 0.0, 0.0, 0.0, 0.0, 1.7297047499018283E9, 0.0, 2024-10-23 23:02:29.901
75.0, -47186.164222498446, -55408.96867620572, -17122.866764410348, -21000.000357627912, -16967.678602657154, -15243.241517930213, -187500.02235174447, -187500.02235174447, -0.128, 0.89, 0.36, 192.0, 0.0, 0.0, 0.0, 0.0, 0.0, 0.0, 0.0, 0.0, 0.0, 1.7297047499047213E9, 0.0, 2024-10-23 23:02:29.904
76.0, -47161.10791696405, -55321.03691351854, -17376.559063978086, -20864.817007162215, -16969.377335235757, -15224.555459565576, -187500.02235174447, -187500.02235174447, -0.128, 0.89, 0.36, 192.0, 0.0, 0.0, 0.0, 0.0, 0.0, 0.0, 0.0, 0.0, 0.0, 1.7297047499078455E9, 0.0, 2024-10-23 23:02:29.907
77.0, -47205.47612970783, -55423.13968219038, -17242.046265846046, -21000.067412861277, -16972.417172481677, -15261.011154772183, -187500.02235174447, -187500.02235174447, -0.128, 0.89, 0.36, 192.0, 0.0, 0.0, 0.0, 0.0, 0.0, 0.0, 0.0, 0.0, 0.0, 1.7297047499117002E9, 0.0, 2024-10-23 23:02:29.911
78.0, -47258.76268848928, -55563.396878647436, -16930.753520816987, -21227.362302227295, -16980.217931296578, -15303.16654481489, -187500.02235174447, -187500.02235174447, -0.132, 0.894, 0.352, 192.0, 251.0, 224.0, 27.0, 240.0, 11.0, 0.0, 0.0, 0.0, 0.0, 1.729704749916819E9, 0.0, 2024-10-23 23:02:29.916
79.0, -47227.0455631072, -55508.36688379847, -16970.31610850288, -21165.17974915263, -16975.16643704968, -15288.570855685575, -187500.02235174447, -187500.02235174447, -0.132, 0.894, 0.352, 192.0, 0.0, 0.0, 0.0, 0.0, 0.0, 0.0, 0.0, 0.0, 0.0, 1.729704749920906E9, 0.0, 2024-10-23 23:02:29.920
80.0, -47191.260420234255, -55404.408920336835, -17162.518759074064, -20996.759354681893, -16967.008050323493, -15242.481558618732, -187500.02235174447, -187500.02235174447, -0.132, 0.894, 0.352, 192.0, 0.0, 0.0, 0.0, 0.0, 0.0, 0.0, 0.0, 0.0, 0.0, 1.7297047499249325E9, 0.0, 2024-10-23 23:02:29.924
81.0, -47159.25272217426, -55315.627791360355, -17414.15469815191, -20861.08426583818, -16971.388992236734, -15225.427177599333, -187500.02235174447, -187500.02235174447, -0.132, 0.894, 0.352, 192.0, 0.0, 0.0, 0.0, 0.0, 0.0, 0.0, 0.0, 0.0, 0.0, 1.7297047499287405E9, 0.0, 2024-10-23 23:02:29.928
82.0, -47213.410998989464, -55430.47105437172, -17296.60687406145, -21002.749622195915, -16996.26648381549, -15276.255044490701, -187500.02235174447, -187500.02235174447, -0.132, 0.894, 0.352, 192.0, 0.0, 0.0, 0.0, 0.0, 0.0, 0.0, 0.0, 0.0, 0.0, 1.7297047499317625E9, 0.0, 2024-10-23 23:02:29.931
83.0, -47287.75290104782, -55584.58633239107, -16993.383108780756, -21249.378770515774, -17011.018635155993, -15323.439577035855, -187500.02235174447, -187500.02235174447, -0.132, 0.894, 0.352, 192.0, 0.0, 0.0, 0.0, 0.0, 0.0, 0.0, 0.0, 0.0, 0.0, 1.7297047499357576E9, 0.0, 2024-10-23 23:02:29.935
84.0, -47255.231112865345, -55528.21523287478, -17025.055530673926, -21188.49261861952, -17003.284931574457, -15304.239428548746, -187500.02235174447, -187500.02235174447, -0.132, 0.894, 0.352, 192.0, 0.0, 0.0, 0.0, 0.0, 0.0, 0.0, 0.0, 0.0, 0.0, 1.7297047499399796E9, 0.0, 2024-10-23 23:02:29.939
85.0, -47208.672429164944, -55423.1843856793, -17202.774250838072, -21021.055700904813, -16991.59496922433, -15256.272584947657, -187500.02235174447, -187500.02235174447, -0.132, 0.894, 0.352, 192.0, 0.0, 0.0, 0.0, 0.0, 0.0, 0.0, 0.0, 0.0, 0.0, 1.729704749944762E9, 0.0, 2024-10-23 23:02:29.944
86.0, -47176.41886191593, -55331.67634387927, -17446.117692723, -20887.392269062075, -17000.714480962095, -15239.128796950436, -187500.02235174447, -187500.02235174447, -0.132, 0.894, 0.352, 192.0, 0.0, 0.0, 0.0, 0.0, 0.0, 0.0, 0.0, 0.0, 0.0, 1.7297047499489465E9, 0.0, 2024-10-23 23:02:29.948
87.0, -47223.78220841673, -55444.262080700646, -17312.364853902443, -21024.654331762118, -17013.85730670182, -15285.26279750619, -187500.02235174447, -187500.02235174447, -0.132, 0.894, 0.352, 192.0, 0.0, 0.0, 0.0, 0.0, 0.0, 0.0, 0.0, 0.0, 0.0, 1.7297047499529345E9, 0.0, 2024-10-23 23:02:29.952
88.0, -47284.35543589061, -55591.71653887231, -16982.386050508743, -21264.600308489837, -17013.61143751281, -15332.737902729263, -187500.02235174447, -187500.02235174447, -0.128, 0.896, 0.352, 192.0, 252.0, 0.0, 28.0, 0.0, 11.0, 0.0, 0.0, 0.0, 0.0, 1.7297047499569523E9, 0.0, 2024-10-23 23:02:29.956
89.0, -47252.63831050853, -55535.61366028949, -17002.837896685352, -21203.28947344893, -17001.87677167377, -15312.040187363647, -187500.02235174447, -187500.02235174447, -0.128, 0.896, 0.352, 192.0, 0.0, 0.0, 0.0, 0.0, 0.0, 0.0, 0.0, 0.0, 0.0, 1.7297047499598987E9, 0.0, 2024-10-23 23:02:29.959
90.0, -47203.46447270685, -55421.17272867832, -17171.168884178267, -21025.749567240426, -16979.88265512975, -15248.628288343942, -187500.02235174447, -187500.02235174447, -0.128, 0.896, 0.352, 192.0, 0.0, 0.0, 0.0, 0.0, 0.0, 0.0, 0.0, 0.0, 0.0, 1.7297047499638672E9, 0.0, 2024-10-23 23:02:29.963
91.0, -47175.390681670986, -55331.27401247907, -17410.131384149958, -20888.308690584745, -16984.46476274309, -15231.506852091177, -187500.02235174447, -187500.02235174447, -0.128, 0.896, 0.352, 192.0, 0.0, 0.0, 0.0, 0.0, 0.0, 0.0, 0.0, 0.0, 0.0, 1.729704749969957E9, 0.0, 2024-10-23 23:02:29.969
92.0, -47215.48971122381, -55433.80146429557, -17275.149199384356, -21021.279218349366, -16999.41807978369, -15279.361936969988, -187500.02235174447, -187500.02235174447, -0.128, 0.896, 0.352, 192.0, 0.0, 0.0, 0.0, 0.0, 0.0, 0.0, 0.0, 0.0, 0.0, 1.7297047499728343E9, 0.0, 2024-10-23 23:02:29.972
93.0, -47278.38752012105, -55584.496925413245, -16948.54550940341, -21264.220328834097, -17013.343216579346, -15332.380274817977, -187500.02235174447, -187500.02235174447, -0.128, 0.896, 0.352, 192.0, 0.0, 0.0, 0.0, 0.0, 0.0, 0.0, 0.0, 0.0, 0.0, 1.7297047499769497E9, 0.0, 2024-10-23 23:02:29.976
94.0, -47245.17282786046, -55528.37169508597, -16969.60085268031, -21203.53534263794, -17004.38016705277, -15318.924524655882, -187500.02235174447, -187500.02235174447, -0.128, 0.896, 0.352, 192.0, 0.0, 0.0, 0.0, 0.0, 0.0, 0.0, 0.0, 0.0, 0.0, 1.7297047499808664E9, 0.0, 2024-10-23 23:02:29.980
95.0, -47199.91054533846, -55417.26117339864, -17144.05621815398, -21027.82827947477, -16992.913722147194, -15267.537864153132, -187500.02235174447, -187500.02235174447, -0.128, 0.896, 0.352, 192.0, 0.0, 0.0, 0.0, 0.0, 0.0, 0.0, 0.0, 0.0, 0.0, 1.7297047499848547E9, 0.0, 2024-10-23 23:02:29.984
96.0, -47171.16620196894, -55333.82211134698, -17384.113953603977, -20892.89079819808, -16987.594006966832, -15246.750741809696, -187500.02235174447, -187500.02235174447, -0.128, 0.896, 0.352, 192.0, 0.0, 0.0, 0.0, 0.0, 0.0, 0.0, 0.0, 0.0, 0.0, 1.7297047499878368E9, 0.0, 2024-10-23 23:02:29.987
97.0, -47218.61895544755, -55441.13283647691, -17254.540890996563, -21021.458032305007, -16994.612454725797, -15285.665128906385, -187500.02235174447, -187500.02235174447, -0.128, 0.896, 0.352, 192.0, 0.0, 0.0, 0.0, 0.0, 0.0, 0.0, 0.0, 0.0, 0.0, 1.7297047499928985E9, 0.0, 2024-10-23 23:02:29.992
98.0, -47285.428319624465, -55596.81273660812, -16936.028532508437, -21272.69163998266, -17010.54924852243, -15337.856452209528, -187500.02235174447, -187500.02235174447, -0.132, 0.898, 0.36, 192.0, 251.0, 224.0, 28.0, 16.0, 11.0, 64.0, 0.0, 0.0, 0.0, 1.7297047499968717E9, 0.0, 2024-10-23 23:02:29.996
99.0, -47244.032888893234, -55530.91979395387, -16952.322954216357, -21205.368185683274, -16987.906931389207, -15310.944951885338, -187500.02235174447, -187500.02235174447, -0.132, 0.898, 0.36, 192.0, 0.0, 0.0, 0.0, 0.0, 0.0, 0.0, 0.0, 0.0, 0.0, 1.729704749999925E9, 0.0, 2024-10-23 23:02:29.999
100.0, -47192.62387664603, -55410.24272563967, -17127.04654062349, -21022.01682591639, -16965.68929740063, -15249.008267999681, -187500.02235174447, -187500.02235174447, -0.132, 0.898, 0.36, 192.0, 0.0, 0.0, 0.0, 0.0, 0.0, 0.0, 0.0, 0.0, 0.0, 1.7297047500050747E9, 0.0, 2024-10-23 23:02:30.005
101.0, -47170.495649635275, -55325.23904147614, -17384.225712326253, -20885.09003938318, -16974.585291693842, -15234.658448059376, -187500.02235174447, -187500.02235174447, -0.132, 0.898, 0.36, 192.0, 0.0, 0.0, 0.0, 0.0, 0.0, 0.0, 0.0, 0.0, 0.0, 1.7297047500089765E9, 0.0, 2024-10-23 23:02:30.008
102.0, -47225.68210669543, -55429.934612504796, -17275.059792406537, -21019.178154370566, -16999.753355950517, -15281.798277115617, -187500.02235174447, -187500.02235174447, -0.132, 0.898, 0.36, 192.0, 0.0, 0.0, 0.0, 0.0, 0.0, 0.0, 0.0, 0.0, 0.0, 1.7297047500130396E9, 0.0, 2024-10-23 23:02:30.013
103.0, -47286.92588650297, -55581.23357072277, -16954.893404828716, -21266.567262001903, -17005.944789164638, -15325.384178803466, -187500.02235174447, -187500.02235174447, -0.132, 0.898, 0.36, 192.0, 0.0, 0.0, 0.0, 0.0, 0.0, 0.0, 0.0, 0.0, 0.0, 1.729704750016938E9, 0.0, 2024-10-23 23:02:30.016
104.0, -47246.51393252778, -55517.79931995861, -16976.440486483632, -21198.975586769055, -16980.26263478549, -15291.051899320115, -187500.02235174447, -187500.02235174447, -0.132, 0.898, 0.36, 192.0, 0.0, 0.0, 0.0, 0.0, 0.0, 0.0, 0.0, 0.0, 0.0, 1.729704750020074E9, 0.0, 2024-10-23 23:02:30.020
105.0, -47212.89690886699, -55414.690722786276, -17169.313689388477, -21031.82924173227, -16978.474495229068, -15247.622459843453, -187500.02235174447, -187500.02235174447, -0.132, 0.898, 0.36, 192.0, 0.0, 0.0, 0.0, 0.0, 0.0, 0.0, 0.0, 0.0, 0.0, 1.7297047500239384E9, 0.0, 2024-10-23 23:02:30.023
106.0, -47183.012626530246, -55328.27887872206, -17420.077910432567, -20894.813048221236, -16982.11782957528, -15228.15409042288, -187500.02235174447, -187500.02235174447, -0.132, 0.898, 0.36, 192.0, 0.0, 0.0, 0.0, 0.0, 0.0, 0.0, 0.0, 0.0, 0.0, 1.729704750027913E9, 0.0, 2024-10-23 23:02:30.027
107.0, -47215.936746112915, -55421.5303565896, -17299.55730432955, -21008.561075754296, -16989.717422690086, -15264.162750740381, -187500.02235174447, -187500.02235174447, -0.132, 0.898, 0.36, 192.0, 0.0, 0.0, 0.0, 0.0, 0.0, 0.0, 0.0, 0.0, 0.0, 1.7297047500329144E9, 0.0, 2024-10-23 23:02:30.032
108.0, -47282.74611028983, -55577.81375382111, -16987.996338367026, -21255.570203729894, -17013.79025146845, -15317.918696155393, -187500.02235174447, -187500.02235174447, -0.132, 0.898, 0.36, 192.0, 0.0, 0.0, 0.0, 0.0, 0.0, 0.0, 0.0, 0.0, 0.0, 1.7297047500369372E9, 0.0, 2024-10-23 23:02:30.036
109.0, -47249.576121518156, -55523.87899445045, -17011.778594467472, -21198.081516990846, -16999.306321061413, -15300.685501180353, -187500.02235174447, -187500.02235174447, -0.126, 0.902, 0.36, 192.0, 252.0, 16.0, 28.0, 48.0, 11.0, 64.0, 0.0, 0.0, 0.0, 1.7297047500409107E9, 0.0, 2024-10-23 23:02:30.040
110.0, -47205.96786808585, -55412.23203089619, -17191.374861165867, -21025.190773629045, -16983.727155176064, -15251.511663378677, -187500.02235174447, -187500.02235174447, -0.126, 0.902, 0.36, 192.0, 0.0, 0.0, 0.0, 0.0, 0.0, 0.0, 0.0, 0.0, 0.0, 1.7297047500439088E9, 0.0, 2024-10-23 23:02:30.043
111.0, -47176.217696215834, -55323.383846686345, -17434.78535828416, -20892.08613539769, -16985.22472205457, -15232.423273613844, -187500.02235174447, -187500.02235174447, -0.126, 0.902, 0.36, 192.0, 0.0, 0.0, 0.0, 0.0, 0.0, 0.0, 0.0, 0.0, 0.0, 1.7297047500479596E9, 0.0, 2024-10-23 23:02:30.047
112.0, -47223.67044969445, -55423.94434499078, -17317.99749350518, -21020.139279382143, -17000.245094328537, -15278.646681147418, -187500.02235174447, -187500.02235174447, -0.126, 0.902, 0.36, 192.0, 0.0, 0.0, 0.0, 0.0, 0.0, 0.0, 0.0, 0.0, 0.0, 1.7297047500519097E9, 0.0, 2024-10-23 23:02:30.051
113.0, -47277.381691620554, -55568.33661417206, -16982.676623186664, -21263.50507301153, -17006.525934520476, -15322.679617724374, -187500.02235174447, -187500.02235174447, -0.126, 0.902, 0.36, 192.0, 0.0, 0.0, 0.0, 0.0, 0.0, 0.0, 0.0, 0.0, 0.0, 1.7297047500559397E9, 0.0, 2024-10-23 23:02:30.055
114.0, -47243.8540749376, -55510.08796812153, -16990.566788979388, -21203.62474961576, -16983.4589342426, -15300.037300591148, -187500.02235174447, -187500.02235174447, -0.126, 0.902, 0.36, 192.0, 0.0, 0.0, 0.0, 0.0, 0.0, 0.0, 0.0, 0.0, 0.0, 1.7297047500609226E9, 0.0, 2024-10-23 23:02:30.060
115.0, -47208.046580320195, -55405.77237674861, -17166.564424820474, -21033.527974310873, -16971.4560474701, -15250.43877964482, -187500.02235174447, -187500.02235174447, -0.126, 0.902, 0.36, 192.0, 0.0, 0.0, 0.0, 0.0, 0.0, 0.0, 0.0, 0.0, 0.0, 1.729704750064963E9, 0.0, 2024-10-23 23:02:30.064
116.0, -47179.68221660641, -55322.266259463584, -17406.130421892456, -20898.769306989827, -16981.26846328598, -15235.798387026596, -187500.02235174447, -187500.02235174447, -0.126, 0.902, 0.36, 192.0, 0.0, 0.0, 0.0, 0.0, 0.0, 0.0, 0.0, 0.0, 0.0, 1.7297047500689926E9, 0.0, 2024-10-23 23:02:30.068
117.0, -47221.25646129328, -55419.74221703318, -17286.146257656368, -21021.30157009382, -16998.702823961117, -15280.814800359583, -187500.02235174447, -187500.02235174447, -0.126, 0.902, 0.36, 192.0, 0.0, 0.0, 0.0, 0.0, 0.0, 0.0, 0.0, 0.0, 0.0, 1.7297047500719707E9, 0.0, 2024-10-23 23:02:30.071
118.0, -47283.953104490414, -55570.32591942858, -16950.55716640439, -21269.316526569906, -17001.563847251397, -15325.205364847823, -187500.02235174447, -187500.02235174447, -0.126, 0.902, 0.36, 192.0, 0.0, 0.0, 0.0, 0.0, 0.0, 0.0, 0.0, 0.0, 0.0, 1.729704750075984E9, 0.0, 2024-10-23 23:02:30.075
119.0, -47247.69857498391, -55511.093796622015, -16956.659192640687, -21208.877409562756, -16986.387012766245, -15305.73699542725, -187500.02235174447, -187500.02235174447, -0.128, 0.9, 0.356, 192.0, 252.0, 0.0, 28.0, 32.0, 11.0, 32.0, 0.0, 0.0, 0.0, 1.729704750079962E9, 0.0, 2024-10-23 23:02:30.079
120.0, -47209.83471987662, -55409.88509772839, -17128.38764529081, -21040.43466334756, -16978.161570806693, -15260.362954182978, -187500.02235174447, -187500.02235174447, -0.128, 0.9, 0.356, 192.0, 0.0, 0.0, 0.0, 0.0, 0.0, 0.0, 0.0, 0.0, 0.0, 1.7297047500840116E9, 0.0, 2024-10-23 23:02:30.084
121.0, -47181.98444628531, -55330.1117217674, -17363.751514405194, -20911.152173418068, -16981.64844294172, -15241.855709773983, -187500.02235174447, -187500.02235174447, -0.128, 0.9, 0.356, 192.0, 0.0, 0.0, 0.0, 0.0, 0.0, 0.0, 0.0, 0.0, 0.0, 1.7297047500880077E9, 0.0, 2024-10-23 23:02:30.088
122.0, -47217.92605136944, -55431.186310194294, -17236.681847176773, -21034.533802811362, -16990.052698856915, -15280.144248025925, -187500.02235174447, -187500.02235174447, -0.128, 0.9, 0.356, 192.0, 0.0, 0.0, 0.0, 0.0, 0.0, 0.0, 0.0, 0.0, 0.0, 1.7297047500929656E9, 0.0, 2024-10-23 23:02:30.092
123.0, -47277.58285732065, -55586.28506496967, -16897.941159956594, -21284.64982326625, -17006.011844398003, -15324.959495658815, -187500.02235174447, -187500.02235174447, -0.128, 0.9, 0.356, 192.0, 0.0, 0.0, 0.0, 0.0, 0.0, 0.0, 0.0, 0.0, 0.0, 1.7297047501120813E9, 0.0, 2024-10-23 23:02:30.112
124.0, -47246.02219414976, -55527.29881135211, -16911.799241518886, -21226.401177215717, -16991.237341313048, -15300.461983735799, -187500.02235174447, -187500.02235174447, -0.128, 0.9, 0.356, 192.0, 0.0, 0.0, 0.0, 0.0, 0.0, 0.0, 0.0, 0.0, 0.0, 1.72970475011606E9, 0.0, 2024-10-23 23:02:30.116
125.0, -47217.07668508014, -55426.425388625314, -17099.53154319901, -21061.065323479812, -16982.721326675575, -15251.735180823229, -187500.02235174447, -187500.02235174447, -0.128, 0.9, 0.356, 192.0, 0.0, 0.0, 0.0, 0.0, 0.0, 0.0, 0.0, 0.0, 0.0, 1.7297047501190295E9, 0.0, 2024-10-23 23:02:30.119
126.0, -47185.96305679835, -55335.78906485905, -17339.85749958247, -20922.372749134633, -16975.4570097276, -15226.522413077642, -187500.02235174447, -187500.02235174447, -0.128, 0.9, 0.356, 192.0, 0.0, 0.0, 0.0, 0.0, 0.0, 0.0, 0.0, 0.0, 0.0, 1.7297047501230707E9, 0.0, 2024-10-23 23:02:30.123
127.0, -47222.575214216144, -55425.86659501393, -17230.758634896116, -21035.472576078486, -16989.493905245534, -15263.246329217713, -187500.02235174447, -187500.02235174447, -0.128, 0.9, 0.356, 192.0, 0.0, 0.0, 0.0, 0.0, 0.0, 0.0, 0.0, 0.0, 0.0, 1.729704750126044E9, 0.0, 2024-10-23 23:02:30.126
128.0, -47287.84230802564, -55579.04309976615, -16906.993616460994, -21283.532236043484, -17001.049757128927, -15309.916771640394, -187500.02235174447, -187500.02235174447, -0.128, 0.9, 0.356, 192.0, 0.0, 0.0, 0.0, 0.0, 0.0, 0.0, 0.0, 0.0, 0.0, 1.7297047501300416E9, 0.0, 2024-10-23 23:02:30.130
129.0, -47251.36426107458, -55520.92856418235, -16927.646628337698, -21221.841421346835, -16987.951634878114, -15286.492143451233, -187500.02235174447, -187500.02235174447, -0.128, 0.898, 0.358, 192.0, 252.0, 0.0, 28.0, 16.0, 11.0, 48.0, 0.0, 0.0, 0.0, 1.729704750133034E9, 0.0, 2024-10-23 23:02:30.133
130.0, -47214.84151063461, -55419.518699588625, -17120.72099694264, -21050.872928008193, -16985.69410868813, -15238.905279505883, -187500.02235174447, -187500.02235174447, -0.128, 0.898, 0.358, 192.0, 0.0, 0.0, 0.0, 0.0, 0.0, 0.0, 0.0, 0.0, 0.0, 1.729704750136064E9, 0.0, 2024-10-23 23:02:30.136
131.0, -47181.04567301818, -55333.889166580346, -17370.546444719606, -20910.638083295595, -16992.69020470264, -15218.609895540465, -187500.02235174447, -187500.02235174447, -0.128, 0.898, 0.358, 192.0, 0.0, 0.0, 0.0, 0.0, 0.0, 0.0, 0.0, 0.0, 0.0, 1.729704750139094E9, 0.0, 2024-10-23 23:02:30.139
132.0, -47229.75012418629, -55440.551691121065, -17277.27261510761, -21033.907953966613, -17010.593952011342, -15272.477599677755, -187500.02235174447, -187500.02235174447, -0.128, 0.898, 0.358, 192.0, 0.0, 0.0, 0.0, 0.0, 0.0, 0.0, 0.0, 0.0, 0.0, 1.7297047501430848E9, 0.0, 2024-10-23 23:02:30.143
133.0, -47289.5633923487, -55596.63392265248, -16951.36182920478, -21285.49918955555, -17019.42289107119, -15325.495937525742, -187500.02235174447, -187500.02235174447, -0.128, 0.898, 0.358, 192.0, 0.0, 0.0, 0.0, 0.0, 0.0, 0.0, 0.0, 0.0, 0.0, 1.7297047501461217E9, 0.0, 2024-10-23 23:02:30.146
134.0, -47245.73162147184, -55533.22202363277, -16965.912814845182, -21214.53240090995, -17006.03419614246, -15298.31621626809, -187500.02235174447, -187500.02235174447, -0.128, 0.898, 0.358, 192.0, 0.0, 0.0, 0.0, 0.0, 0.0, 0.0, 0.0, 0.0, 0.0, 1.7297047501490796E9, 0.0, 2024-10-23 23:02:30.149
135.0, -47204.51500469625, -55431.00749623865, -17155.992049693115, -21038.40065460213, -16995.908855904207, -15249.455302888788, -187500.02235174447, -187500.02235174447, -0.128, 0.898, 0.358, 192.0, 0.0, 0.0, 0.0, 0.0, 0.0, 0.0, 0.0, 0.0, 0.0, 1.7297047501531112E9, 0.0, 2024-10-23 23:02:30.153
136.0, -47168.30517867865, -55342.20401551772, -17405.01283466969, -20900.46803956843, -17001.608550740308, -15231.551555580087, -187500.02235174447, -187500.02235174447, -0.128, 0.898, 0.358, 192.0, 0.0, 0.0, 0.0, 0.0, 0.0, 0.0, 0.0, 0.0, 0.0, 1.7297047501560721E9, 0.0, 2024-10-23 23:02:30.156
137.0, -47202.391588973, -55424.480786857705, -17297.500943839663, -21005.25301757491, -17007.12943162077, -15269.326003709557, -187500.02235174447, -187500.02235174447, -0.128, 0.898, 0.358, 192.0, 0.0, 0.0, 0.0, 0.0, 0.0, 0.0, 0.0, 0.0, 0.0, 1.7297047501590812E9, 0.0, 2024-10-23 23:02:30.159
138.0, -47268.59745604962, -55578.01491952121, -16967.96917533507, -21252.083331594866, -17015.980722425073, -15319.215097333801, -187500.02235174447, -187500.02235174447, -0.128, 0.898, 0.358, 192.0, 0.0, 0.0, 0.0, 0.0, 0.0, 0.0, 0.0, 0.0, 0.0, 1.7297047501631153E9, 0.0, 2024-10-23 23:02:30.163
139.0, -47223.58104271663, -55519.498052537216, -16978.765067906985, -21190.593682598315, -17006.123603120282, -15301.60192270302, -187500.02235174447, -187500.02235174447, -0.132, 0.886, 0.36, 192.0, 251.0, 224.0, 27.0, 176.0, 11.0, 64.0, 0.0, 0.0, 0.0, 1.7297047501660955E9, 0.0, 2024-10-23 23:02:30.166
140.0, -47185.7842428427, -55415.16010941984, -17164.664526541776, -21019.87105844868, -17000.803887939917, -15255.333811680533, -187500.02235174447, -187500.02235174447, -0.132, 0.886, 0.36, 192.0, 0.0, 0.0, 0.0, 0.0, 0.0, 0.0, 0.0, 0.0, 0.0, 1.7297047501701205E9, 0.0, 2024-10-23 23:02:30.170
141.0, -47156.50345760625, -55328.72591361117, -17409.460831816297, -20882.81016144874, -17001.608550740308, -15233.071474203049, -187500.02235174447, -187500.02235174447, -0.132, 0.886, 0.36, 192.0, 0.0, 0.0, 0.0, 0.0, 0.0, 0.0, 0.0, 0.0, 0.0, 1.7297047501731365E9, 0.0, 2024-10-23 23:02:30.173
142.0, -47192.735635368306, -55417.10471118745, -17307.89450501138, -20993.33953778023, -17010.973931667082, -15270.622404887965, -187500.02235174447, -187500.02235174447, -0.132, 0.886, 0.36, 192.0, 0.0, 0.0, 0.0, 0.0, 0.0, 0.0, 0.0, 0.0, 0.0, 1.7297047501761825E9, 0.0, 2024-10-23 23:02:30.176
143.0, -47263.054223424704, -55579.62424512199, -16978.988585351537, -21253.849119406834, -17020.898106205237, -15322.925486913382, -187500.02235174447, -187500.02235174447, -0.132, 0.886, 0.36, 192.0, 0.0, 0.0, 0.0, 0.0, 0.0, 0.0, 0.0, 0.0, 0.0, 1.7297047501791873E9, 0.0, 2024-10-23 23:02:30.179
144.0, -47233.08053411014, -55527.254107863206, -16989.65036745672, -21198.34973792431, -16999.485135017054, -15298.517381968188, -187500.02235174447, -187500.02235174447, -0.132, 0.886, 0.36, 192.0, 0.0, 0.0, 0.0, 0.0, 0.0, 0.0, 0.0, 0.0, 0.0, 1.7297047501831608E9, 0.0, 2024-10-23 23:02:30.183
145.0, -47203.6432866625, -55430.73927530519, -17178.63436682634, -21035.025541189378, -16997.853457671816, -15256.563157625576, -187500.02235174447, -187500.02235174447, -0.132, 0.886, 0.36, 192.0, 0.0, 0.0, 0.0, 0.0, 0.0, 0.0, 0.0, 0.0, 0.0, 1.7297047501861713E9, 0.0, 2024-10-23 23:02:30.186
146.0, -47173.7366525813, -55345.10974229691, -17421.039035444144, -20900.624501779617, -16999.932169906162, -15237.072436460548, -187500.02235174447, -187500.02235174447, -0.132, 0.886, 0.36, 192.0, 0.0, 0.0, 0.0, 0.0, 0.0, 0.0, 0.0, 0.0, 0.0, 1.72970475018917E9, 0.0, 2024-10-23 23:02:30.189
147.0, -47217.63547869152, -55440.283470187605, -17321.372606917932, -21010.88565717765, -17007.93409442116, -15274.489256678733, -187500.02235174447, -187500.02235174447, -0.132, 0.886, 0.36, 192.0, 0.0, 0.0, 0.0, 0.0, 0.0, 0.0, 0.0, 0.0, 0.0, 1.7297047501931744E9, 0.0, 2024-10-23 23:02:30.193
148.0, -47281.91909574498, -55595.80690810763, -16977.803942895407, -21262.92392765569, -17009.69988223313, -15316.689350210352, -187500.02235174447, -187500.02235174447, -0.132, 0.886, 0.36, 192.0, 0.0, 0.0, 0.0, 0.0, 0.0, 0.0, 0.0, 0.0, 0.0, 1.7297047501961718E9, 0.0, 2024-10-23 23:02:30.196
149.0, -47250.42548780746, -55543.21325340429, -16987.2587308, -21207.37984268425, -16997.339367549346, -15297.846829634527, -187500.02235174447, -187500.02235174447, -0.13, 0.89, 0.364, 192.0, 251.0, 240.0, 27.0, 208.0, 11.0, 96.0, 0.0, 0.0, 0.0, 1.7297047502001867E9, 0.0, 2024-10-23 23:02:30.200
150.0, -47212.40517048898, -55432.90739451735, -17169.58191032194, -21036.031369689867, -16987.16932382218, -15250.908166278383, -187500.02235174447, -187500.02235174447, -0.13, 0.89, 0.364, 192.0, 0.0, 0.0, 0.0, 0.0, 0.0, 0.0, 0.0, 0.0, 0.0, 1.7297047502061763E9, 0.0, 2024-10-23 23:02:30.206
151.0, -47175.748309582275, -55334.80558810301, -17410.667826016885, -20892.42141156452, -16987.281082544458, -15227.081206689027, -187500.02235174447, -187500.02235174447, -0.13, 0.89, 0.364, 192.0, 0.0, 0.0, 0.0, 0.0, 0.0, 0.0, 0.0, 0.0, 0.0, 1.729704750209194E9, 0.0, 2024-10-23 23:02:30.209
152.0, -47222.06112409367, -55427.09594095897, -17327.67579885433, -21005.141258852633, -17016.383053825266, -15276.187989257336, -187500.02235174447, -187500.02235174447, -0.13, 0.89, 0.364, 192.0, 0.0, 0.0, 0.0, 0.0, 0.0, 0.0, 0.0, 0.0, 0.0, 1.729704750213238E9, 0.0, 2024-10-23 23:02:30.213
153.0, -47288.5128603593, -55584.58633239107, -16996.020614626483, -21261.292250310453, -17025.390806840755, -15325.406530547922, -187500.02235174447, -187500.02235174447, -0.13, 0.89, 0.364, 192.0, 0.0, 0.0, 0.0, 0.0, 0.0, 0.0, 0.0, 0.0, 0.0, 1.7297047502162228E9, 0.0, 2024-10-23 23:02:30.216
154.0, -47245.03871739373, -55523.811939217085, -16998.546361749934, -21198.550903624404, -16999.64159722824, -15297.511553467699, -187500.02235174447, -187500.02235174447, -0.13, 0.89, 0.364, 192.0, 0.0, 0.0, 0.0, 0.0, 0.0, 0.0, 0.0, 0.0, 0.0, 1.729704750220203E9, 0.0, 2024-10-23 23:02:30.220
155.0, -47212.71809491135, -55418.44581585477, -17188.98322450915, -21023.849668961724, -16995.864152415295, -15253.344506424011, -187500.02235174447, -187500.02235174447, -0.13, 0.89, 0.364, 192.0, 0.0, 0.0, 0.0, 0.0, 0.0, 0.0, 0.0, 0.0, 0.0, 1.729704750224198E9, 0.0, 2024-10-23 23:02:30.224
156.0, -47172.50730663625, -55324.90376530931, -17424.05652094561, -20882.094905626167, -16983.324823775867, -15226.142433421903, -187500.02235174447, -187500.02235174447, -0.13, 0.89, 0.364, 192.0, 0.0, 0.0, 0.0, 0.0, 0.0, 0.0, 0.0, 0.0, 0.0, 1.7297047502281811E9, 0.0, 2024-10-23 23:02:30.228
157.0, -47205.811405874665, -55413.506080330146, -17330.2909529556, -20988.1539330666, -16998.65812047221, -15267.001422286205, -187500.02235174447, -187500.02235174447, -0.13, 0.89, 0.364, 192.0, 0.0, 0.0, 0.0, 0.0, 0.0, 0.0, 0.0, 0.0, 0.0, 1.7297047502322595E9, 0.0, 2024-10-23 23:02:30.232
158.0, -47280.600342822116, -55584.11694575751, -17004.402518797222, -21259.861738665313, -17023.021521928495, -15328.535774771664, -187500.02235174447, -187500.02235174447, -0.13, 0.89, 0.364, 192.0, 0.0, 0.0, 0.0, 0.0, 0.0, 0.0, 0.0, 0.0, 0.0, 1.7297047502372532E9, 0.0, 2024-10-23 23:02:30.237
159.0, -47254.62761576505, -55536.08304692305, -17022.328617850377, -21212.72190960907, -17016.807736969917, -15317.739882199752, -187500.02235174447, -187500.02235174447, -0.128, 0.896, 0.36, 192.0, 252.0, 0.0, 28.0, 0.0, 11.0, 64.0, 0.0, 0.0, 0.0, 1.7297047502414298E9, 0.0, 2024-10-23 23:02:30.241
160.0, -47198.52473718223, -55420.94921123376, -17196.5604658795, -21032.097462665733, -16996.400594282222, -15262.486369906232, -187500.02235174447, -187500.02235174447, -0.128, 0.896, 0.36, 192.0, 0.0, 0.0, 0.0, 0.0, 0.0, 0.0, 0.0, 0.0, 0.0, 1.7297047502442565E9, 0.0, 2024-10-23 23:02:30.244
161.0, -47159.587998341085, -55328.4576926777, -17434.897117006436, -20892.64492900907, -16985.69410868813, -15240.469901617755, -187500.02235174447, -187500.02235174447, -0.128, 0.896, 0.36, 192.0, 0.0, 0.0, 0.0, 0.0, 0.0, 0.0, 0.0, 0.0, 0.0, 1.72970475024829E9, 0.0, 2024-10-23 23:02:30.248
162.0, -47193.89792607998, -55405.41474883733, -17346.317153730055, -20989.986776111935, -16985.64940519922, -15273.148152011414, -187500.02235174447, -187500.02235174447, -0.128, 0.896, 0.36, 192.0, 0.0, 0.0, 0.0, 0.0, 0.0, 0.0, 0.0, 0.0, 0.0, 1.7297047502522757E9, 0.0, 2024-10-23 23:02:30.252
163.0, -47260.1037931566, -55565.00620424822, -17019.22172537109, -21253.804415917926, -17005.765975208997, -15332.64849575144, -187500.02235174447, -187500.02235174447, -0.128, 0.896, 0.36, 192.0, 0.0, 0.0, 0.0, 0.0, 0.0, 0.0, 0.0, 0.0, 0.0, 1.7297047502563531E9, 0.0, 2024-10-23 23:02:30.256
164.0, -47234.801618433194, -55515.787662957635, -17034.912649978716, -21207.513953150985, -16999.283969316955, -15325.630047992474, -187500.02235174447, -187500.02235174447, -0.128, 0.896, 0.36, 192.0, 0.0, 0.0, 0.0, 0.0, 0.0, 0.0, 0.0, 0.0, 0.0, 1.729704750260275E9, 0.0, 2024-10-23 23:02:30.260
165.0, -47201.02813256122, -55410.33213261749, -17225.37186448239, -21042.759244770914, -16994.83597217035, -15284.435782961344, -187500.02235174447, -187500.02235174447, -0.128, 0.896, 0.36, 192.0, 0.0, 0.0, 0.0, 0.0, 0.0, 0.0, 0.0, 0.0, 0.0, 1.7297047502652807E9, 0.0, 2024-10-23 23:02:30.265
166.0, -47160.97380649731, -55313.057340748, -17468.8717685785, -20903.172600647522, -16999.55219025042, -15265.302689707602, -187500.02235174447, -187500.02235174447, -0.128, 0.896, 0.36, 192.0, 0.0, 0.0, 0.0, 0.0, 0.0, 0.0, 0.0, 0.0, 0.0, 1.7297047502683403E9, 0.0, 2024-10-23 23:02:30.268
167.0, -47197.36244647056, -55395.26705685462, -17389.79129669563, -21005.11890710818, -17013.74554797954, -15302.69715818133, -187500.02235174447, -187500.02235174447, -0.128, 0.896, 0.36, 192.0, 0.0, 0.0, 0.0, 0.0, 0.0, 0.0, 0.0, 0.0, 0.0, 1.7297047502722666E9, 0.0, 2024-10-23 23:02:30.272
168.0, -47268.01631069378, -55565.85557053752, -17054.738647310573, -21272.15519811573, -17011.957408423117, -15349.255841881733, -187500.02235174447, -187500.02235174447, -0.128, 0.896, 0.36, 192.0, 0.0, 0.0, 0.0, 0.0, 0.0, 0.0, 0.0, 0.0, 0.0, 1.7297047502762864E9, 0.0, 2024-10-23 23:02:30.276
169.0, -47242.44591503691, -55520.86150894898, -17063.880510792795, -21222.713139380594, -16991.326748290867, -15325.942972414849, -187500.02235174447, -187500.02235174447, -0.132, 0.9, 0.36, 192.0, 251.0, 224.0, 28.0, 32.0, 11.0, 64.0, 0.0, 0.0, 0.0, 1.7297047502802763E9, 0.0, 2024-10-23 23:02:30.280
170.0, -47200.692856394395, -55410.62270529541, -17247.254222304135, -21045.620268061193, -16975.948748105617, -15266.107352507992, -187500.02235174447, -187500.02235174447, -0.132, 0.9, 0.36, 192.0, 0.0, 0.0, 0.0, 0.0, 0.0, 0.0, 0.0, 0.0, 0.0, 1.7297047502842984E9, 0.0, 2024-10-23 23:02:30.284
171.0, -47174.85423980406, -55329.396465944825, -17504.813373662637, -20912.00153970737, -16973.825332382363, -15241.900413262894, -187500.02235174447, -187500.02235174447, -0.132, 0.9, 0.36, 192.0, 0.0, 0.0, 0.0, 0.0, 0.0, 0.0, 0.0, 0.0, 0.0, 1.729704750288374E9, 0.0, 2024-10-23 23:02:30.288
172.0, -47214.21566178986, -55417.17176642082, -17436.372332140487, -21006.750584453417, -16991.17028607968, -15281.015966059682, -187500.02235174447, -187500.02235174447, -0.132, 0.9, 0.36, 192.0, 0.0, 0.0, 0.0, 0.0, 0.0, 0.0, 0.0, 0.0, 0.0, 1.7297047502933664E9, 0.0, 2024-10-23 23:02:30.293
173.0, -47290.74803480483, -55593.14705051745, -17111.10974682686, -21273.943337672157, -17012.695015990143, -15339.75635048823, -187500.02235174447, -187500.02235174447, -0.132, 0.9, 0.36, 192.0, 0.0, 0.0, 0.0, 0.0, 0.0, 0.0, 0.0, 0.0, 0.0, 1.7297047502963307E9, 0.0, 2024-10-23 23:02:30.296
174.0, -47262.54013330223, -55547.795361017634, -17118.41876726374, -21224.993017315035, -17000.22274258408, -15321.204402590323, -187500.02235174447, -187500.02235174447, -0.132, 0.9, 0.36, 192.0, 0.0, 0.0, 0.0, 0.0, 0.0, 0.0, 0.0, 0.0, 0.0, 1.7297047503013172E9, 0.0, 2024-10-23 23:02:30.301
175.0, -47221.83760664912, -55437.265984686135, -17301.971292730726, -21045.4191023611, -16988.957463378603, -15265.280337963146, -187500.02235174447, -187500.02235174447, -0.132, 0.9, 0.36, 192.0, 0.0, 0.0, 0.0, 0.0, 0.0, 0.0, 0.0, 0.0, 0.0, 1.7297047503053584E9, 0.0, 2024-10-23 23:02:30.305
176.0, -47185.605428887066, -55343.79098937404, -17548.443978839397, -20903.284359369798, -16990.6114924683, -15242.839186530018, -187500.02235174447, -187500.02235174447, -0.132, 0.9, 0.36, 192.0, 0.0, 0.0, 0.0, 0.0, 0.0, 0.0, 0.0, 0.0, 0.0, 1.7297047503083615E9, 0.0, 2024-10-23 23:02:30.308
177.0, -47210.281754765725, -55416.0318274536, -17468.08945752257, -20990.09853483421, -17003.821373441384, -15276.769134613174, -187500.02235174447, -187500.02235174447, -0.132, 0.9, 0.36, 192.0, 0.0, 0.0, 0.0, 0.0, 0.0, 0.0, 0.0, 0.0, 0.0, 1.7297047503123047E9, 0.0, 2024-10-23 23:02:30.312
178.0, -47279.54981083272, -55586.8215068366, -17128.29823831299, -21251.1669100722, -17009.677530488676, -15327.731111971274, -187500.02235174447, -187500.02235174447, -0.132, 0.9, 0.36, 192.0, 0.0, 0.0, 0.0, 0.0, 0.0, 0.0, 0.0, 0.0, 0.0, 1.72970475031635E9, 0.0, 2024-10-23 23:02:30.316
179.0, -47250.71606048537, -55539.39110510243, -17124.610200477862, -21206.463421161585, -17000.89329491774, -15314.655341464919, -187500.02235174447, -187500.02235174447, -0.126, 0.892, 0.358, 192.0, 252.0, 16.0, 27.0, 224.0, 11.0, 48.0, 0.0, 0.0, 0.0, 1.729704750321382E9, 0.0, 2024-10-23 23:02:30.321
180.0, -47202.74921688429, -55428.99583923767, -17288.67200477982, -21032.03040743237, -16979.726192918562, -15263.268680962168, -187500.02235174447, -187500.02235174447, -0.126, 0.892, 0.358, 192.0, 0.0, 0.0, 0.0, 0.0, 0.0, 0.0, 0.0, 0.0, 0.0, 1.7297047503243787E9, 0.0, 2024-10-23 23:02:30.324
181.0, -47168.685158334396, -55340.57233817248, -17519.789042447694, -20893.04726040927, -16979.994413852026, -15243.68855281932, -187500.02235174447, -187500.02235174447, -0.126, 0.892, 0.358, 192.0, 0.0, 0.0, 0.0, 0.0, 0.0, 0.0, 0.0, 0.0, 0.0, 1.729704750327369E9, 0.0, 2024-10-23 23:02:30.327
182.0, -47204.15737678497, -55417.06000769854, -17439.702742064328, -20989.182113311545, -16996.110021604305, -15283.02762306066, -187500.02235174447, -187500.02235174447, -0.126, 0.892, 0.358, 192.0, 0.0, 0.0, 0.0, 0.0, 0.0, 0.0, 0.0, 0.0, 0.0, 1.7297047503323984E9, 0.0, 2024-10-23 23:02:30.332
183.0, -47268.61980779407, -55579.93716954436, -17086.589883159388, -21257.090122352856, -17003.620207741285, -15337.185899875869, -187500.02235174447, -187500.02235174447, -0.126, 0.892, 0.358, 192.0, 0.0, 0.0, 0.0, 0.0, 0.0, 0.0, 0.0, 0.0, 0.0, 1.7297047503363261E9, 0.0, 2024-10-23 23:02:30.336
184.0, -47244.748144715806, -55538.497035324224, -17083.95237731366, -21220.455613190607, -16998.07697511637, -15331.4191498064, -187500.02235174447, -187500.02235174447, -0.126, 0.892, 0.358, 192.0, 0.0, 0.0, 0.0, 0.0, 0.0, 0.0, 0.0, 0.0, 0.0, 1.7297047503404045E9, 0.0, 2024-10-23 23:02:30.340
185.0, -47190.16518475595, -55422.312667645536, -17247.880071148884, -21052.258736164422, -16979.189751051636, -15279.74191662573, -187500.02235174447, -187500.02235174447, -0.126, 0.892, 0.358, 192.0, 0.0, 0.0, 0.0, 0.0, 0.0, 0.0, 0.0, 0.0, 0.0, 1.7297047503443892E9, 0.0, 2024-10-23 23:02:30.344
186.0, -47143.4276870999, -55318.980553028654, -17473.16330351392, -20906.83828673819, -16969.153817791204, -15248.315363921567, -187500.02235174447, -187500.02235174447, -0.126, 0.892, 0.358, 192.0, 0.0, 0.0, 0.0, 0.0, 0.0, 0.0, 0.0, 0.0, 0.0, 1.729704750348392E9, 0.0, 2024-10-23 23:02:30.348
187.0, -47186.54420215419, -55404.54303080357, -17408.96909343828, -21005.185962341544, -16990.767954679486, -15295.522248211177, -187500.02235174447, -187500.02235174447, -0.126, 0.892, 0.358, 192.0, 0.0, 0.0, 0.0, 0.0, 0.0, 0.0, 0.0, 0.0, 0.0, 1.7297047503524103E9, 0.0, 2024-10-23 23:02:30.352
188.0, -47261.64606352402, -55581.16651548941, -17065.132208482293, -21287.77906748999, -17010.482193289066, -15361.996336221258, -187500.02235174447, -187500.02235174447, -0.126, 0.892, 0.358, 192.0, 0.0, 0.0, 0.0, 0.0, 0.0, 0.0, 0.0, 0.0, 0.0, 1.729704750357407E9, 0.0, 2024-10-23 23:02:30.357
189.0, -47232.991127132314, -55535.636012033945, -17052.548176353954, -21249.334067026863, -17002.390861796244, -15351.580423305086, -187500.02235174447, -187500.02235174447, -0.122, 0.894, 0.356, 192.0, 252.0, 48.0, 27.0, 240.0, 11.0, 32.0, 0.0, 0.0, 0.0, 1.7297047503604183E9, 0.0, 2024-10-23 23:02:30.360
190.0, -47191.77451035673, -55422.26796415663, -17221.482660947164, -21076.868006809713, -16990.298568045924, -15303.211248303802, -187500.02235174447, -187500.02235174447, -0.122, 0.894, 0.356, 192.0, 0.0, 0.0, 0.0, 0.0, 0.0, 0.0, 0.0, 0.0, 0.0, 1.72970475036442E9, 0.0, 2024-10-23 23:02:30.364
191.0, -47149.90969299194, -55319.58405012895, -17449.425750902385, -20929.011217237858, -16982.006070853004, -15273.237558989234, -187500.02235174447, -187500.02235174447, -0.122, 0.894, 0.356, 192.0, 0.0, 0.0, 0.0, 0.0, 0.0, 0.0, 0.0, 0.0, 0.0, 1.7297047503684244E9, 0.0, 2024-10-23 23:02:30.368
192.0, -47179.52575439522, -55389.12032712941, -17373.496874987708, -21006.884694920147, -16986.65523369971, -15300.037300591148, -187500.02235174447, -187500.02235174447, -0.122, 0.894, 0.356, 192.0, 0.0, 0.0, 0.0, 0.0, 0.0, 0.0, 0.0, 0.0, 0.0, 1.7297047503724687E9, 0.0, 2024-10-23 23:02:30.372
193.0, -47253.44297330892, -55560.7146693128, -17031.917516221703, -21274.882110939277, -16995.707690204108, -15346.908908713927, -187500.02235174447, -187500.02235174447, -0.122, 0.894, 0.356, 192.0, 0.0, 0.0, 0.0, 0.0, 0.0, 0.0, 0.0, 0.0, 0.0, 1.7297047503764548E9, 0.0, 2024-10-23 23:02:30.376
194.0, -47226.86674915156, -55518.425168803355, -17032.878641233285, -21231.497374951527, -16983.88361738725, -15326.524117770687, -187500.02235174447, -187500.02235174447, -0.122, 0.894, 0.356, 192.0, 0.0, 0.0, 0.0, 0.0, 0.0, 0.0, 0.0, 0.0, 0.0, 1.729704750380437E9, 0.0, 2024-10-23 23:02:30.380
195.0, -47190.65692313396, -55411.29325762907, -17218.241658001145, -21055.387980388165, -16973.825332382363, -15274.757477612196, -187500.02235174447, -187500.02235174447, -0.122, 0.894, 0.356, 192.0, 0.0, 0.0, 0.0, 0.0, 0.0, 0.0, 0.0, 0.0, 0.0, 1.7297047503835E9, 0.0, 2024-10-23 23:02:30.383
196.0, -47165.399451899466, -55325.842538576435, -17472.0233645467, -20916.85186825417, -16975.97109985007, -15250.930518022838, -187500.02235174447, -187500.02235174447, -0.122, 0.894, 0.356, 192.0, 0.0, 0.0, 0.0, 0.0, 0.0, 0.0, 0.0, 0.0, 0.0, 1.729704750388444E9, 0.0, 2024-10-23 23:02:30.388
197.0, -47201.78809187271, -55405.12417615941, -17419.49676507673, -20998.34632853822, -16992.913722147194, -15284.88281785045, -187500.02235174447, -187500.02235174447, -0.122, 0.894, 0.356, 192.0, 0.0, 0.0, 0.0, 0.0, 0.0, 0.0, 0.0, 0.0, 0.0, 1.72970475039253E9, 0.0, 2024-10-23 23:02:30.392
198.0, -47281.67322655598, -55585.07807076909, -17091.171990772724, -21274.658593494725, -17011.55507702292, -15341.097455155546, -187500.02235174447, -187500.02235174447, -0.122, 0.894, 0.356, 192.0, 0.0, 0.0, 0.0, 0.0, 0.0, 0.0, 0.0, 0.0, 0.0, 1.7297047503965075E9, 0.0, 2024-10-23 23:02:30.396
199.0, -47243.38468830403, -55535.4571980783, -17079.884359822794, -21229.53042143946, -16987.37048952228, -15315.214135076301, -187500.02235174447, -187500.02235174447, -0.128, 0.904, 0.354, 192.0, 252.0, 0.0, 28.0, 64.0, 11.0, 16.0, 0.0, 0.0, 0.0, 1.7297047504004643E9, 0.0, 2024-10-23 23:02:30.400
200.0, -47190.3887022005, -55420.45747285575, -17248.058885104525, -21050.470596607996, -16965.890463100728, -15258.463055904276, -187500.02235174447, -187500.02235174447, -0.128, 0.904, 0.354, 192.0, 0.0, 0.0, 0.0, 0.0, 0.0, 0.0, 0.0, 0.0, 0.0, 1.72970475040451E9, 0.0, 2024-10-23 23:02:30.404
201.0, -47159.27507391871, -55332.0116200461, -17495.962082858336, -20911.107469929157, -16976.664003928185, -15240.715770806763, -187500.02235174447, -187500.02235174447, -0.128, 0.904, 0.354, 192.0, 0.0, 0.0, 0.0, 0.0, 0.0, 0.0, 0.0, 0.0, 0.0, 1.7297047504095356E9, 0.0, 2024-10-23 23:02:30.409
202.0, -47185.89600156499, -55399.26801911212, -17434.1148059505, -20992.892502891125, -16995.059489614905, -15277.618500902476, -187500.02235174447, -187500.02235174447, -0.128, 0.904, 0.354, 192.0, 0.0, 0.0, 0.0, 0.0, 0.0, 0.0, 0.0, 0.0, 0.0, 1.729704750412504E9, 0.0, 2024-10-23 23:02:30.412
203.0, -47256.01342392128, -55566.883750782465, -17088.758002371553, -21261.918099155202, -17004.626036241774, -15327.954629415826, -187500.02235174447, -187500.02235174447, -0.128, 0.904, 0.354, 192.0, 0.0, 0.0, 0.0, 0.0, 0.0, 0.0, 0.0, 0.0, 0.0, 1.7297047504155366E9, 0.0, 2024-10-23 23:02:30.415
204.0, -47232.45468526539, -55531.70210500981, -17078.543255155477, -21225.9094388377, -16980.374393507765, -15311.190821074346, -187500.02235174447, -187500.02235174447, -0.128, 0.904, 0.354, 192.0, 0.0, 0.0, 0.0, 0.0, 0.0, 0.0, 0.0, 0.0, 0.0, 1.7297047504205084E9, 0.0, 2024-10-23 23:02:30.420
205.0, -47199.75408312727, -55428.16882469283, -17253.915042151813, -21058.852500778736, -16977.3569080063, -15272.902282822406, -187500.02235174447, -187500.02235174447, -0.128, 0.904, 0.354, 192.0, 0.0, 0.0, 0.0, 0.0, 0.0, 0.0, 0.0, 0.0, 0.0, 1.7297047504245028E9, 0.0, 2024-10-23 23:02:30.424
206.0, -47157.59869308456, -55334.69382938073, -17483.243940263266, -20918.550600832772, -16976.194617294626, -15255.982012269738, -187500.02235174447, -187500.02235174447, -0.128, 0.904, 0.354, 192.0, 0.0, 0.0, 0.0, 0.0, 0.0, 0.0, 0.0, 0.0, 0.0, 1.72970475042853E9, 0.0, 2024-10-23 23:02:30.428
207.0, -47174.29544619268, -55396.18347837729, -17407.20330562631, -20992.847799402214, -16979.03328884045, -15287.609730673998, -187500.02235174447, -187500.02235174447, -0.128, 0.904, 0.354, 192.0, 0.0, 0.0, 0.0, 0.0, 0.0, 0.0, 0.0, 0.0, 0.0, 1.7297047504325335E9, 0.0, 2024-10-23 23:02:30.432
208.0, -47242.11063887008, -55560.82642803508, -17053.688115321173, -21260.286421809964, -16994.433640770156, -15344.584327290575, -187500.02235174447, -187500.02235174447, -0.128, 0.904, 0.354, 192.0, 0.0, 0.0, 0.0, 0.0, 0.0, 0.0, 0.0, 0.0, 0.0, 1.7297047504365532E9, 0.0, 2024-10-23 23:02:30.436
209.0, -47218.84247289211, -55515.47473853526, -17041.5734698264, -21220.165040512686, -16989.248036056524, -15337.252955109234, -187500.02235174447, -187500.02235174447, -0.13, 0.892, 0.354, 192.0, 251.0, 240.0, 27.0, 224.0, 11.0, 16.0, 0.0, 0.0, 0.0, 1.729704750439496E9, 0.0, 2024-10-23 23:02:30.439
210.0, -47177.17882122741, -55407.58286804949, -17210.910285819806, -21045.955544228025, -16977.133390561747, -15290.247236519723, -187500.02235174447, -187500.02235174447, -0.13, 0.892, 0.354, 192.0, 0.0, 0.0, 0.0, 0.0, 0.0, 0.0, 0.0, 0.0, 0.0, 1.7297047504435306E9, 0.0, 2024-10-23 23:02:30.443
211.0, -47152.36838488202, -55324.18850948674, -17451.03507650317, -20912.269760640833, -16983.056602842404, -15272.656413633396, -187500.02235174447, -187500.02235174447, -0.13, 0.892, 0.354, 192.0, 0.0, 0.0, 0.0, 0.0, 0.0, 0.0, 0.0, 0.0, 0.0, 1.7297047504485652E9, 0.0, 2024-10-23 23:02:30.448
212.0, -47179.77162358423, -55390.86376319692, -17385.0527268711, -20989.942072623024, -16989.918588390185, -15302.74186167024, -187500.02235174447, -187500.02235174447, -0.13, 0.892, 0.354, 192.0, 0.0, 0.0, 0.0, 0.0, 0.0, 0.0, 0.0, 0.0, 0.0, 1.729704750452581E9, 0.0, 2024-10-23 23:02:30.452
213.0, -47245.82102844966, -55561.653442579925, -17026.50839406352, -21260.10760785432, -16996.5123530045, -15352.318030872111, -187500.02235174447, -187500.02235174447, -0.13, 0.892, 0.354, 192.0, 0.0, 0.0, 0.0, 0.0, 0.0, 0.0, 0.0, 0.0, 0.0, 1.7297047504566245E9, 0.0, 2024-10-23 23:02:30.456
214.0, -47221.72584792684, -55522.22496536076, -17011.55507702292, -21224.18835451464, -16985.336480776845, -15338.236431865267, -187500.02235174447, -187500.02235174447, -0.13, 0.892, 0.354, 192.0, 0.0, 0.0, 0.0, 0.0, 0.0, 0.0, 0.0, 0.0, 0.0, 1.729704750460626E9, 0.0, 2024-10-23 23:02:30.460
215.0, -47184.17491724192, -55418.892850743876, -17184.982262251648, -21058.49487286745, -16972.953614348604, -15289.330814997056, -187500.02235174447, -187500.02235174447, -0.13, 0.892, 0.354, 192.0, 0.0, 0.0, 0.0, 0.0, 0.0, 0.0, 0.0, 0.0, 0.0, 1.7297047504645982E9, 0.0, 2024-10-23 23:02:30.464
216.0, -47153.88830350498, -55328.368285699886, -17423.1624511674, -20920.42814736702, -16975.278195771956, -15263.73806759573, -187500.02235174447, -187500.02235174447, -0.13, 0.892, 0.354, 192.0, 0.0, 0.0, 0.0, 0.0, 0.0, 0.0, 0.0, 0.0, 0.0, 1.7297047504685943E9, 0.0, 2024-10-23 23:02:30.468
217.0, -47177.89407704998, -55386.19224860576, -17358.230633524734, -20990.702031934507, -16978.295681273423, -15287.945006840828, -187500.02235174447, -187500.02235174447, -0.13, 0.892, 0.354, 192.0, 0.0, 0.0, 0.0, 0.0, 0.0, 0.0, 0.0, 0.0, 0.0, 1.7297047504738467E9, 0.0, 2024-10-23 23:02:30.473
218.0, -47257.98037743335, -55567.6660618384, -17014.930190435673, -21270.031782392478, -16997.69699546063, -15344.830196479583, -187500.02235174447, -187500.02235174447, -0.13, 0.892, 0.354, 192.0, 0.0, 0.0, 0.0, 0.0, 0.0, 0.0, 0.0, 0.0, 0.0, 1.7297047504765775E9, 0.0, 2024-10-23 23:02:30.476
219.0, -47242.423563292454, -55536.060695178596, -17016.74068173655, -21241.265087278498, -17000.558018750908, -15340.628068521986, -187500.02235174447, -187500.02235174447, -0.128, 0.896, 0.354, 192.0, 252.0, 0.0, 28.0, 0.0, 11.0, 16.0, 0.0, 0.0, 0.0, 1.7297047504815817E9, 0.0, 2024-10-23 23:02:30.481
220.0, -47198.07770229313, -55422.15620543435, -17193.565332122485, -21063.345201414253, -16987.951634878114, -15282.424125960366, -187500.02235174447, -187500.02235174447, -0.128, 0.896, 0.354, 192.0, 0.0, 0.0, 0.0, 0.0, 0.0, 0.0, 0.0, 0.0, 0.0, 1.729704750485617E9, 0.0, 2024-10-23 23:02:30.485
221.0, -47168.37223391202, -55332.14573051283, -17438.004009485725, -20920.42814736702, -16972.372468992766, -15245.20847144228, -187500.02235174447, -187500.02235174447, -0.128, 0.896, 0.354, 192.0, 0.0, 0.0, 0.0, 0.0, 0.0, 0.0, 0.0, 0.0, 0.0, 1.729704750488633E9, 0.0, 2024-10-23 23:02:30.488
222.0, -47177.96113228335, -55387.44394629526, -17374.547406977108, -20982.163665552576, -16971.612509681287, -15263.73806759573, -187500.02235174447, -187500.02235174447, -0.128, 0.896, 0.354, 192.0, 0.0, 0.0, 0.0, 0.0, 0.0, 0.0, 0.0, 0.0, 0.0, 1.729704750492627E9, 0.0, 2024-10-23 23:02:30.492
223.0, -47250.87252269656, -55560.26763442369, -17027.715388264107, -21253.78206417347, -16989.069222100883, -15316.287018810157, -187500.02235174447, -187500.02235174447, -0.128, 0.896, 0.354, 192.0, 0.0, 0.0, 0.0, 0.0, 0.0, 0.0, 0.0, 0.0, 0.0, 1.7297047504975882E9, 0.0, 2024-10-23 23:02:30.497
224.0, -47228.63253696353, -55522.47083454977, -17016.02542591398, -21216.81227884439, -16971.724268403563, -15299.769079657684, -187500.02235174447, -187500.02235174447, -0.128, 0.896, 0.354, 192.0, 0.0, 0.0, 0.0, 0.0, 0.0, 0.0, 0.0, 0.0, 0.0, 1.729704750500668E9, 0.0, 2024-10-23 23:02:30.500
225.0, -47194.52377492473, -55418.22229841022, -17198.370957180377, -21047.83309076227, -16964.92933808915, -15254.26092794668, -187500.02235174447, -187500.02235174447, -0.128, 0.896, 0.354, 192.0, 0.0, 0.0, 0.0, 0.0, 0.0, 0.0, 0.0, 0.0, 0.0, 1.729704750505662E9, 0.0, 2024-10-23 23:02:30.505
226.0, -47163.87953327651, -55327.63067813286, -17441.423826387385, -20908.916998972538, -16967.902120101706, -15232.177404424836, -187500.02235174447, -187500.02235174447, -0.128, 0.896, 0.354, 192.0, 0.0, 0.0, 0.0, 0.0, 0.0, 0.0, 0.0, 0.0, 0.0, 1.7297047505086598E9, 0.0, 2024-10-23 23:02:30.508
227.0, -47196.06604529215, -55394.50709754314, -17397.34618632152, -20985.315261520776, -16986.45406799961, -15268.16371299788, -187500.02235174447, -187500.02235174447, -0.128, 0.896, 0.354, 192.0, 0.0, 0.0, 0.0, 0.0, 0.0, 0.0, 0.0, 0.0, 0.0, 1.729704750512667E9, 0.0, 2024-10-23 23:02:30.512
228.0, -47263.63536878054, -55563.91096876991, -17042.646353560252, -21256.240756063555, -16991.013823868492, -15318.678655466874, -187500.02235174447, -187500.02235174447, -0.128, 0.896, 0.354, 192.0, 0.0, 0.0, 0.0, 0.0, 0.0, 0.0, 0.0, 0.0, 0.0, 1.7297047505166707E9, 0.0, 2024-10-23 23:02:30.516
229.0, -47233.21464457687, -55519.09572113702, -17026.150766152237, -21214.91238056569, -16977.803942895407, -15308.352149528522, -187500.02235174447, -187500.02235174447, -0.128, 0.896, 0.354, 192.0, 0.0, 0.0, 0.0, 0.0, 0.0, 0.0, 0.0, 0.0, 0.0, 1.7297047505206213E9, 0.0, 2024-10-23 23:02:30.520
230.0, -47198.63649590451, -55419.00460946615, -17208.69746311873, -21049.93415474107, -16972.05954457039, -15271.605881643998, -187500.02235174447, -187500.02235174447, -0.132, 0.896, 0.358, 192.0, 251.0, 224.0, 28.0, 0.0, 11.0, 48.0, 0.0, 0.0, 0.0, 1.7297047505236673E9, 0.0, 2024-10-23 23:02:30.523
231.0, -47171.2332572023, -55340.170006772285, -17455.617184116505, -20924.831441024715, -16975.479361472055, -15259.111256493481, -187500.02235174447, -187500.02235174447, -0.132, 0.896, 0.358, 192.0, 0.0, 0.0, 0.0, 0.0, 0.0, 0.0, 0.0, 0.0, 0.0, 1.7297047505276766E9, 0.0, 2024-10-23 23:02:30.527
232.0, -47183.54906839717, -55396.07171965501, -17396.228599098755, -20990.880845890148, -16976.619300439277, -15286.112163795491, -187500.02235174447, -187500.02235174447, -0.132, 0.896, 0.358, 192.0, 0.0, 0.0, 0.0, 0.0, 0.0, 0.0, 0.0, 0.0, 0.0, 1.7297047505317354E9, 0.0, 2024-10-23 23:02:30.531
233.0, -47252.995938419816, -55569.051869994626, -17046.177929184192, -21264.823825934393, -16990.700899446118, -15346.305411613634, -187500.02235174447, -187500.02235174447, -0.132, 0.896, 0.358, 192.0, 0.0, 0.0, 0.0, 0.0, 0.0, 0.0, 0.0, 0.0, 0.0, 1.7297047505366695E9, 0.0, 2024-10-23 23:02:30.536
234.0, -47235.47217076685, -55536.44067483434, -17042.84751926035, -21237.979380843568, -16988.845704656327, -15344.18199589038, -187500.02235174447, -187500.02235174447, -0.132, 0.896, 0.358, 192.0, 0.0, 0.0, 0.0, 0.0, 0.0, 0.0, 0.0, 0.0, 0.0, 1.7297047505407183E9, 0.0, 2024-10-23 23:02:30.540
235.0, -47199.17293777144, -55435.187272451796, -17224.298980748532, -21072.799989318846, -16983.146009820226, -15301.914847125394, -187500.02235174447, -187500.02235174447, -0.132, 0.896, 0.358, 192.0, 0.0, 0.0, 0.0, 0.0, 0.0, 0.0, 0.0, 0.0, 0.0, 1.7297047505448847E9, 0.0, 2024-10-23 23:02:30.544
236.0, -47167.05348098916, -55346.54025394205, -17462.16624524191, -20936.409644652565, -16981.223759797067, -15281.775925371163, -187500.02235174447, -187500.02235174447, -0.132, 0.896, 0.358, 192.0, 0.0, 0.0, 0.0, 0.0, 0.0, 0.0, 0.0, 0.0, 0.0, 1.7297047505478873E9, 0.0, 2024-10-23 23:02:30.547
237.0, -47195.57430691413, -55408.320475616514, -17413.707663262805, -21002.906084407103, -16991.192637824137, -15313.671864708886, -187500.02235174447, -187500.02235174447, -0.132, 0.896, 0.358, 192.0, 0.0, 0.0, 0.0, 0.0, 0.0, 0.0, 0.0, 0.0, 0.0, 1.7297047505516922E9, 0.0, 2024-10-23 23:02:30.551
238.0, -47282.142613189535, -55592.275332483696, -17076.196321987667, -21290.237759380074, -17008.22466709908, -15368.545397346665, -187500.02235174447, -187500.02235174447, -0.132, 0.896, 0.358, 192.0, 0.0, 0.0, 0.0, 0.0, 0.0, 0.0, 0.0, 0.0, 0.0, 1.7297047505556538E9, 0.0, 2024-10-23 23:02:30.555
239.0, -47248.14560987301, -55543.43677084885, -17059.074885734903, -21247.45652049262, -16986.07408834387, -15337.3200103426, -187500.02235174447, -187500.02235174447, -0.132, 0.896, 0.358, 192.0, 0.0, 0.0, 0.0, 0.0, 0.0, 0.0, 0.0, 0.0, 0.0, 1.7297047505598352E9, 0.0, 2024-10-23 23:02:30.559
240.0, -47218.06016183617, -55439.1882347093, -17247.768312426604, -21078.946719044055, -16989.3597947788, -15294.583474944053, -187500.02235174447, -187500.02235174447, -0.132, 0.89, 0.36, 192.0, 251.0, 224.0, 27.0, 208.0, 11.0, 64.0, 0.0, 0.0, 0.0, 1.7297047505647614E9, 0.0, 2024-10-23 23:02:30.564
241.0, -47166.76290831124, -55338.068942793485, -17474.325594225596, -20932.18516495051, -16979.346213262823, -15258.440704159822, -187500.02235174447, -187500.02235174447, -0.132, 0.89, 0.36, 192.0, 0.0, 0.0, 0.0, 0.0, 0.0, 0.0, 0.0, 0.0, 0.0, 1.7297047505688307E9, 0.0, 2024-10-23 23:02:30.568
242.0, -47184.823117831125, -55392.942475431264, -17424.615314556995, -20987.215159799478, -16980.217931296578, -15278.02083230267, -187500.02235174447, -187500.02235174447, -0.132, 0.89, 0.36, 192.0, 0.0, 0.0, 0.0, 0.0, 0.0, 0.0, 0.0, 0.0, 0.0, 1.7297047505748303E9, 0.0, 2024-10-23 23:02:30.574
243.0, -47269.82680199466, -55577.5678846321, -17086.723993626118, -21271.797570204446, -17001.65325422922, -15335.531870786175, -187500.02235174447, -187500.02235174447, -0.132, 0.89, 0.36, 192.0, 0.0, 0.0, 0.0, 0.0, 0.0, 0.0, 0.0, 0.0, 0.0, 1.7297047505777674E9, 0.0, 2024-10-23 23:02:30.577
244.0, -47244.12229587106, -55536.21715738978, -17079.102048766857, -21235.25246802002, -16993.383108780756, -15317.471661266287, -187500.02235174447, -187500.02235174447, -0.132, 0.89, 0.36, 192.0, 0.0, 0.0, 0.0, 0.0, 0.0, 0.0, 0.0, 0.0, 0.0, 1.7297047505807486E9, 0.0, 2024-10-23 23:02:30.580
245.0, -47209.03005707623, -55430.51575786064, -17263.816864945515, -21065.043933992856, -16984.84474239883, -15267.448457175311, -187500.02235174447, -187500.02235174447, -0.132, 0.89, 0.36, 192.0, 0.0, 0.0, 0.0, 0.0, 0.0, 0.0, 0.0, 0.0, 0.0, 1.729704750584725E9, 0.0, 2024-10-23 23:02:30.584
246.0, -47179.637513117494, -55341.10878003941, -17506.489754496786, -20927.893630015093, -16988.711594189597, -15242.950945252294, -187500.02235174447, -187500.02235174447, -0.132, 0.89, 0.36, 192.0, 0.0, 0.0, 0.0, 0.0, 0.0, 0.0, 0.0, 0.0, 0.0, 1.7297047505877728E9, 0.0, 2024-10-23 23:02:30.587
247.0, -47194.277905735726, -55393.25539985364, -17453.851396304537, -20981.67192717456, -16986.208198810604, -15255.892605291916, -187500.02235174447, -187500.02235174447, -0.132, 0.89, 0.36, 192.0, 0.0, 0.0, 0.0, 0.0, 0.0, 0.0, 0.0, 0.0, 0.0, 1.7297047505927331E9, 0.0, 2024-10-23 23:02:30.592
248.0, -47273.961874718894, -55580.875942811486, -17109.165145059247, -21266.656668979726, -17007.352949065324, -15315.728225198774, -187500.02235174447, -187500.02235174447, -0.132, 0.89, 0.36, 192.0, 0.0, 0.0, 0.0, 0.0, 0.0, 0.0, 0.0, 0.0, 0.0, 1.729704750596744E9, 0.0, 2024-10-23 23:02:30.596
249.0, -47244.457572037885, -55541.20159640331, -17085.069964536426, -21231.273857506974, -16982.944844120128, -15294.270550521678, -187500.02235174447, -187500.02235174447, -0.132, 0.89, 0.36, 192.0, 0.0, 0.0, 0.0, 0.0, 0.0, 0.0, 0.0, 0.0, 0.0, 1.729704750600727E9, 0.0, 2024-10-23 23:02:30.600
250.0, -47202.950382584386, -55434.762589307145, -17259.36886779891, -21060.439474635063, -16965.331669489344, -15234.323171892545, -187500.02235174447, -187500.02235174447, -0.124, 0.894, 0.364, 192.0, 252.0, 32.0, 27.0, 240.0, 11.0, 96.0, 0.0, 0.0, 0.0, 1.7297047506047447E9, 0.0, 2024-10-23 23:02:30.604
251.0, -47168.79691705667, -55342.42753296227, -17491.46938222282, -20919.288208399797, -16965.10815204479, -15200.952017420772, -187500.02235174447, -187500.02235174447, -0.124, 0.894, 0.364, 192.0, 0.0, 0.0, 0.0, 0.0, 0.0, 0.0, 0.0, 0.0, 0.0, 1.729704750608774E9, 0.0, 2024-10-23 23:02:30.608
252.0, -47192.33330396811, -55397.18930687777, -17443.480186877274, -20968.86437760167, -16968.192692779623, -15218.319322862546, -187500.02235174447, -187500.02235174447, -0.124, 0.894, 0.364, 192.0, 0.0, 0.0, 0.0, 0.0, 0.0, 0.0, 0.0, 0.0, 0.0, 1.7297047506117542E9, 0.0, 2024-10-23 23:02:30.611
253.0, -47269.58093280565, -55575.15389623093, -17086.232255248102, -21248.015314104, -16973.445352726623, -15272.812875844584, -187500.02235174447, -187500.02235174447, -0.124, 0.894, 0.364, 192.0, 0.0, 0.0, 0.0, 0.0, 0.0, 0.0, 0.0, 0.0, 0.0, 1.7297047506158073E9, 0.0, 2024-10-23 23:02:30.615
254.0, -47246.4021738055, -55539.547567313624, -17067.970880028115, -21221.126165524267, -16965.801056122906, -15268.476637420254, -187500.02235174447, -187500.02235174447, -0.124, 0.894, 0.364, 192.0, 0.0, 0.0, 0.0, 0.0, 0.0, 0.0, 0.0, 0.0, 0.0, 1.7297047506207478E9, 0.0, 2024-10-23 23:02:30.620
255.0, -47197.25068774828, -55430.11342646044, -17233.664361675306, -21051.677590808584, -16949.08195127034, -15227.282372389123, -187500.02235174447, -187500.02235174447, -0.124, 0.894, 0.364, 192.0, 0.0, 0.0, 0.0, 0.0, 0.0, 0.0, 0.0, 0.0, 0.0, 1.7297047506247647E9, 0.0, 2024-10-23 23:02:30.624
0.0, -47160.83969603058, -55341.7122771397, -17466.07780052159, -20919.37761537762, -16955.563957162376, -15220.219221141246, -187500.02235174447, -187500.02235174447, -0.124, 0.894, 0.364, 192.0, 0.0, 0.0, 0.0, 0.0, 0.0, 0.0, 0.0, 0.0, 0.0, 1.729704750628819E9, 0.0, 2024-10-23 23:02:30.628
1.0, -47184.30902770866, -55400.989103435175, -17423.475375589773, -20984.465895231475, -16965.10815204479, -15261.122913494459, -187500.02235174447, -187500.02235174447, -0.124, 0.894, 0.364, 192.0, 0.0, 0.0, 0.0, 0.0, 0.0, 0.0, 0.0, 0.0, 0.0, 1.729704750631768E9, 0.0, 2024-10-23 23:02:30.631
2.0, -47258.2038948779, -55576.76322183171, -17062.47235089211, -21266.1202271128, -16979.569730707375, -15324.624219491985, -187500.02235174447, -187500.02235174447, -0.124, 0.894, 0.364, 192.0, 0.0, 0.0, 0.0, 0.0, 0.0, 0.0, 0.0, 0.0, 0.0, 1.729704750635785E9, 0.0, 2024-10-23 23:02:30.635
3.0, -47237.148551601, -55538.38527660195, -17041.12643493729, -21234.53721219745, -16975.278195771956, -15321.316161312601, -187500.02235174447, -187500.02235174447, -0.124, 0.894, 0.364, 192.0, 0.0, 0.0, 0.0, 0.0, 0.0, 0.0, 0.0, 0.0, 0.0, 1.729704750639869E9, 0.0, 2024-10-23 23:02:30.639
4.0, -47197.407149959465, -55431.4321793833, -17219.940390579748, -21067.16734971611, -16977.46866672858, -15282.580588171553, -187500.02235174447, -187500.02235174447, -0.126, 0.894, 0.362, 192.0, 252.0, 16.0, 27.0, 240.0, 11.0, 80.0, 0.0, 0.0, 0.0, 1.7297047506438396E9, 0.0, 2024-10-23 23:02:30.643
5.0, -47158.67157681842, -55337.13016952636, -17448.64343984645, -20926.060786969756, -16975.009974838493, -15252.718657579264, -187500.02235174447, -187500.02235174447, -0.126, 0.894, 0.362, 192.0, 0.0, 0.0, 0.0, 0.0, 0.0, 0.0, 0.0, 0.0, 0.0, 1.7297047506487708E9, 0.0, 2024-10-23 23:02:30.648
6.0, -47183.81728933064, -55386.52752477259, -17409.818459727583, -20972.127732292145, -16975.36760274978, -15270.845922332517, -187500.02235174447, -187500.02235174447, -0.126, 0.894, 0.362, 192.0, 0.0, 0.0, 0.0, 0.0, 0.0, 0.0, 0.0, 0.0, 0.0, 1.729704750652808E9, 0.0, 2024-10-23 23:02:30.652
7.0, -47262.718947257876, -55566.92845427137, -17061.779446813995, -21254.743189185047, -16989.1586290787, -15324.691274725352, -187500.02235174447, -187500.02235174447, -0.126, 0.894, 0.362, 192.0, 0.0, 0.0, 0.0, 0.0, 0.0, 0.0, 0.0, 0.0, 0.0, 1.729704750656831E9, 0.0, 2024-10-23 23:02:30.656
8.0, -47243.96583365987, -55531.21036663179, -17053.53165310999, -21230.02215981748, -16987.482248244556, -15317.248143821735, -187500.02235174447, -187500.02235174447, -0.126, 0.894, 0.362, 192.0, 0.0, 0.0, 0.0, 0.0, 0.0, 0.0, 0.0, 0.0, 0.0, 1.7297047506598246E9, 0.0, 2024-10-23 23:02:30.659
9.0, -47206.34784774159, -55426.69360955878, -17233.910230864316, -21061.914689769113, -16974.719402160576, -15265.16857924087, -187500.02235174447, -187500.02235174447, -0.126, 0.894, 0.362, 192.0, 0.0, 0.0, 0.0, 0.0, 0.0, 0.0, 0.0, 0.0, 0.0, 1.729704750663803E9, 0.0, 2024-10-23 23:02:30.663
10.0, -47166.74055656679, -55334.44796019173, -17466.055448777133, -20919.57878107772, -16969.489093958033, -15227.327075878035, -187500.02235174447, -187500.02235174447, -0.126, 0.894, 0.362, 192.0, 0.0, 0.0, 0.0, 0.0, 0.0, 0.0, 0.0, 0.0, 0.0, 1.729704750667797E9, 0.0, 2024-10-23 23:02:30.667
11.0, -47196.44602494789, -55395.02118766561, -17444.664829333404, -20977.58155793924, -16986.45406799961, -15258.060724504081, -187500.02235174447, -187500.02235174447, -0.126, 0.894, 0.362, 192.0, 0.0, 0.0, 0.0, 0.0, 0.0, 0.0, 0.0, 0.0, 0.0, 1.72970475067181E9, 0.0, 2024-10-23 23:02:30.671
12.0, -47282.03085446726, -55587.022672536696, -17104.739499657095, -21273.29513708295, -17007.04002464295, -15322.567859002098, -187500.02235174447, -187500.02235174447, -0.126, 0.894, 0.362, 192.0, 0.0, 0.0, 0.0, 0.0, 0.0, 0.0, 0.0, 0.0, 0.0, 1.7297047506768641E9, 0.0, 2024-10-23 23:02:30.676
13.0, -47248.14560987301, -55543.257956893205, -17075.23519697609, -21234.29134300844, -16985.001204610016, -15293.97997784376, -187500.02235174447, -187500.02235174447, -0.126, 0.894, 0.362, 192.0, 0.0, 0.0, 0.0, 0.0, 0.0, 0.0, 0.0, 0.0, 0.0, 1.729704750680909E9, 0.0, 2024-10-23 23:02:30.680
14.0, -47198.30121973768, -55429.06289447104, -17243.923812380293, -21056.05853272182, -16964.728172389052, -15234.30082014809, -187500.02235174447, -187500.02235174447, -0.128, 0.894, 0.362, 192.0, 252.0, 0.0, 27.0, 240.0, 11.0, 80.0, 0.0, 0.0, 0.0, 1.729704750684929E9, 0.0, 2024-10-23 23:02:30.684
15.0, -47167.992254256285, -55343.23219576266, -17482.394573973965, -20921.501031100874, -16967.656250912696, -15211.949075692783, -187500.02235174447, -187500.02235174447, -0.128, 0.894, 0.362, 192.0, 0.0, 0.0, 0.0, 0.0, 0.0, 0.0, 0.0, 0.0, 0.0, 1.7297047506879213E9, 0.0, 2024-10-23 23:02:30.687
16.0, -47187.37121669903, -55391.91429518632, -17452.26442244821, -20972.64182241462, -16976.686355672642, -15233.652619558887, -187500.02235174447, -187500.02235174447, -0.128, 0.894, 0.362, 192.0, 0.0, 0.0, 0.0, 0.0, 0.0, 0.0, 0.0, 0.0, 0.0, 1.7297047506919012E9, 0.0, 2024-10-23 23:02:30.691
17.0, -47260.908455957, -55570.50473338422, -17096.156429786257, -21252.619773461793, -16989.69507094563, -15282.982919571748, -187500.02235174447, -187500.02235174447, -0.128, 0.894, 0.362, 192.0, 0.0, 0.0, 0.0, 0.0, 0.0, 0.0, 0.0, 0.0, 0.0, 1.7297047506959307E9, 0.0, 2024-10-23 23:02:30.695
18.0, -47236.52270275625, -55530.65157302041, -17065.914519538226, -21215.113546265788, -16975.345251005325, -15259.78180882714, -187500.02235174447, -187500.02235174447, -0.128, 0.894, 0.362, 192.0, 0.0, 0.0, 0.0, 0.0, 0.0, 0.0, 0.0, 0.0, 0.0, 1.7297047506999152E9, 0.0, 2024-10-23 23:02:30.699
19.0, -47202.57040292864, -55423.94434499078, -17243.722646680195, -21047.609573317717, -16967.902120101706, -15206.808174468062, -187500.02235174447, -187500.02235174447, -0.128, 0.894, 0.362, 192.0, 0.0, 0.0, 0.0, 0.0, 0.0, 0.0, 0.0, 0.0, 0.0, 1.7297047507059624E9, 0.0, 2024-10-23 23:02:30.705
20.0, -47178.743443339285, -55342.04755330653, -17485.479114708796, -20913.677920541515, -16965.957518334093, -15179.807267166052, -187500.02235174447, -187500.02235174447, -0.128, 0.894, 0.362, 192.0, 0.0, 0.0, 0.0, 0.0, 0.0, 0.0, 0.0, 0.0, 0.0, 1.7297047507089145E9, 0.0, 2024-10-23 23:02:30.708
21.0, -47196.75894937026, -55391.80253646404, -17457.852358562035, -20958.67198213005, -16968.125637546258, -15198.62743599742, -187500.02235174447, -187500.02235174447, -0.128, 0.894, 0.362, 192.0, 0.0, 0.0, 0.0, 0.0, 0.0, 0.0, 0.0, 0.0, 0.0, 1.7297047507129338E9, 0.0, 2024-10-23 23:02:30.712
22.0, -47281.516764344786, -55582.64173062346, -17107.77933690302, -21249.78110191597, -16989.31509128989, -15261.905224550394, -187500.02235174447, -187500.02235174447, -0.128, 0.894, 0.362, 192.0, 0.0, 0.0, 0.0, 0.0, 0.0, 0.0, 0.0, 0.0, 0.0, 1.729704750716894E9, 0.0, 2024-10-23 23:02:30.716
23.0, -47251.20779886339, -55542.09566618153, -17070.541330640477, -21220.656778890705, -16973.13242830425, -15245.58845109802, -187500.02235174447, -187500.02235174447, -0.128, 0.894, 0.362, 192.0, 0.0, 0.0, 0.0, 0.0, 0.0, 0.0, 0.0, 0.0, 0.0, 1.729704750719928E9, 0.0, 2024-10-23 23:02:30.719
24.0, -47203.218603517846, -55429.46522587124, -17232.233850030167, -21043.9662389715, -16959.095532786316, -15201.130831376415, -187500.02235174447, -187500.02235174447, -0.126, 0.888, 0.366, 192.0, 252.0, 16.0, 27.0, 192.0, 11.0, 112.0, 0.0, 0.0, 0.0, 1.7297047507239065E9, 0.0, 2024-10-23 23:02:30.723
25.0, -47178.385815428, -55347.85900686491, -17469.385858700974, -20917.053033954267, -16968.147989290715, -15191.43017428281, -187500.02235174447, -187500.02235174447, -0.126, 0.888, 0.366, 192.0, 0.0, 0.0, 0.0, 0.0, 0.0, 0.0, 0.0, 0.0, 0.0, 1.7297047507279427E9, 0.0, 2024-10-23 23:02:30.727
26.0, -47190.92514406743, -55390.95317017474, -17430.985561726757, -20957.66615362956, -16962.44829445461, -15207.814002968551, -187500.02235174447, -187500.02235174447, -0.126, 0.888, 0.366, 192.0, 0.0, 0.0, 0.0, 0.0, 0.0, 0.0, 0.0, 0.0, 0.0, 1.7297047507319465E9, 0.0, 2024-10-23 23:02:30.731
27.0, -47261.48960131283, -55570.77295431769, -17066.89799629426, -21244.662552435704, -16979.256806285, -15275.852713090506, -187500.02235174447, -187500.02235174447, -0.126, 0.888, 0.366, 192.0, 0.0, 0.0, 0.0, 0.0, 0.0, 0.0, 0.0, 0.0, 0.0, 1.7297047507369688E9, 0.0, 2024-10-23 23:02:30.736
28.0, -47237.10384811209, -55533.44554107732, -17032.69982727764, -21221.752014369013, -16973.959442849093, -15273.796352600617, -187500.02235174447, -187500.02235174447, -0.126, 0.888, 0.366, 192.0, 0.0, 0.0, 0.0, 0.0, 0.0, 0.0, 0.0, 0.0, 0.0, 1.7297047507410624E9, 0.0, 2024-10-23 23:02:30.741
29.0, -47198.21181275986, -55423.31849614603, -17202.908361304806, -21053.085750709266, -16966.78453287894, -15229.271677645645, -187500.02235174447, -187500.02235174447, -0.126, 0.888, 0.366, 192.0, 0.0, 0.0, 0.0, 0.0, 0.0, 0.0, 0.0, 0.0, 0.0, 1.7297047507451046E9, 0.0, 2024-10-23 23:02:30.745
30.0, -47163.27603617621, -55330.89403282333, -17434.897117006436, -20913.946141474982, -16968.505617201998, -15205.824697712029, -187500.02235174447, -187500.02235174447, -0.126, 0.888, 0.366, 192.0, 0.0, 0.0, 0.0, 0.0, 0.0, 0.0, 0.0, 0.0, 0.0, 1.7297047507479541E9, 0.0, 2024-10-23 23:02:30.747
31.0, -47175.65890260445, -55371.1718763318, -17411.74070975074, -20953.307563460778, -16976.664003928185, -15227.528241578131, -187500.02235174447, -187500.02235174447, -0.126, 0.888, 0.366, 192.0, 0.0, 0.0, 0.0, 0.0, 0.0, 0.0, 0.0, 0.0, 0.0, 1.7297047507520945E9, 0.0, 2024-10-23 23:02:30.752
32.0, -47262.562485046685, -55565.45323913732, -17068.66378410623, -21251.055151349923, -17005.587161253352, -15297.332739512056, -187500.02235174447, -187500.02235174447, -0.126, 0.888, 0.366, 192.0, 0.0, 0.0, 0.0, 0.0, 0.0, 0.0, 0.0, 0.0, 0.0, 1.7297047507559717E9, 0.0, 2024-10-23 23:02:30.755
33.0, -47241.28362432523, -55534.83134923355, -17045.306211150433, -21230.111566795298, -16998.546361749934, -15284.949873083815, -187500.02235174447, -187500.02235174447, -0.126, 0.888, 0.366, 192.0, 0.0, 0.0, 0.0, 0.0, 0.0, 0.0, 0.0, 0.0, 0.0, 1.729704750760044E9, 0.0, 2024-10-23 23:02:30.760
34.0, -47190.835737089605, -55416.6800280428, -17217.347588222932, -21051.632887319673, -16982.430753997654, -15228.332904378523, -187500.02235174447, -187500.02235174447, -0.128, 0.89, 0.368, 192.0, 252.0, 0.0, 27.0, 208.0, 11.0, 128.0, 0.0, 0.0, 0.0, 1.7297047507639987E9, 0.0, 2024-10-23 23:02:30.763
35.0, -47163.231332687305, -55328.368285699886, -17459.484035907273, -20912.783850763306, -16985.336480776845, -15201.44375579879, -187500.02235174447, -187500.02235174447, -0.128, 0.89, 0.368, 192.0, 0.0, 0.0, 0.0, 0.0, 0.0, 0.0, 0.0, 0.0, 0.0, 1.729704750769061E9, 0.0, 2024-10-23 23:02:30.769
36.0, -47167.67932983391, -55362.409992505316, -17432.97486698328, -20945.193880223498, -16986.27525404397, -15210.67502625883, -187500.02235174447, -187500.02235174447, -0.128, 0.89, 0.368, 192.0, 0.0, 0.0, 0.0, 0.0, 0.0, 0.0, 0.0, 0.0, 0.0, 1.7297047507720459E9, 0.0, 2024-10-23 23:02:30.772
37.0, -47244.25640633779, -55548.26474765119, -17073.581167886397, -21229.932752839657, -16996.288835559946, -15266.956718797293, -187500.02235174447, -187500.02235174447, -0.128, 0.89, 0.368, 192.0, 0.0, 0.0, 0.0, 0.0, 0.0, 0.0, 0.0, 0.0, 0.0, 1.729704750776001E9, 0.0, 2024-10-23 23:02:30.776
38.0, -47227.134970085026, -55514.804186201596, -17040.70175179264, -21205.323482194362, -16980.150876063213, -15251.198738956302, -187500.02235174447, -187500.02235174447, -0.128, 0.89, 0.368, 192.0, 0.0, 0.0, 0.0, 0.0, 0.0, 0.0, 0.0, 0.0, 0.0, 1.7297047507801535E9, 0.0, 2024-10-23 23:02:30.780
39.0, -47189.9863708003, -55410.287429128584, -17213.681902132263, -21039.741759269447, -16973.668870171176, -15201.689624987797, -187500.02235174447, -187500.02235174447, -0.128, 0.89, 0.368, 192.0, 0.0, 0.0, 0.0, 0.0, 0.0, 0.0, 0.0, 0.0, 0.0, 1.7297047507840323E9, 0.0, 2024-10-23 23:02:30.784
40.0, -47164.95241701036, -55328.703561866714, -17445.961230511813, -20907.307673371753, -16978.27332952897, -15175.493380486178, -187500.02235174447, -187500.02235174447, -0.128, 0.89, 0.368, 192.0, 0.0, 0.0, 0.0, 0.0, 0.0, 0.0, 0.0, 0.0, 0.0, 1.729704750788024E9, 0.0, 2024-10-23 23:02:30.788
41.0, -47175.90477179346, -55365.29336754005, -17412.277151617665, -20937.750749319883, -16967.857416612795, -15182.064793356038, -187500.02235174447, -187500.02235174447, -0.128, 0.89, 0.368, 192.0, 0.0, 0.0, 0.0, 0.0, 0.0, 0.0, 0.0, 0.0, 0.0, 1.7297047507920296E9, 0.0, 2024-10-23 23:02:30.792
42.0, -47249.911397684984, -55548.26474765119, -17042.2216704156, -21220.455613190607, -16971.947785848115, -15228.82464275654, -187500.02235174447, -187500.02235174447, -0.128, 0.89, 0.368, 192.0, 0.0, 0.0, 0.0, 0.0, 0.0, 0.0, 0.0, 0.0, 0.0, 1.7297047507970235E9, 0.0, 2024-10-23 23:02:30.797
43.0, -47230.84535966461, -55514.89359317942, -17011.55507702292, -21195.019328000468, -16968.304451501903, -15212.887848959906, -187500.02235174447, -187500.02235174447, -0.128, 0.89, 0.368, 192.0, 0.0, 0.0, 0.0, 0.0, 0.0, 0.0, 0.0, 0.0, 0.0, 1.7297047508000448E9, 0.0, 2024-10-23 23:02:30.800
44.0, -47200.983429072316, -55412.07556868501, -17194.88408504535, -21027.202430630023, -16968.617375924274, -15167.424400737811, -187500.02235174447, -187500.02235174447, -0.132, 0.886, 0.36, 192.0, 251.0, 224.0, 27.0, 176.0, 11.0, 64.0, 0.0, 0.0, 0.0, 1.729704750804041E9, 0.0, 2024-10-23 23:02:30.804
45.0, -47180.79980382917, -55332.63746889085, -17434.047750717134, -20898.121106400624, -16968.84089336883, -15140.04351378006, -187500.02235174447, -187500.02235174447, -0.132, 0.886, 0.36, 192.0, 0.0, 0.0, 0.0, 0.0, 0.0, 0.0, 0.0, 0.0, 0.0, 1.72970475080805E9, 0.0, 2024-10-23 23:02:30.808
46.0, -47183.12438525252, -55373.00471937713, -17408.231485871256, -20936.00731325237, -16966.851588112306, -15158.23783376668, -187500.02235174447, -187500.02235174447, -0.132, 0.886, 0.36, 192.0, 0.0, 0.0, 0.0, 0.0, 0.0, 0.0, 0.0, 0.0, 0.0, 1.7297047508140635E9, 0.0, 2024-10-23 23:02:30.814
47.0, -47257.51099079979, -55559.48532336776, -17046.75907454003, -21228.882220850257, -16977.26750102848, -15218.609895540465, -187500.02235174447, -187500.02235174447, -0.132, 0.886, 0.36, 192.0, 0.0, 0.0, 0.0, 0.0, 0.0, 0.0, 0.0, 0.0, 0.0, 1.7297047508170545E9, 0.0, 2024-10-23 23:02:30.817
48.0, -47234.01930737726, -55523.90134619491, -17010.839821200352, -21206.239903717033, -16963.20825376609, -15205.422366311834, -187500.02235174447, -187500.02235174447, -0.132, 0.886, 0.36, 192.0, 0.0, 0.0, 0.0, 0.0, 0.0, 0.0, 0.0, 0.0, 0.0, 1.7297047508201008E9, 0.0, 2024-10-23 23:02:30.820
49.0, -47189.360521955554, -55411.740292518174, -17178.2543871706, -21036.79132900135, -16955.07221878436, -15161.210615779235, -187500.02235174447, -187500.02235174447, -0.132, 0.886, 0.36, 192.0, 0.0, 0.0, 0.0, 0.0, 0.0, 0.0, 0.0, 0.0, 0.0, 1.7297047508252E9, 0.0, 2024-10-23 23:02:30.825
50.0, -47163.499553620764, -55328.837672333444, -17413.037110929145, -20903.485525069897, -16963.07414329936, -15148.872452839907, -187500.02235174447, -187500.02235174447, -0.132, 0.886, 0.36, 192.0, 0.0, 0.0, 0.0, 0.0, 0.0, 0.0, 0.0, 0.0, 0.0, 1.7297047508282063E9, 0.0, 2024-10-23 23:02:30.828
51.0, -47182.34207419659, -55374.144658344354, -17404.72226199177, -20945.797377323794, -16975.769934149976, -15182.087145100493, -187500.02235174447, -187500.02235174447, -0.132, 0.886, 0.36, 192.0, 0.0, 0.0, 0.0, 0.0, 0.0, 0.0, 0.0, 0.0, 0.0, 1.7297047508323023E9, 0.0, 2024-10-23 23:02:30.832
52.0, -47254.26998785377, -55559.93235825686, -17044.725065794595, -21238.895802366234, -16993.852495414318, -15248.807102299585, -187500.02235174447, -187500.02235174447, -0.132, 0.886, 0.36, 192.0, 0.0, 0.0, 0.0, 0.0, 0.0, 0.0, 0.0, 0.0, 0.0, 1.729704750836394E9, 0.0, 2024-10-23 23:02:30.836
53.0, -47231.940595142914, -55529.84691022002, -17009.386957810755, -21223.182526014152, -16988.912759889696, -15248.270660432658, -187500.02235174447, -187500.02235174447, -0.132, 0.886, 0.36, 192.0, 0.0, 0.0, 0.0, 0.0, 0.0, 0.0, 0.0, 0.0, 0.0, 1.7297047508402016E9, 0.0, 2024-10-23 23:02:30.840
54.0, -47190.47810917832, -55422.245612412175, -17176.957985992194, -21054.493910609952, -16979.279158029458, -15204.237723855702, -187500.02235174447, -187500.02235174447, -0.132, 0.892, 0.362, 192.0, 251.0, 224.0, 27.0, 224.0, 11.0, 80.0, 0.0, 0.0, 0.0, 1.7297047508441217E9, 0.0, 2024-10-23 23:02:30.844
55.0, -47158.403355884955, -55337.174873015276, -17402.93412243535, -20919.80229852227, -16980.396745252223, -15180.701336944263, -187500.02235174447, -187500.02235174447, -0.132, 0.892, 0.362, 192.0, 0.0, 0.0, 0.0, 0.0, 0.0, 0.0, 0.0, 0.0, 0.0, 1.729704750848305E9, 0.0, 2024-10-23 23:02:30.848
56.0, -47173.55783862565, -55373.96584438871, -17387.10908736099, -20957.57674665174, -16994.970082637083, -15204.796517467084, -187500.02235174447, -187500.02235174447, -0.132, 0.892, 0.362, 192.0, 0.0, 0.0, 0.0, 0.0, 0.0, 0.0, 0.0, 0.0, 0.0, 1.729704750853224E9, 0.0, 2024-10-23 23:02:30.853
57.0, -47250.93957792992, -55557.943053000345, -17017.053606158926, -21248.127072826275, -17002.726137963073, -15257.881910548438, -187500.02235174447, -187500.02235174447, -0.132, 0.892, 0.362, 192.0, 0.0, 0.0, 0.0, 0.0, 0.0, 0.0, 0.0, 0.0, 0.0, 1.7297047508562064E9, 0.0, 2024-10-23 23:02:30.856
58.0, -47229.97364163085, -55527.56703228558, -16976.932224861648, -21225.797680115425, -16986.92345463317, -15239.307610906078, -187500.02235174447, -187500.02235174447, -0.132, 0.892, 0.362, 192.0, 0.0, 0.0, 0.0, 0.0, 0.0, 0.0, 0.0, 0.0, 0.0, 1.7297047508600943E9, 0.0, 2024-10-23 23:02:30.860
59.0, -47193.67440863543, -55422.647943812364, -17152.81810198046, -21062.339372913764, -16980.88848363024, -15191.184305093802, -187500.02235174447, -187500.02235174447, -0.132, 0.892, 0.362, 192.0, 0.0, 0.0, 0.0, 0.0, 0.0, 0.0, 0.0, 0.0, 0.0, 1.7297047508642652E9, 0.0, 2024-10-23 23:02:30.864
60.0, -47151.16139068144, -55326.06605602099, -17378.39190702342, -20923.177411935023, -16972.104248059302, -15153.387505219878, -187500.02235174447, -187500.02235174447, -0.132, 0.892, 0.362, 192.0, 0.0, 0.0, 0.0, 0.0, 0.0, 0.0, 0.0, 0.0, 0.0, 1.729704750869197E9, 0.0, 2024-10-23 23:02:30.869
61.0, -47167.79108855619, -55363.77344891709, -17379.218921568267, -20957.263822229364, -16983.101306331315, -15171.00067985066, -187500.02235174447, -187500.02235174447, -0.132, 0.892, 0.362, 192.0, 0.0, 0.0, 0.0, 0.0, 0.0, 0.0, 0.0, 0.0, 0.0, 1.729704750873242E9, 0.0, 2024-10-23 23:02:30.873
62.0, -47248.59264476212, -55551.28223315266, -17026.97778069708, -21254.184395573666, -16996.98173963806, -15226.768282266652, -187500.02235174447, -187500.02235174447, -0.132, 0.892, 0.362, 192.0, 0.0, 0.0, 0.0, 0.0, 0.0, 0.0, 0.0, 0.0, 0.0, 1.7297047508783045E9, 0.0, 2024-10-23 23:02:30.878
63.0, -47218.23897579181, -55507.13753785343, -16980.5085039745, -21224.411871959197, -16973.60181493781, -15198.761546464151, -187500.02235174447, -187500.02235174447, -0.132, 0.892, 0.362, 192.0, 0.0, 0.0, 0.0, 0.0, 0.0, 0.0, 0.0, 0.0, 0.0, 1.7297047508813646E9, 0.0, 2024-10-23 23:02:30.881
64.0, -47187.0359405322, -55405.168879648314, -17158.562500305474, -21061.44530313555, -16968.192692779623, -15150.61588890742, -187500.02235174447, -187500.02235174447, -0.13, 0.896, 0.362, 192.0, 251.0, 240.0, 28.0, 0.0, 11.0, 80.0, 0.0, 0.0, 0.0, 1.7297047508854303E9, 0.0, 2024-10-23 23:02:30.885
65.0, -47150.46848660332, -55310.93392502474, -17383.555159992597, -20922.149231690077, -16964.16937877767, -15116.529478613076, -187500.02235174447, -187500.02235174447, -0.13, 0.896, 0.362, 192.0, 0.0, 0.0, 0.0, 0.0, 0.0, 0.0, 0.0, 0.0, 0.0, 1.7297047508882077E9, 0.0, 2024-10-23 23:02:30.888
66.0, -47161.823172786615, -55346.249681264126, -17380.15769483539, -20947.987848280412, -16977.64748068422, -15137.249545723147, -187500.02235174447, -187500.02235174447, -0.13, 0.896, 0.362, 192.0, 0.0, 0.0, 0.0, 0.0, 0.0, 0.0, 0.0, 0.0, 0.0, 1.7297047508922558E9, 0.0, 2024-10-23 23:02:30.892
67.0, -47227.31378404066, -55530.71862825378, -17009.99045491105, -21235.76655814249, -16966.002221823004, -15176.812133409041, -187500.02235174447, -187500.02235174447, -0.13, 0.896, 0.362, 192.0, 0.0, 0.0, 0.0, 0.0, 0.0, 0.0, 0.0, 0.0, 0.0, 1.729704750896184E9, 0.0, 2024-10-23 23:02:30.896
68.0, -47213.90273736748, -55506.44463377531, -16978.4074399957, -21223.070767291876, -16955.40749495119, -15161.724705901708, -187500.02235174447, -187500.02235174447, -0.13, 0.896, 0.362, 192.0, 0.0, 0.0, 0.0, 0.0, 0.0, 0.0, 0.0, 0.0, 0.0, 1.7297047509004512E9, 0.0, 2024-10-23 23:02:30.900
69.0, -47180.777452084716, -55407.35935060494, -17160.97648870665, -21058.964259501012, -16955.049867039903, -15118.205859447226, -187500.02235174447, -187500.02235174447, -0.13, 0.896, 0.362, 192.0, 0.0, 0.0, 0.0, 0.0, 0.0, 0.0, 0.0, 0.0, 0.0, 1.7297047509044623E9, 0.0, 2024-10-23 23:02:30.904
70.0, -47151.697832548365, -55324.52378565357, -17401.145982878923, -20924.80908928026, -16959.095532786316, -15095.89881848083, -187500.02235174447, -187500.02235174447, -0.13, 0.896, 0.362, 192.0, 0.0, 0.0, 0.0, 0.0, 0.0, 0.0, 0.0, 0.0, 0.0, 1.7297047509092069E9, 0.0, 2024-10-23 23:02:30.909
71.0, -47171.85910604705, -55363.818152406, -17411.316026606088, -20952.324086704743, -16974.83116088285, -15117.08827222446, -187500.02235174447, -187500.02235174447, -0.13, 0.896, 0.362, 192.0, 0.0, 0.0, 0.0, 0.0, 0.0, 0.0, 0.0, 0.0, 0.0, 1.7297047509122207E9, 0.0, 2024-10-23 23:02:30.912
72.0, -47253.912359942486, -55559.887654767954, -17057.04087698947, -21248.954087371123, -16993.986605881048, -15177.460333998244, -187500.02235174447, -187500.02235174447, -0.13, 0.896, 0.362, 192.0, 0.0, 0.0, 0.0, 0.0, 0.0, 0.0, 0.0, 0.0, 0.0, 1.729704750917234E9, 0.0, 2024-10-23 23:02:30.917
73.0, -47230.15245558649, -55534.585480044545, -17013.007940412517, -21232.123223796276, -16983.950672620616, -15169.592519949976, -187500.02235174447, -187500.02235174447, -0.13, 0.896, 0.362, 192.0, 0.0, 0.0, 0.0, 0.0, 0.0, 0.0, 0.0, 0.0, 0.0, 1.7297047509202776E9, 0.0, 2024-10-23 23:02:30.920
74.0, -47187.57238239913, -55428.459397370745, -17181.271872672067, -21066.720314827005, -16980.240283041036, -15135.126129999893, -187500.02235174447, -187500.02235174447, -0.122, 0.89, 0.368, 192.0, 252.0, 48.0, 27.0, 208.0, 11.0, 128.0, 0.0, 0.0, 0.0, 1.7297047509242744E9, 0.0, 2024-10-23 23:02:30.924
75.0, -47147.69687029086, -55334.00092530262, -17401.414203812386, -20928.966513748946, -16981.894312130727, -15120.977475759682, -187500.02235174447, -187500.02235174447, -0.122, 0.89, 0.368, 192.0, 0.0, 0.0, 0.0, 0.0, 0.0, 0.0, 0.0, 0.0, 0.0, 1.7297047509282973E9, 0.0, 2024-10-23 23:02:30.928
76.0, -47151.0272802147, -55358.43138199227, -17391.44532578532, -20946.937316291012, -16983.257768542502, -15139.372961446401, -187500.02235174447, -187500.02235174447, -0.122, 0.89, 0.368, 192.0, 0.0, 0.0, 0.0, 0.0, 0.0, 0.0, 0.0, 0.0, 0.0, 1.7297047509322636E9, 0.0, 2024-10-23 23:02:30.932
77.0, -47236.36624054507, -55555.216140176795, -17034.97970521208, -21248.596459459837, -17005.207181597612, -15209.669197758341, -187500.02235174447, -187500.02235174447, -0.122, 0.89, 0.368, 192.0, 0.0, 0.0, 0.0, 0.0, 0.0, 0.0, 0.0, 0.0, 0.0, 1.7297047509372828E9, 0.0, 2024-10-23 23:02:30.937
78.0, -47217.99310660281, -55528.7069712528, -16992.60079772482, -21238.91815411069, -17001.049757128927, -15207.121098890437, -187500.02235174447, -187500.02235174447, -0.122, 0.89, 0.368, 192.0, 0.0, 0.0, 0.0, 0.0, 0.0, 0.0, 0.0, 0.0, 0.0, 1.7297047509403446E9, 0.0, 2024-10-23 23:02:30.940
79.0, -47174.898943292974, -55417.7305600322, -17156.23791888212, -21069.78250381738, -16988.577483722864, -15162.730534402197, -187500.02235174447, -187500.02235174447, -0.122, 0.89, 0.368, 192.0, 0.0, 0.0, 0.0, 0.0, 0.0, 0.0, 0.0, 0.0, 0.0, 1.729704750943236E9, 0.0, 2024-10-23 23:02:30.943
80.0, -47145.14877142296, -55332.123378768374, -17383.555159992597, -20937.460176641962, -16992.064355857892, -15139.75294110214, -187500.02235174447, -187500.02235174447, -0.122, 0.89, 0.368, 192.0, 0.0, 0.0, 0.0, 0.0, 0.0, 0.0, 0.0, 0.0, 0.0, 1.7297047509482646E9, 0.0, 2024-10-23 23:02:30.948
81.0, -47159.453887874355, -55358.78900990356, -17388.427840283854, -20959.85662458618, -16999.08280361686, -15156.09206629897, -187500.02235174447, -187500.02235174447, -0.122, 0.89, 0.368, 192.0, 0.0, 0.0, 0.0, 0.0, 0.0, 0.0, 0.0, 0.0, 0.0, 1.729704750952387E9, 0.0, 2024-10-23 23:02:30.952
82.0, -47245.17282786046, -55553.875035509474, -17034.823243000894, -21258.654744464726, -17012.42679505668, -15222.432043842322, -187500.02235174447, -187500.02235174447, -0.122, 0.89, 0.368, 192.0, 0.0, 0.0, 0.0, 0.0, 0.0, 0.0, 0.0, 0.0, 0.0, 1.7297047509563065E9, 0.0, 2024-10-23 23:02:30.956
83.0, -47227.20202531839, -55524.2589741062, -16990.857361657305, -21241.0639215784, -17001.429736784667, -15210.227991369724, -187500.02235174447, -187500.02235174447, -0.122, 0.89, 0.368, 192.0, 0.0, 0.0, 0.0, 0.0, 0.0, 0.0, 0.0, 0.0, 0.0, 1.7297047509602835E9, 0.0, 2024-10-23 23:02:30.960
84.0, -47182.99027478579, -55410.712112273235, -17158.137817160823, -21072.487064896475, -16986.4093645107, -15157.030839566094, -187500.02235174447, -187500.02235174447, -0.126, 0.892, 0.36, 192.0, 252.0, 16.0, 27.0, 224.0, 11.0, 64.0, 0.0, 0.0, 0.0, 1.7297047509653955E9, 0.0, 2024-10-23 23:02:30.965
85.0, -47150.60259707005, -55326.15546299881, -17390.260683329187, -20939.9412202765, -16991.237341313048, -15135.32729569999, -187500.02235174447, -187500.02235174447, -0.126, 0.892, 0.36, 192.0, 0.0, 0.0, 0.0, 0.0, 0.0, 0.0, 0.0, 0.0, 0.0, 1.7297047509683824E9, 0.0, 2024-10-23 23:02:30.968
86.0, -47161.30908266414, -55360.62185294889, -17399.670767744872, -20959.521348419352, -17001.720309462584, -15155.242700009669, -187500.02235174447, -187500.02235174447, -0.126, 0.892, 0.36, 192.0, 0.0, 0.0, 0.0, 0.0, 0.0, 0.0, 0.0, 0.0, 0.0, 1.729704750971307E9, 0.0, 2024-10-23 23:02:30.971
87.0, -47249.59847326261, -55558.74771580073, -17047.429626873687, -21260.39818053224, -17024.250867873536, -15220.643904285896, -187500.02235174447, -187500.02235174447, -0.126, 0.892, 0.36, 192.0, 0.0, 0.0, 0.0, 0.0, 0.0, 0.0, 0.0, 0.0, 0.0, 1.7297047509763048E9, 0.0, 2024-10-23 23:02:30.976
88.0, -47222.642269449505, -55525.153043884406, -16990.633844212753, -21238.00173258802, -17004.402518797222, -15200.05794764256, -187500.02235174447, -187500.02235174447, -0.126, 0.892, 0.36, 192.0, 0.0, 0.0, 0.0, 0.0, 0.0, 0.0, 0.0, 0.0, 0.0, 1.729704750980317E9, 0.0, 2024-10-23 23:02:30.980
89.0, -47177.91642879444, -55411.136795417886, -17148.705381000684, -21060.730047312984, -16980.799076652416, -15141.228156236191, -187500.02235174447, -187500.02235174447, -0.126, 0.892, 0.36, 192.0, 0.0, 0.0, 0.0, 0.0, 0.0, 0.0, 0.0, 0.0, 0.0, 1.729704750984322E9, 0.0, 2024-10-23 23:02:30.984
90.0, -47152.2789779042, -55328.8600240779, -17378.05663085659, -20924.116185202147, -16977.379259750756, -15111.880315766373, -187500.02235174447, -187500.02235174447, -0.126, 0.892, 0.36, 192.0, 0.0, 0.0, 0.0, 0.0, 0.0, 0.0, 0.0, 0.0, 0.0, 1.729704750988348E9, 0.0, 2024-10-23 23:02:30.988
91.0, -47163.90188502096, -55358.65489943682, -17388.025508883657, -20940.32119993224, -16980.75437316351, -15123.682036838776, -187500.02235174447, -187500.02235174447, -0.126, 0.892, 0.36, 192.0, 0.0, 0.0, 0.0, 0.0, 0.0, 0.0, 0.0, 0.0, 0.0, 1.729704750995338E9, 0.0, 2024-10-23 23:02:30.995
92.0, -47250.38078431854, -55558.613605334, -17039.204184914135, -21236.615924431793, -16997.898161160727, -15183.450601512266, -187500.02235174447, -187500.02235174447, -0.126, 0.892, 0.36, 192.0, 0.0, 0.0, 0.0, 0.0, 0.0, 0.0, 0.0, 0.0, 0.0, 1.7297047509993608E9, 0.0, 2024-10-23 23:02:30.999
93.0, -47239.02609813525, -55544.017916204684, -17004.670739730685, -21231.787947629447, -16990.499733746023, -15171.023031595116, -187500.02235174447, -187500.02235174447, -0.126, 0.892, 0.36, 192.0, 0.0, 0.0, 0.0, 0.0, 0.0, 0.0, 0.0, 0.0, 0.0, 1.729704751002344E9, 0.0, 2024-10-23 23:02:31.002
94.0, -47205.811405874665, -55439.568214365034, -17177.24855867011, -21068.1731782166, -16980.55320746341, -15116.060091979516, -187500.02235174447, -187500.02235174447, -0.134, 0.894, 0.358, 192.0, 251.0, 208.0, 27.0, 240.0, 11.0, 48.0, 0.0, 0.0, 0.0, 1.7297047510060785E9, 0.0, 2024-10-23 23:02:31.006
95.0, -47173.155507225456, -55351.43528597776, -17399.87193344497, -20931.224039938934, -16978.02746033996, -15083.627710774865, -187500.02235174447, -187500.02235174447, -0.134, 0.894, 0.358, 192.0, 0.0, 0.0, 0.0, 0.0, 0.0, 0.0, 0.0, 0.0, 0.0, 1.7297047510083547E9, 0.0, 2024-10-23 23:02:31.008
96.0, -47180.88921080699, -55369.13786758636, -17399.961340422793, -20941.461138899464, -16974.898216116217, -15089.573274799977, -187500.02235174447, -187500.02235174447, -0.134, 0.894, 0.358, 192.0, 0.0, 0.0, 0.0, 0.0, 0.0, 0.0, 0.0, 0.0, 0.0, 1.7297047510123844E9, 0.0, 2024-10-23 23:02:31.012
97.0, -47262.137801902034, -55557.67483206688, -17035.98553371257, -21233.73254939706, -16987.146972077724, -15148.559528417532, -187500.02235174447, -187500.02235174447, -0.134, 0.894, 0.358, 192.0, 0.0, 0.0, 0.0, 0.0, 0.0, 0.0, 0.0, 0.0, 0.0, 1.729704751018459E9, 0.0, 2024-10-23 23:02:31.018
98.0, -47238.82493243515, -55529.60104103101, -16984.777687165464, -21224.970665570578, -16980.866131885785, -15147.508996428132, -187500.02235174447, -187500.02235174447, -0.134, 0.894, 0.358, 192.0, 0.0, 0.0, 0.0, 0.0, 0.0, 0.0, 0.0, 0.0, 0.0, 1.7297047510215569E9, 0.0, 2024-10-23 23:02:31.021
99.0, -47194.21085050236, -55420.45747285575, -17146.604317021887, -21059.768922301402, -16975.009974838493, -15113.064958222505, -187500.02235174447, -187500.02235174447, -0.134, 0.894, 0.358, 192.0, 0.0, 0.0, 0.0, 0.0, 0.0, 0.0, 0.0, 0.0, 0.0, 1.7297047510245423E9, 0.0, 2024-10-23 23:02:31.024
100.0, -47160.012681485736, -55330.04466653403, -17369.2500435412, -20928.18420269301, -16974.49588471602, -15098.424565604279, -187500.02235174447, -187500.02235174447, -0.134, 0.894, 0.358, 192.0, 0.0, 0.0, 0.0, 0.0, 0.0, 0.0, 0.0, 0.0, 0.0, 1.7297047510284047E9, 0.0, 2024-10-23 23:02:31.028
101.0, -47172.86493454754, -55355.86093137991, -17388.29372981712, -20948.837214569714, -16994.4112890257, -15131.795720076052, -187500.02235174447, -187500.02235174447, -0.134, 0.894, 0.358, 192.0, 0.0, 0.0, 0.0, 0.0, 0.0, 0.0, 0.0, 0.0, 0.0, 1.7297047510314002E9, 0.0, 2024-10-23 23:02:31.031
102.0, -47264.529438558755, -55559.530026856664, -17044.769769283506, -21264.130921856275, -17026.307228363425, -15215.368892594444, -187500.02235174447, -187500.02235174447, -0.134, 0.894, 0.358, 192.0, 0.0, 0.0, 0.0, 0.0, 0.0, 0.0, 0.0, 0.0, 0.0, 1.7297047510365853E9, 0.0, 2024-10-23 23:02:31.036
103.0, -47235.092191111115, -55523.72253223926, -16988.59983546732, -21248.216479804098, -17005.74362346454, -15203.29895058858, -187500.02235174447, -187500.02235174447, -0.134, 0.894, 0.358, 192.0, 0.0, 0.0, 0.0, 0.0, 0.0, 0.0, 0.0, 0.0, 0.0, 1.7297047510404828E9, 0.0, 2024-10-23 23:02:31.040
104.0, -47192.735635368306, -55415.182461164295, -17153.712171758674, -21078.857312066237, -16991.907893646705, -15158.394295977867, -187500.02235174447, -187500.02235174447, -0.134, 0.894, 0.358, 192.0, 0.0, 0.0, 0.0, 0.0, 0.0, 0.0, 0.0, 0.0, 0.0, 1.7297047510443969E9, 0.0, 2024-10-23 23:02:31.044
105.0, -47158.20219018486, -55329.86585257839, -17378.81659016807, -20942.914002289057, -16990.678547701664, -15133.18152823228, -187500.02235174447, -187500.02235174447, -0.136, 0.9, 0.356, 192.0, 251.0, 192.0, 28.0, 32.0, 11.0, 32.0, 0.0, 0.0, 0.0, 1.7297047510484452E9, 0.0, 2024-10-23 23:02:31.048
106.0, -47158.76098379624, -55349.49068421015, -17395.06630838708, -20951.273554715342, -16993.204294825115, -15142.5245574146, -187500.02235174447, -187500.02235174447, -0.136, 0.9, 0.356, 192.0, 0.0, 0.0, 0.0, 0.0, 0.0, 0.0, 0.0, 0.0, 0.0, 1.7297047510524204E9, 0.0, 2024-10-23 23:02:31.052
107.0, -47230.64419396451, -55533.13261665495, -17037.03606570197, -21238.649933177225, -17007.2635420875, -15197.263979585647, -187500.02235174447, -187500.02235174447, -0.136, 0.9, 0.356, 192.0, 0.0, 0.0, 0.0, 0.0, 0.0, 0.0, 0.0, 0.0, 0.0, 1.7297047510564487E9, 0.0, 2024-10-23 23:02:31.056
108.0, -47216.428484490934, -55510.89263092192, -16995.08184135936, -21229.217497017085, -16999.41807978369, -15184.85876141295, -187500.02235174447, -187500.02235174447, -0.136, 0.9, 0.356, 192.0, 0.0, 0.0, 0.0, 0.0, 0.0, 0.0, 0.0, 0.0, 0.0, 1.729704751059462E9, 0.0, 2024-10-23 23:02:31.059
109.0, -47186.11951900954, -55412.29908612956, -17171.43710511173, -21072.26354745192, -16996.065318115394, -15142.904537070339, -187500.02235174447, -187500.02235174447, -0.136, 0.9, 0.356, 192.0, 0.0, 0.0, 0.0, 0.0, 0.0, 0.0, 0.0, 0.0, 0.0, 1.729704751064454E9, 0.0, 2024-10-23 23:02:31.064
110.0, -47158.76098379624, -55325.417855431784, -17396.16154386539, -20937.03549349731, -16992.64550121373, -15113.981379745172, -187500.02235174447, -187500.02235174447, -0.136, 0.9, 0.356, 192.0, 0.0, 0.0, 0.0, 0.0, 0.0, 0.0, 0.0, 0.0, 0.0, 1.7297047510686193E9, 0.0, 2024-10-23 23:02:31.068
111.0, -47168.90867577895, -55349.93771909925, -17420.882573232957, -20947.630220369127, -17002.010882140505, -15127.817109563008, -187500.02235174447, -187500.02235174447, -0.136, 0.9, 0.356, 192.0, 0.0, 0.0, 0.0, 0.0, 0.0, 0.0, 0.0, 0.0, 0.0, 1.7297047510724387E9, 0.0, 2024-10-23 23:02:31.072
112.0, -47251.87835119705, -55547.862416250995, -17074.765810342527, -21248.50705248202, -17024.116757406802, -15194.782935951107, -187500.02235174447, -187500.02235174447, -0.136, 0.9, 0.356, 192.0, 0.0, 0.0, 0.0, 0.0, 0.0, 0.0, 0.0, 0.0, 0.0, 1.7297047510764916E9, 0.0, 2024-10-23 23:02:31.076
113.0, -47235.807446933686, -55528.438750319336, -17029.145899909247, -21242.807357645914, -17009.588123510854, -15178.756735176652, -187500.02235174447, -187500.02235174447, -0.136, 0.9, 0.356, 192.0, 0.0, 0.0, 0.0, 0.0, 0.0, 0.0, 0.0, 0.0, 0.0, 1.7297047510815153E9, 0.0, 2024-10-23 23:02:31.081
114.0, -47195.730769125315, -55422.96086823474, -17197.34277693543, -21078.566739388316, -16992.712556447095, -15126.476004895689, -187500.02235174447, -187500.02235174447, -0.136, 0.9, 0.356, 192.0, 0.0, 0.0, 0.0, 0.0, 0.0, 0.0, 0.0, 0.0, 0.0, 1.7297047510844631E9, 0.0, 2024-10-23 23:02:31.084
115.0, -47163.94658850987, -55338.493625938136, -17423.45302384532, -20937.30371443078, -16987.482248244556, -15092.456649834712, -187500.02235174447, -187500.02235174447, -0.13, 0.896, 0.356, 192.0, 251.0, 240.0, 28.0, 0.0, 11.0, 32.0, 0.0, 0.0, 0.0, 1.7297047510892825E9, 0.0, 2024-10-23 23:02:31.089
116.0, -47172.19438221388, -55360.82301864899, -17442.876689776982, -20939.13655747611, -16977.423963239668, -15094.289492880047, -187500.02235174447, -187500.02235174447, -0.13, 0.896, 0.356, 192.0, 0.0, 0.0, 0.0, 0.0, 0.0, 0.0, 0.0, 0.0, 0.0, 1.729704751092488E9, 0.0, 2024-10-23 23:02:31.092
117.0, -47250.78311571874, -55557.40661113341, -17084.041784291483, -21237.10766280981, -16980.93318711915, -15148.604231906444, -187500.02235174447, -187500.02235174447, -0.13, 0.896, 0.356, 192.0, 0.0, 0.0, 0.0, 0.0, 0.0, 0.0, 0.0, 0.0, 0.0, 1.7297047510964983E9, 0.0, 2024-10-23 23:02:31.096
118.0, -47241.037755136225, -55540.17341615837, -17044.769769283506, -21236.638276176247, -16988.5104284895, -15150.66059239633, -187500.02235174447, -187500.02235174447, -0.13, 0.896, 0.356, 192.0, 0.0, 0.0, 0.0, 0.0, 0.0, 0.0, 0.0, 0.0, 0.0, 1.7297047511004834E9, 0.0, 2024-10-23 23:02:31.100
119.0, -47198.23416450431, -55431.946269505774, -17209.25625673011, -21071.145960229154, -16970.584329436344, -15099.251580149124, -187500.02235174447, -187500.02235174447, -0.13, 0.896, 0.356, 192.0, 0.0, 0.0, 0.0, 0.0, 0.0, 0.0, 0.0, 0.0, 0.0, 1.7297047511044796E9, 0.0, 2024-10-23 23:02:31.104
120.0, -47169.04278624568, -55347.70254465372, -17440.149776953433, -20939.04715049829, -16970.092591058325, -15074.552902526011, -187500.02235174447, -187500.02235174447, -0.13, 0.896, 0.356, 192.0, 0.0, 0.0, 0.0, 0.0, 0.0, 0.0, 0.0, 0.0, 0.0, 1.7297047511084952E9, 0.0, 2024-10-23 23:02:31.108
121.0, -47178.43051891691, -55369.22727456418, -17473.051544791644, -20950.088912259213, -16980.486152230045, -15092.70251902372, -187500.02235174447, -187500.02235174447, -0.13, 0.896, 0.356, 192.0, 0.0, 0.0, 0.0, 0.0, 0.0, 0.0, 0.0, 0.0, 0.0, 1.7297047511125183E9, 0.0, 2024-10-23 23:02:31.112
122.0, -47268.26217988279, -55570.28121593967, -17127.650037723786, -21258.78885493146, -17004.3131118194, -15164.451618725256, -187500.02235174447, -187500.02235174447, -0.13, 0.896, 0.356, 192.0, 0.0, 0.0, 0.0, 0.0, 0.0, 0.0, 0.0, 0.0, 0.0, 1.7297047511155083E9, 0.0, 2024-10-23 23:02:31.115
123.0, -47242.088287125625, -55542.87797723746, -17073.111781252835, -21251.412779261205, -17002.659082729708, -15160.920043101318, -187500.02235174447, -187500.02235174447, -0.13, 0.896, 0.356, 192.0, 0.0, 0.0, 0.0, 0.0, 0.0, 0.0, 0.0, 0.0, 0.0, 1.7297047511195009E9, 0.0, 2024-10-23 23:02:31.119
124.0, -47198.614144160056, -55433.06385672854, -17230.44571047374, -21084.93698655808, -16984.732983676553, -15112.70733031122, -187500.02235174447, -187500.02235174447, -0.13, 0.896, 0.356, 192.0, 0.0, 0.0, 0.0, 0.0, 0.0, 0.0, 0.0, 0.0, 0.0, 1.7297047511280656E9, 0.0, 2024-10-23 23:02:31.128
125.0, -47163.45485013186, -55345.132094041364, -17448.151701468432, -20947.76433083586, -16980.88848363024, -15088.478039321666, -187500.02235174447, -187500.02235174447, -0.128, 0.894, 0.356, 192.0, 252.0, 0.0, 27.0, 240.0, 11.0, 32.0, 0.0, 0.0, 0.0, 1.729704751128674E9, 0.0, 2024-10-23 23:02:31.128
126.0, -47163.87953327651, -55354.1174953124, -17463.79792258715, -20946.95966803547, -16981.894312130727, -15102.425527861778, -187500.02235174447, -187500.02235174447, -0.128, 0.894, 0.356, 192.0, 0.0, 0.0, 0.0, 0.0, 0.0, 0.0, 0.0, 0.0, 0.0, 1.7297047511328297E9, 0.0, 2024-10-23 23:02:31.132
127.0, -47239.16020860198, -55542.00625920371, -17094.4353454632, -21243.142633812742, -16987.30343428891, -15160.71887740122, -187500.02235174447, -187500.02235174447, -0.128, 0.894, 0.356, 192.0, 0.0, 0.0, 0.0, 0.0, 0.0, 0.0, 0.0, 0.0, 0.0, 1.7297047511394117E9, 0.0, 2024-10-23 23:02:31.139
128.0, -47208.91829835395, -55515.005351901695, -17030.554059809932, -21233.19610753013, -16978.988585351537, -15152.158159274837, -187500.02235174447, -187500.02235174447, -0.128, 0.894, 0.356, 192.0, 0.0, 0.0, 0.0, 0.0, 0.0, 0.0, 0.0, 0.0, 0.0, 1.729704751140555E9, 0.0, 2024-10-23 23:02:31.140
129.0, -47172.172030469424, -55411.11444367343, -17200.583779881454, -21070.989498017967, -16976.46283822809, -15115.747167557141, -187500.02235174447, -187500.02235174447, -0.128, 0.894, 0.356, 192.0, 0.0, 0.0, 0.0, 0.0, 0.0, 0.0, 0.0, 0.0, 0.0, 1.7297047511450691E9, 0.0, 2024-10-23 23:02:31.145
130.0, -47134.01760268422, -55320.522823396066, -17421.709587777805, -20933.347455662188, -16974.652346927207, -15092.099021923426, -187500.02235174447, -187500.02235174447, -0.128, 0.894, 0.356, 192.0, 0.0, 0.0, 0.0, 0.0, 0.0, 0.0, 0.0, 0.0, 0.0, 1.7297047511476552E9, 0.0, 2024-10-23 23:02:31.147
131.0, -47141.214864398826, -55337.68896313775, -17448.2187567018, -20936.387292908108, -16977.580425450855, -15106.717062797197, -187500.02235174447, -187500.02235174447, -0.128, 0.894, 0.356, 192.0, 0.0, 0.0, 0.0, 0.0, 0.0, 0.0, 0.0, 0.0, 0.0, 1.7297047511528492E9, 0.0, 2024-10-23 23:02:31.152
132.0, -47229.03486836373, -55538.027648690666, -17088.489781438086, -21240.035741333457, -16999.127507105768, -15176.320395031024, -187500.02235174447, -187500.02235174447, -0.128, 0.894, 0.356, 192.0, 0.0, 0.0, 0.0, 0.0, 0.0, 0.0, 0.0, 0.0, 0.0, 1.7297047511565683E9, 0.0, 2024-10-23 23:02:31.156
133.0, -47215.60146994609, -55519.4533490483, -17028.140071408758, -21238.269953521485, -16996.467649515587, -15173.839351396484, -187500.02235174447, -187500.02235174447, -0.128, 0.894, 0.356, 192.0, 0.0, 0.0, 0.0, 0.0, 0.0, 0.0, 0.0, 0.0, 0.0, 1.7297047511605573E9, 0.0, 2024-10-23 23:02:31.160
134.0, -47169.10984147905, -55407.49346107167, -17182.83649478394, -21067.1226462272, -16977.289852772934, -15121.04453099305, -187500.02235174447, -187500.02235174447, -0.128, 0.894, 0.356, 192.0, 0.0, 0.0, 0.0, 0.0, 0.0, 0.0, 0.0, 0.0, 0.0, 1.7297047511645885E9, 0.0, 2024-10-23 23:02:31.164
135.0, -47142.01952719921, -55319.65110536231, -17404.29757884712, -20925.189068936, -16968.438561968633, -15083.493600308133, -187500.02235174447, -187500.02235174447, -0.132, 0.892, 0.362, 192.0, 251.0, 224.0, 27.0, 224.0, 11.0, 80.0, 0.0, 0.0, 0.0, 1.729704751168641E9, 0.0, 2024-10-23 23:02:31.168
136.0, -47159.78916404118, -55341.82403586198, -17447.12352122349, -20927.737167803905, -16984.732983676553, -15104.571295329488, -187500.02235174447, -187500.02235174447, -0.132, 0.892, 0.362, 192.0, 0.0, 0.0, 0.0, 0.0, 0.0, 0.0, 0.0, 0.0, 0.0, 1.7297047511725967E9, 0.0, 2024-10-23 23:02:31.172
137.0, -47249.17379011796, -55541.20159640331, -17099.62095017683, -21229.932752839657, -17003.955483908117, -15171.537121717587, -187500.02235174447, -187500.02235174447, -0.132, 0.892, 0.362, 192.0, 0.0, 0.0, 0.0, 0.0, 0.0, 0.0, 0.0, 0.0, 0.0, 1.7297047511760075E9, 0.0, 2024-10-23 23:02:31.176
138.0, -47227.35848752958, -55523.253145605704, -17043.13809193827, -21225.127127781765, -16991.013823868492, -15161.300022757057, -187500.02235174447, -187500.02235174447, -0.132, 0.892, 0.362, 192.0, 0.0, 0.0, 0.0, 0.0, 0.0, 0.0, 0.0, 0.0, 0.0, 1.7297047511808517E9, 0.0, 2024-10-23 23:02:31.180
139.0, -47188.42174868843, -55423.698475801764, -17207.937503807247, -21064.1722159591, -16981.53668421944, -15113.55669660052, -187500.02235174447, -187500.02235174447, -0.132, 0.892, 0.362, 192.0, 0.0, 0.0, 0.0, 0.0, 0.0, 0.0, 0.0, 0.0, 0.0, 1.7297047511890476E9, 0.0, 2024-10-23 23:02:31.189
140.0, -47157.86691401803, -55339.052419549516, -17427.96807622529, -20930.95581900547, -16977.289852772934, -15080.118486895382, -187500.02235174447, -187500.02235174447, -0.132, 0.892, 0.362, 192.0, 0.0, 0.0, 0.0, 0.0, 0.0, 0.0, 0.0, 0.0, 0.0, 1.729704751189128E9, 0.0, 2024-10-23 23:02:31.189
141.0, -47158.24689367377, -55350.7647336441, -17453.583175371074, -20926.641932325594, -16973.51240795999, -15080.297300851023, -187500.02235174447, -187500.02235174447, -0.132, 0.892, 0.362, 192.0, 0.0, 0.0, 0.0, 0.0, 0.0, 0.0, 0.0, 0.0, 0.0, 1.729704751191654E9, 0.0, 2024-10-23 23:02:31.191
142.0, -47245.10577262709, -55555.52906459917, -17098.52571469852, -21233.576087185873, -16990.16445757919, -15141.362266702923, -187500.02235174447, -187500.02235174447, -0.132, 0.892, 0.362, 192.0, 0.0, 0.0, 0.0, 0.0, 0.0, 0.0, 0.0, 0.0, 0.0, 1.729704751195739E9, 0.0, 2024-10-23 23:02:31.195
143.0, -47225.793865417705, -55538.161759157396, -17040.858214003827, -21231.83265111836, -16980.150876063213, -15128.286496196568, -187500.02235174447, -187500.02235174447, -0.132, 0.892, 0.362, 192.0, 0.0, 0.0, 0.0, 0.0, 0.0, 0.0, 0.0, 0.0, 0.0, 1.7297047511997788E9, 0.0, 2024-10-23 23:02:31.199
144.0, -47189.76285335575, -55435.88017652991, -17210.50795441961, -21075.281032953386, -16973.802980637905, -15086.399327087323, -187500.02235174447, -187500.02235174447, -0.132, 0.892, 0.362, 192.0, 0.0, 0.0, 0.0, 0.0, 0.0, 0.0, 0.0, 0.0, 0.0, 1.729704751203632E9, 0.0, 2024-10-23 23:02:31.203
145.0, -47157.911617506936, -55347.009640575605, -17430.426768115376, -20939.96357202096, -16966.56101543439, -15062.035925631038, -187500.02235174447, -187500.02235174447, -0.136, 0.888, 0.366, 192.0, 251.0, 192.0, 27.0, 192.0, 11.0, 112.0, 0.0, 0.0, 0.0, 1.7297047512086651E9, 0.0, 2024-10-23 23:02:31.208
146.0, -47167.411108900444, -55367.90852164132, -17467.485960422273, -20938.980095264924, -16976.999280095017, -15080.073783406471, -187500.02235174447, -187500.02235174447, -0.136, 0.888, 0.366, 192.0, 0.0, 0.0, 0.0, 0.0, 0.0, 0.0, 0.0, 0.0, 0.0, 1.729704751212685E9, 0.0, 2024-10-23 23:02:31.212
147.0, -47259.701461756405, -55573.27634969668, -17109.299255525977, -21252.508014739517, -17002.614379240797, -15151.398199963356, -187500.02235174447, -187500.02235174447, -0.136, 0.888, 0.366, 192.0, 0.0, 0.0, 0.0, 0.0, 0.0, 0.0, 0.0, 0.0, 0.0, 1.7297047512166631E9, 0.0, 2024-10-23 23:02:31.216
