%OpenBCI Raw EXG Data
%Number of channels = 8
%Sample Rate = 250 Hz
%Board = OpenBCI_GUI$BoardCytonSerial
Sample Index, EXG Channel 0, EXG Channel 1, EXG Channel 2, EXG Channel 3, EXG Channel 4, EXG Channel 5, EXG Channel 6, EXG Channel 7, Accel Channel 0, Accel Channel 1, Accel Channel 2, Other, Other, Other, Other, Other, Other, Other, Analog Channel 0, Analog Channel 1, Analog Channel 2, Timestamp, Other, Timestamp (Formatted)
0.0, 0.0, 0.0, 0.0, 0.0, 0.0, 0.0, 0.0, 0.0, -0.07, 0.85, 0.49, 192.0, 253.0, 208.0, 26.0, 144.0, 15.0, 80.0, 0.0, 0.0, 0.0, 1.7297037952650032E9, 0.0, 2024-10-23 22:46:35.265
1.0, -44894.21634605126, -53574.672767480944, -24195.83042810326, -29395.606147719165, -16690.49461966689, -16249.762922497146, -187500.02235174447, -187500.02235174447, -0.07, 0.85, 0.49, 192.0, 0.0, 0.0, 0.0, 0.0, 0.0, 0.0, 0.0, 0.0, 0.0, 1.72970379528198E9, 0.0, 2024-10-23 22:46:35.281
2.0, -44724.52190214657, -53418.54583246062, -27162.21984174488, -29240.93207608844, -16554.03721976724, -16135.903136241812, -187500.02235174447, -187500.02235174447, -0.07, 0.85, 0.49, 192.0, 0.0, 0.0, 0.0, 0.0, 0.0, 0.0, 0.0, 0.0, 0.0, 1.7297037952849264E9, 0.0, 2024-10-23 22:46:35.284
3.0, -44825.41767661783, -53328.49065405019, -25045.08495868265, -28346.57172519824, -16679.184636972506, -16046.026771787021, -187500.02235174447, -187500.02235174447, -0.07, 0.85, 0.49, 192.0, 0.0, 0.0, 0.0, 0.0, 0.0, 0.0, 0.0, 0.0, 0.0, 1.729703795289064E9, 0.0, 2024-10-23 22:46:35.289
4.0, -45068.09056616909, -53478.627321556494, -20846.80150113124, -28159.10764445158, -16867.520435752922, -16143.323915400973, -187500.02235174447, -187500.02235174447, -0.07, 0.85, 0.49, 192.0, 0.0, 0.0, 0.0, 0.0, 0.0, 0.0, 0.0, 0.0, 0.0, 1.729703795293033E9, 0.0, 2024-10-23 22:46:35.293
5.0, -45101.327610174136, -53607.90981148599, -20372.117504133883, -28743.561058468946, -16863.295956050868, -16260.827036002522, -187500.02235174447, -187500.02235174447, -0.07, 0.85, 0.49, 192.0, 0.0, 0.0, 0.0, 0.0, 0.0, 0.0, 0.0, 0.0, 0.0, 1.7297037952959445E9, 0.0, 2024-10-23 22:46:35.295
6.0, -44901.90534614389, -53573.37636630254, -24161.051113730802, -29381.85982487915, -16685.73369809791, -16272.114666952451, -187500.02235174447, -187500.02235174447, -0.07, 0.85, 0.49, 192.0, 0.0, 0.0, 0.0, 0.0, 0.0, 0.0, 0.0, 0.0, 0.0, 1.7297037953001688E9, 0.0, 2024-10-23 22:46:35.300
7.0, -44736.90476857481, -53426.05601859761, -27165.88552783555, -29249.470442470367, -16567.828246096164, -16176.605662894925, -187500.02235174447, -187500.02235174447, -0.07, 0.85, 0.49, 192.0, 0.0, 0.0, 0.0, 0.0, 0.0, 0.0, 0.0, 0.0, 0.0, 1.7297037953041348E9, 0.0, 2024-10-23 22:46:35.304
8.0, -44841.24271169218, -53336.626689031924, -25084.58049113518, -28360.362751527162, -16706.520820441347, -16102.397871303307, -187500.02235174447, -187500.02235174447, -0.074, 0.842, 0.492, 192.0, 253.0, 176.0, 26.0, 80.0, 15.0, 96.0, 0.0, 0.0, 0.0, 1.7297037953079467E9, 0.0, 2024-10-23 22:46:35.307
9.0, -45085.88255475552, -53484.975216981795, -20838.88898359406, -28171.28934517972, -16916.604866576778, -16209.976817366698, -187500.02235174447, -187500.02235174447, -0.074, 0.842, 0.492, 192.0, 0.0, 0.0, 0.0, 0.0, 0.0, 0.0, 0.0, 0.0, 0.0, 1.7297037953129792E9, 0.0, 2024-10-23 22:46:35.312
10.0, -45116.97383129285, -53609.74265453132, -20337.896983372808, -28753.73110219611, -16902.88089548122, -16317.354597729995, -187500.02235174447, -187500.02235174447, -0.074, 0.842, 0.492, 192.0, 0.0, 0.0, 0.0, 0.0, 0.0, 0.0, 0.0, 0.0, 0.0, 1.7297037953170216E9, 0.0, 2024-10-23 22:46:35.317
11.0, -44915.361096305984, -53571.78939244621, -24145.226078656447, -29380.22814753391, -16678.469381149935, -16302.311873711573, -187500.02235174447, -187500.02235174447, -0.074, 0.842, 0.492, 192.0, 0.0, 0.0, 0.0, 0.0, 0.0, 0.0, 0.0, 0.0, 0.0, 1.7297037953209956E9, 0.0, 2024-10-23 22:46:35.320
12.0, -44756.99898684013, -53424.84902439702, -27168.970068570387, -29242.608456922586, -16548.13635923104, -16191.514276446615, -187500.02235174447, -187500.02235174447, -0.074, 0.842, 0.492, 192.0, 0.0, 0.0, 0.0, 0.0, 0.0, 0.0, 0.0, 0.0, 0.0, 1.7297037953249853E9, 0.0, 2024-10-23 22:46:35.324
13.0, -44860.04052877909, -53334.92795645332, -25115.560008950237, -28351.220888044943, -16688.080631265715, -16101.637911991826, -187500.02235174447, -187500.02235174447, -0.074, 0.842, 0.492, 192.0, 0.0, 0.0, 0.0, 0.0, 0.0, 0.0, 0.0, 0.0, 0.0, 1.7297037953280036E9, 0.0, 2024-10-23 22:46:35.328
14.0, -45099.852395040085, -53482.40476636944, -20878.2280538354, -28153.497356593296, -16890.386270330702, -16195.001148581643, -187500.02235174447, -187500.02235174447, -0.074, 0.842, 0.492, 192.0, 0.0, 0.0, 0.0, 0.0, 0.0, 0.0, 0.0, 0.0, 0.0, 1.7297037953319967E9, 0.0, 2024-10-23 22:46:35.331
15.0, -45133.15649427849, -53615.509404600794, -20345.340114276423, -28732.228724030105, -16881.982014415506, -16301.641321377912, -187500.02235174447, -187500.02235174447, -0.074, 0.842, 0.492, 192.0, 0.0, 0.0, 0.0, 0.0, 0.0, 0.0, 0.0, 0.0, 0.0, 1.7297037953361082E9, 0.0, 2024-10-23 22:46:35.336
16.0, -44920.47964578625, -53576.7961832042, -24164.96266901048, -29366.370065971623, -16687.611244632157, -16290.823077061545, -187500.02235174447, -187500.02235174447, -0.074, 0.842, 0.492, 192.0, 0.0, 0.0, 0.0, 0.0, 0.0, 0.0, 0.0, 0.0, 0.0, 1.7297037953401203E9, 0.0, 2024-10-23 22:46:35.340
17.0, -44752.03689957105, -53428.648820954426, -27202.90001665354, -29222.58129389063, -16563.961394305396, -16179.958424563221, -187500.02235174447, -187500.02235174447, -0.074, 0.842, 0.492, 192.0, 0.0, 0.0, 0.0, 0.0, 0.0, 0.0, 0.0, 0.0, 0.0, 1.72970379534507E9, 0.0, 2024-10-23 22:46:35.345
18.0, -44848.797601318074, -53340.11356116695, -25165.873785719134, -28328.64562614508, -16693.310939468258, -16090.216170575164, -187500.02235174447, -187500.02235174447, -0.076, 0.838, 0.494, 192.0, 253.0, 160.0, 26.0, 48.0, 15.0, 112.0, 0.0, 0.0, 0.0, 1.7297037953490736E9, 0.0, 2024-10-23 22:46:35.349
19.0, -45089.5929443351, -53494.698225819855, -20894.544827287773, -28127.45757430286, -16893.694328510086, -16184.317014732005, -187500.02235174447, -187500.02235174447, -0.076, 0.838, 0.494, 192.0, 0.0, 0.0, 0.0, 0.0, 0.0, 0.0, 0.0, 0.0, 0.0, 1.7297037953520665E9, 0.0, 2024-10-23 22:46:35.352
20.0, -45115.14098824751, -53624.27128842727, -20334.23129728214, -28704.15493299424, -16879.67978473661, -16283.089373480008, -187500.02235174447, -187500.02235174447, -0.076, 0.838, 0.494, 192.0, 0.0, 0.0, 0.0, 0.0, 0.0, 0.0, 0.0, 0.0, 0.0, 1.729703795356115E9, 0.0, 2024-10-23 22:46:35.356
21.0, -44905.012238623174, -53589.40256707699, -24123.276665601334, -29338.788013313773, -16674.982509014906, -16267.867835505944, -187500.02235174447, -187500.02235174447, -0.076, 0.838, 0.494, 192.0, 0.0, 0.0, 0.0, 0.0, 0.0, 0.0, 0.0, 0.0, 0.0, 1.729703795362059E9, 0.0, 2024-10-23 22:46:35.362
22.0, -44734.17785575126, -53440.24937632673, -27177.106103552116, -29203.939939014905, -16550.192719720926, -16154.388028906349, -187500.02235174447, -187500.02235174447, -0.076, 0.838, 0.494, 192.0, 0.0, 0.0, 0.0, 0.0, 0.0, 0.0, 0.0, 0.0, 0.0, 1.7297037953650756E9, 0.0, 2024-10-23 22:46:35.365
23.0, -44820.992031215676, -53334.21270063075, -25189.99131798641, -28307.27735844581, -16675.653061348567, -16052.754646868068, -187500.02235174447, -187500.02235174447, -0.076, 0.838, 0.494, 192.0, 0.0, 0.0, 0.0, 0.0, 0.0, 0.0, 0.0, 0.0, 0.0, 1.7297037953680792E9, 0.0, 2024-10-23 22:46:35.368
24.0, -45069.655188280965, -53487.076280960595, -20907.620597794128, -28099.249672800266, -16881.847903948772, -16149.135368959352, -187500.02235174447, -187500.02235174447, -0.076, 0.838, 0.494, 192.0, 0.0, 0.0, 0.0, 0.0, 0.0, 0.0, 0.0, 0.0, 0.0, 1.7297037953730843E9, 0.0, 2024-10-23 22:46:35.373
25.0, -45101.26055494077, -53612.424863865956, -20324.5976954219, -28678.58453733737, -16874.87415967872, -16252.042800431587, -187500.02235174447, -187500.02235174447, -0.076, 0.838, 0.494, 192.0, 0.0, 0.0, 0.0, 0.0, 0.0, 0.0, 0.0, 0.0, 0.0, 1.7297037953770835E9, 0.0, 2024-10-23 22:46:35.377
26.0, -44894.93160187383, -53572.19172384641, -24115.565313764255, -29318.202056670438, -16689.287625466302, -16242.74447473818, -187500.02235174447, -187500.02235174447, -0.076, 0.838, 0.494, 192.0, 0.0, 0.0, 0.0, 0.0, 0.0, 0.0, 0.0, 0.0, 0.0, 1.7297037953800704E9, 0.0, 2024-10-23 22:46:35.380
27.0, -44727.874663814866, -53423.95495461881, -27165.773769113275, -29189.947746985883, -16575.85252235562, -16136.439578108739, -187500.02235174447, -187500.02235174447, -0.076, 0.838, 0.494, 192.0, 0.0, 0.0, 0.0, 0.0, 0.0, 0.0, 0.0, 0.0, 0.0, 1.7297037953840678E9, 0.0, 2024-10-23 22:46:35.384
28.0, -44808.050371176054, -53318.879403934414, -25197.143876212107, -28296.526169362805, -16691.567503400744, -16038.471882161128, -187500.02235174447, -187500.02235174447, -0.082, 0.844, 0.502, 192.0, 253.0, 112.0, 26.0, 96.0, 15.0, 176.0, 0.0, 0.0, 0.0, 1.7297037953880503E9, 0.0, 2024-10-23 22:46:35.388
29.0, -45051.34910957207, -53467.45144932884, -20910.19104840649, -28087.60441393905, -16897.360014600756, -16142.295735156029, -187500.02235174447, -187500.02235174447, -0.082, 0.844, 0.502, 192.0, 0.0, 0.0, 0.0, 0.0, 0.0, 0.0, 0.0, 0.0, 0.0, 1.7297037953920672E9, 0.0, 2024-10-23 22:46:35.392
30.0, -45083.80384252118, -53597.78447124773, -20310.516096415056, -28668.39214186575, -16893.135534898705, -16259.485931335204, -187500.02235174447, -187500.02235174447, -0.082, 0.844, 0.502, 192.0, 0.0, 0.0, 0.0, 0.0, 0.0, 0.0, 0.0, 0.0, 0.0, 1.729703795396057E9, 0.0, 2024-10-23 22:46:35.396
31.0, -44878.05603481008, -53564.07804060913, -24089.838455896195, -29314.89399849105, -16701.96106457246, -16261.83286450301, -187500.02235174447, -187500.02235174447, -0.082, 0.844, 0.502, 192.0, 0.0, 0.0, 0.0, 0.0, 0.0, 0.0, 0.0, 0.0, 0.0, 1.7297037954011908E9, 0.0, 2024-10-23 22:46:35.401
32.0, -44711.915518273774, -53418.61288769399, -27154.821414330178, -29196.519159855743, -16588.034223083763, -16171.420058181295, -187500.02235174447, -187500.02235174447, -0.082, 0.844, 0.502, 192.0, 0.0, 0.0, 0.0, 0.0, 0.0, 0.0, 0.0, 0.0, 0.0, 1.7297037954050944E9, 0.0, 2024-10-23 22:46:35.405
33.0, -44802.462435062225, -53321.405151057865, -25226.42466144856, -28315.32398644972, -16711.63936992161, -16083.980033872132, -187500.02235174447, -187500.02235174447, -0.082, 0.844, 0.502, 192.0, 0.0, 0.0, 0.0, 0.0, 0.0, 0.0, 0.0, 0.0, 0.0, 1.7297037954081028E9, 0.0, 2024-10-23 22:46:35.408
34.0, -45057.47348755282, -53476.92858897789, -20930.732301560914, -28102.80360016866, -16920.31525615636, -16190.754317135135, -187500.02235174447, -187500.02235174447, -0.082, 0.844, 0.502, 192.0, 0.0, 0.0, 0.0, 0.0, 0.0, 0.0, 0.0, 0.0, 0.0, 1.7297037954121304E9, 0.0, 2024-10-23 22:46:35.412
35.0, -45106.155586976485, -53620.29267791423, -20271.31113664045, -28680.618546082802, -16926.126709714736, -16311.341978471517, -187500.02235174447, -187500.02235174447, -0.082, 0.844, 0.502, 192.0, 0.0, 0.0, 0.0, 0.0, 0.0, 0.0, 0.0, 0.0, 0.0, 1.7297037954185092E9, 0.0, 2024-10-23 22:46:35.418
36.0, -44903.42526476685, -53587.815593220665, -24035.65782733653, -29336.41872840151, -16745.055227882294, -16308.659769136879, -187500.02235174447, -187500.02235174447, -0.082, 0.844, 0.502, 192.0, 0.0, 0.0, 0.0, 0.0, 0.0, 0.0, 0.0, 0.0, 0.0, 1.7297037954231503E9, 0.0, 2024-10-23 22:46:35.423
37.0, -44729.48398941565, -53437.90244315892, -27129.809812284686, -29211.87480829654, -16618.38789205407, -16194.554113692537, -187500.02235174447, -187500.02235174447, -0.082, 0.844, 0.502, 192.0, 0.0, 0.0, 0.0, 0.0, 0.0, 0.0, 0.0, 0.0, 0.0, 1.729703795426134E9, 0.0, 2024-10-23 22:46:35.426
38.0, -44816.58873755798, -53342.03581119011, -25238.38284473215, -28322.92357956452, -16737.92502140105, -16094.530057255037, -187500.02235174447, -187500.02235174447, -0.076, 0.838, 0.502, 192.0, 253.0, 160.0, 26.0, 48.0, 15.0, 176.0, 0.0, 0.0, 0.0, 1.7297037954301405E9, 0.0, 2024-10-23 22:46:35.430
39.0, -45071.93506621541, -53504.24242070227, -20944.255106956378, -28109.531475249707, -16944.11986400126, -16193.637692169868, -187500.02235174447, -187500.02235174447, -0.076, 0.838, 0.502, 192.0, 0.0, 0.0, 0.0, 0.0, 0.0, 0.0, 0.0, 0.0, 0.0, 1.7297037954331331E9, 0.0, 2024-10-23 22:46:35.433
40.0, -45110.31301144517, -53637.99525952283, -20292.791163061996, -28680.506787360526, -16938.01783776496, -16296.053385264086, -187500.02235174447, -187500.02235174447, -0.076, 0.838, 0.502, 192.0, 0.0, 0.0, 0.0, 0.0, 0.0, 0.0, 0.0, 0.0, 0.0, 1.729703795436149E9, 0.0, 2024-10-23 22:46:35.436
41.0, -44900.27366879865, -53598.18680264793, -24054.18742348998, -29323.432364872977, -16746.441036038523, -16280.831847290023, -187500.02235174447, -187500.02235174447, -0.076, 0.838, 0.502, 192.0, 0.0, 0.0, 0.0, 0.0, 0.0, 0.0, 0.0, 0.0, 0.0, 1.729703795440144E9, 0.0, 2024-10-23 22:46:35.440
42.0, -44736.23421624115, -53450.62058575399, -27162.935097567453, -29209.550226873187, -16638.5268138083, -16176.225683239185, -187500.02235174447, -187500.02235174447, -0.076, 0.838, 0.502, 192.0, 0.0, 0.0, 0.0, 0.0, 0.0, 0.0, 0.0, 0.0, 0.0, 1.7297037954441428E9, 0.0, 2024-10-23 22:46:35.444
43.0, -44828.63632781939, -53354.79865727409, -25276.872548684187, -28330.32200697923, -16756.633431510145, -16082.214246060163, -187500.02235174447, -187500.02235174447, -0.076, 0.838, 0.502, 192.0, 0.0, 0.0, 0.0, 0.0, 0.0, 0.0, 0.0, 0.0, 0.0, 1.7297037954481719E9, 0.0, 2024-10-23 22:46:35.448
44.0, -45065.27424636773, -53498.00628399924, -20979.794380640316, -28104.99407112528, -16937.079064497837, -16170.86126456991, -187500.02235174447, -187500.02235174447, -0.076, 0.838, 0.502, 192.0, 0.0, 0.0, 0.0, 0.0, 0.0, 0.0, 0.0, 0.0, 0.0, 1.7297037954522092E9, 0.0, 2024-10-23 22:46:35.452
45.0, -45098.42188339495, -53624.740675060835, -20306.381023690825, -28664.637048797256, -16923.332741657825, -16274.036916975609, -187500.02235174447, -187500.02235174447, -0.076, 0.838, 0.502, 192.0, 0.0, 0.0, 0.0, 0.0, 0.0, 0.0, 0.0, 0.0, 0.0, 1.729703795456174E9, 0.0, 2024-10-23 22:46:35.456
46.0, -44895.62450595194, -53591.101299655595, -24038.272981437804, -29313.977576968384, -16732.985285876428, -16265.386791871404, -187500.02235174447, -187500.02235174447, -0.076, 0.838, 0.502, 192.0, 0.0, 0.0, 0.0, 0.0, 0.0, 0.0, 0.0, 0.0, 0.0, 1.7297037954611826E9, 0.0, 2024-10-23 22:46:35.461
47.0, -44721.638527111834, -53437.18718733635, -27145.94777178142, -29198.575520345632, -16609.71541520541, -16157.494921385638, -187500.02235174447, -187500.02235174447, -0.076, 0.838, 0.502, 192.0, 0.0, 0.0, 0.0, 0.0, 0.0, 0.0, 0.0, 0.0, 0.0, 1.7297037954641688E9, 0.0, 2024-10-23 22:46:35.464
48.0, -44803.55767054053, -53332.62572677442, -25299.470162328504, -28316.37451843912, -16728.53728872982, -16060.823626616435, -187500.02235174447, -187500.02235174447, -0.074, 0.836, 0.502, 192.0, 253.0, 176.0, 26.0, 32.0, 15.0, 176.0, 0.0, 0.0, 0.0, 1.7297037954681458E9, 0.0, 2024-10-23 22:46:35.468
49.0, -45045.26943508023, -53473.173495909396, -20998.949825638512, -28082.955251092346, -16929.412416149666, -16153.918642272789, -187500.02235174447, -187500.02235174447, -0.074, 0.836, 0.502, 192.0, 0.0, 0.0, 0.0, 0.0, 0.0, 0.0, 0.0, 0.0, 0.0, 1.7297037954722416E9, 0.0, 2024-10-23 22:46:35.472
50.0, -45088.07302571214, -53607.90981148599, -20293.841695051397, -28646.86741195529, -16939.090721498815, -16270.527693096126, -187500.02235174447, -187500.02235174447, -0.074, 0.836, 0.502, 192.0, 0.0, 0.0, 0.0, 0.0, 0.0, 0.0, 0.0, 0.0, 0.0, 1.7297037954761968E9, 0.0, 2024-10-23 22:46:35.476
51.0, -44885.92384885834, -53577.623197749046, -24024.928989997985, -29303.047573929736, -16745.5022627714, -16269.566568084547, -187500.02235174447, -187500.02235174447, -0.074, 0.836, 0.502, 192.0, 0.0, 0.0, 0.0, 0.0, 0.0, 0.0, 0.0, 0.0, 0.0, 1.7297037954802208E9, 0.0, 2024-10-23 22:46:35.480
52.0, -44716.92230903177, -53429.63229771046, -27150.03814101674, -29192.428790620423, -16611.19063033946, -16165.832122067468, -187500.02235174447, -187500.02235174447, -0.074, 0.836, 0.502, 192.0, 0.0, 0.0, 0.0, 0.0, 0.0, 0.0, 0.0, 0.0, 0.0, 1.7297037954842193E9, 0.0, 2024-10-23 22:46:35.484
53.0, -44796.71803673721, -53323.59562201448, -25339.05510175885, -28308.283186946297, -16724.670436939054, -16069.9431383542, -187500.02235174447, -187500.02235174447, -0.074, 0.836, 0.502, 192.0, 0.0, 0.0, 0.0, 0.0, 0.0, 0.0, 0.0, 0.0, 0.0, 1.7297037954892085E9, 0.0, 2024-10-23 22:46:35.489
54.0, -45043.54835075717, -53470.84891448604, -21034.243230133445, -28070.594736408562, -16922.863355024263, -16170.950671547733, -187500.02235174447, -187500.02235174447, -0.074, 0.836, 0.502, 192.0, 0.0, 0.0, 0.0, 0.0, 0.0, 0.0, 0.0, 0.0, 0.0, 1.729703795492217E9, 0.0, 2024-10-23 22:46:35.492
55.0, -45096.25376418278, -53615.643515067524, -20299.69785209869, -28642.173545619673, -16927.803090548885, -16290.554856128081, -187500.02235174447, -187500.02235174447, -0.074, 0.836, 0.502, 192.0, 0.0, 0.0, 0.0, 0.0, 0.0, 0.0, 0.0, 0.0, 0.0, 1.7297037954962137E9, 0.0, 2024-10-23 22:46:35.496
56.0, -44910.44371252581, -53600.37727360455, -24001.437306575455, -29313.91052173502, -16746.17281510506, -16301.261341722173, -187500.02235174447, -187500.02235174447, -0.074, 0.836, 0.502, 192.0, 0.0, 0.0, 0.0, 0.0, 0.0, 0.0, 0.0, 0.0, 0.0, 1.729703795500622E9, 0.0, 2024-10-23 22:46:35.500
57.0, -44745.554893679015, -53454.95682417832, -27141.633885101546, -29213.327671686136, -16615.549220508245, -16199.225628283695, -187500.02235174447, -187500.02235174447, -0.074, 0.836, 0.502, 192.0, 0.0, 0.0, 0.0, 0.0, 0.0, 0.0, 0.0, 0.0, 0.0, 1.729703795504261E9, 0.0, 2024-10-23 22:46:35.504
58.0, -44830.424467375815, -53352.854055506476, -25357.137663023193, -28336.826364615725, -16730.5489457308, -16104.141307370819, -187500.02235174447, -187500.02235174447, -0.07200000000000001, 0.84, 0.502, 192.0, 253.0, 192.0, 26.0, 64.0, 15.0, 176.0, 0.0, 0.0, 0.0, 1.7297037955082285E9, 0.0, 2024-10-23 22:46:35.508
59.0, -45074.259647638755, -53496.70988282083, -21033.572677799784, -28092.387687252485, -16919.465889867057, -16195.001148581643, -187500.02235174447, -187500.02235174447, -0.07200000000000001, 0.84, 0.502, 192.0, 0.0, 0.0, 0.0, 0.0, 0.0, 0.0, 0.0, 0.0, 0.0, 1.7297037955122752E9, 0.0, 2024-10-23 22:46:35.512
60.0, -45121.71240111737, -53633.8601867986, -20277.368459387835, -28655.651647526225, -16924.00329399148, -16311.9007720829, -187500.02235174447, -187500.02235174447, -0.07200000000000001, 0.84, 0.502, 192.0, 0.0, 0.0, 0.0, 0.0, 0.0, 0.0, 0.0, 0.0, 0.0, 1.7297037955172625E9, 0.0, 2024-10-23 22:46:35.517
61.0, -44920.61375625298, -53603.08183468364, -24007.025242689284, -29314.536370579764, -16737.07565511175, -16309.196211003808, -187500.02235174447, -187500.02235174447, -0.07200000000000001, 0.84, 0.502, 192.0, 0.0, 0.0, 0.0, 0.0, 0.0, 0.0, 0.0, 0.0, 0.0, 1.7297037955202467E9, 0.0, 2024-10-23 22:46:35.520
62.0, -44753.08743156045, -53458.6672137579, -27157.88360332055, -29218.557979888676, -16617.13619436457, -16205.707634175735, -187500.02235174447, -187500.02235174447, -0.07200000000000001, 0.84, 0.502, 192.0, 0.0, 0.0, 0.0, 0.0, 0.0, 0.0, 0.0, 0.0, 0.0, 1.729703795524258E9, 0.0, 2024-10-23 22:46:35.524
63.0, -44831.318537154024, -53355.46920960775, -25399.87419842174, -28345.632951931115, -16738.394408034612, -16108.47754579515, -187500.02235174447, -187500.02235174447, -0.07200000000000001, 0.84, 0.502, 192.0, 0.0, 0.0, 0.0, 0.0, 0.0, 0.0, 0.0, 0.0, 0.0, 1.7297037955282872E9, 0.0, 2024-10-23 22:46:35.528
64.0, -45078.193554662896, -53505.605877114045, -21067.726143327494, -28097.170960565923, -16938.509576142977, -16205.841744642466, -187500.02235174447, -187500.02235174447, -0.07200000000000001, 0.84, 0.502, 192.0, 0.0, 0.0, 0.0, 0.0, 0.0, 0.0, 0.0, 0.0, 0.0, 1.7297037955322888E9, 0.0, 2024-10-23 22:46:35.532
65.0, -45125.17692150795, -53644.454913670415, -20277.234348921105, -28656.09868241533, -16941.571765133354, -16319.589772175525, -187500.02235174447, -187500.02235174447, -0.07200000000000001, 0.84, 0.502, 192.0, 0.0, 0.0, 0.0, 0.0, 0.0, 0.0, 0.0, 0.0, 0.0, 1.7297037955362988E9, 0.0, 2024-10-23 22:46:35.536
66.0, -44913.617660238466, -53609.58619232014, -23998.777448985275, -29319.05142295974, -16742.954163903494, -16312.168993016363, -187500.02235174447, -187500.02235174447, -0.07200000000000001, 0.84, 0.502, 192.0, 0.0, 0.0, 0.0, 0.0, 0.0, 0.0, 0.0, 0.0, 0.0, 1.7297037955423248E9, 0.0, 2024-10-23 22:46:35.542
67.0, -44738.13411451985, -53461.90821670392, -27172.255775005317, -29220.033195022726, -16619.550182765746, -16211.58614296748, -187500.02235174447, -187500.02235174447, -0.07200000000000001, 0.84, 0.502, 192.0, 0.0, 0.0, 0.0, 0.0, 0.0, 0.0, 0.0, 0.0, 0.0, 1.729703795546323E9, 0.0, 2024-10-23 22:46:35.546
68.0, -44812.945403211765, -53354.59749157399, -25434.072367438363, -28343.688350163502, -16731.3983120201, -16112.858487708389, -187500.02235174447, -187500.02235174447, -0.076, 0.846, 0.494, 192.0, 253.0, 160.0, 26.0, 112.0, 15.0, 112.0, 0.0, 0.0, 0.0, 1.729703795549307E9, 0.0, 2024-10-23 22:46:35.549
69.0, -45067.57647604662, -53505.06943524712, -21067.79319856086, -28093.57232970862, -16940.00714302148, -16211.697901689757, -187500.02235174447, -187500.02235174447, -0.076, 0.846, 0.494, 192.0, 0.0, 0.0, 0.0, 0.0, 0.0, 0.0, 0.0, 0.0, 0.0, 1.7297037955535147E9, 0.0, 2024-10-23 22:46:35.553
70.0, -45110.335363189624, -53638.151721734015, -20263.555081314455, -28650.28722885695, -16945.59507913531, -16319.589772175525, -187500.02235174447, -187500.02235174447, -0.076, 0.846, 0.494, 192.0, 0.0, 0.0, 0.0, 0.0, 0.0, 0.0, 0.0, 0.0, 0.0, 1.7297037955563092E9, 0.0, 2024-10-23 22:46:35.556
71.0, -44904.40874152288, -53604.17707016195, -23965.11572183558, -29307.89790247654, -16735.958067888983, -16307.519830169658, -187500.02235174447, -187500.02235174447, -0.076, 0.846, 0.494, 192.0, 0.0, 0.0, 0.0, 0.0, 0.0, 0.0, 0.0, 0.0, 0.0, 1.7297037955603285E9, 0.0, 2024-10-23 22:46:35.560
72.0, -44730.445114427224, -53454.04040265565, -27137.81173679969, -29211.15955247397, -16604.082775602674, -16199.672663172802, -187500.02235174447, -187500.02235174447, -0.076, 0.846, 0.494, 192.0, 0.0, 0.0, 0.0, 0.0, 0.0, 0.0, 0.0, 0.0, 0.0, 1.729703795564385E9, 0.0, 2024-10-23 22:46:35.564
73.0, -44800.33901933897, -53334.21270063075, -25449.003332734508, -28332.154850024566, -16714.813317634264, -16089.836190919423, -187500.02235174447, -187500.02235174447, -0.076, 0.846, 0.494, 192.0, 0.0, 0.0, 0.0, 0.0, 0.0, 0.0, 0.0, 0.0, 0.0, 1.729703795568323E9, 0.0, 2024-10-23 22:46:35.568
74.0, -45053.60663576206, -53472.681757531376, -21111.31204501534, -28066.16909100641, -16930.753520816987, -16181.7689158641, -187500.02235174447, -187500.02235174447, -0.076, 0.846, 0.494, 192.0, 0.0, 0.0, 0.0, 0.0, 0.0, 0.0, 0.0, 0.0, 0.0, 1.72970379557338E9, 0.0, 2024-10-23 22:46:35.573
75.0, -45107.98843002182, -53610.189689420426, -20269.522997084023, -28614.61384470628, -16936.78849181992, -16296.70158585329, -187500.02235174447, -187500.02235174447, -0.076, 0.846, 0.494, 192.0, 0.0, 0.0, 0.0, 0.0, 0.0, 0.0, 0.0, 0.0, 0.0, 1.7297037955763533E9, 0.0, 2024-10-23 22:46:35.576
76.0, -44903.067636855565, -53579.79131696121, -23961.584146211644, -29281.902823675016, -16731.26420155337, -16289.392565416405, -187500.02235174447, -187500.02235174447, -0.076, 0.846, 0.494, 192.0, 0.0, 0.0, 0.0, 0.0, 0.0, 0.0, 0.0, 0.0, 0.0, 1.7297037955795567E9, 0.0, 2024-10-23 22:46:35.579
77.0, -44734.915463318284, -53438.12596060347, -27144.494908391825, -29194.30633715467, -16614.744557707854, -16196.766936393613, -187500.02235174447, -187500.02235174447, -0.076, 0.846, 0.494, 192.0, 0.0, 0.0, 0.0, 0.0, 0.0, 0.0, 0.0, 0.0, 0.0, 1.7297037955844164E9, 0.0, 2024-10-23 22:46:35.584
78.0, -44819.00272595915, -53337.900738465876, -25457.385236905247, -28326.99159705539, -16724.044588094304, -16106.04120564952, -187500.02235174447, -187500.02235174447, -0.082, 0.846, 0.49, 192.0, 253.0, 112.0, 26.0, 112.0, 15.0, 80.0, 0.0, 0.0, 0.0, 1.7297037955884209E9, 0.0, 2024-10-23 22:46:35.588
79.0, -45068.44819408038, -53481.421289613405, -21112.139059560188, -28067.152567762445, -16928.898326027196, -16199.762070150624, -187500.02235174447, -187500.02235174447, -0.082, 0.846, 0.49, 192.0, 0.0, 0.0, 0.0, 0.0, 0.0, 0.0, 0.0, 0.0, 0.0, 1.7297037955924351E9, 0.0, 2024-10-23 22:46:35.592
80.0, -45121.6006423951, -53621.38791339254, -20267.936023227696, -28618.011309863487, -16934.888593541218, -16316.549934929602, -187500.02235174447, -187500.02235174447, -0.082, 0.846, 0.49, 192.0, 0.0, 0.0, 0.0, 0.0, 0.0, 0.0, 0.0, 0.0, 0.0, 1.7297037955963926E9, 0.0, 2024-10-23 22:46:35.596
81.0, -44922.6030615095, -53598.455023581395, -23951.324695506657, -29297.45963781591, -16734.438149266025, -16313.443042450315, -187500.02235174447, -187500.02235174447, -0.082, 0.846, 0.49, 192.0, 0.0, 0.0, 0.0, 0.0, 0.0, 0.0, 0.0, 0.0, 0.0, 1.729703795600386E9, 0.0, 2024-10-23 22:46:35.600
82.0, -44745.420783212285, -53448.854797942025, -27177.508434952313, -29211.53953212971, -16601.71349069041, -16210.602666211447, -187500.02235174447, -187500.02235174447, -0.082, 0.846, 0.49, 192.0, 0.0, 0.0, 0.0, 0.0, 0.0, 0.0, 0.0, 0.0, 0.0, 1.729703795604406E9, 0.0, 2024-10-23 22:46:35.604
83.0, -44830.62563307591, -53352.04939270609, -25528.35202555085, -28349.65626593307, -16730.571297475257, -16125.66603728128, -187500.02235174447, -187500.02235174447, -0.082, 0.846, 0.49, 192.0, 0.0, 0.0, 0.0, 0.0, 0.0, 0.0, 0.0, 0.0, 0.0, 1.729703795607424E9, 0.0, 2024-10-23 22:46:35.607
84.0, -45084.407339621466, -53498.878002033, -21171.706458533583, -28094.220530297822, -16927.177241704136, -16219.386901782384, -187500.02235174447, -187500.02235174447, -0.082, 0.846, 0.49, 192.0, 0.0, 0.0, 0.0, 0.0, 0.0, 0.0, 0.0, 0.0, 0.0, 1.7297037956124442E9, 0.0, 2024-10-23 22:46:35.612
85.0, -45135.302261746205, -53633.32374493167, -20302.73768934461, -28641.70415898611, -16929.233602194025, -16333.224336293262, -187500.02235174447, -187500.02235174447, -0.082, 0.846, 0.49, 192.0, 0.0, 0.0, 0.0, 0.0, 0.0, 0.0, 0.0, 0.0, 0.0, 1.7297037956164172E9, 0.0, 2024-10-23 22:46:35.616
86.0, -44940.864436729484, -53611.03905570973, -23971.441265516434, -29319.118478193104, -16749.413818051078, -16341.829757908556, -187500.02235174447, -187500.02235174447, -0.082, 0.846, 0.49, 192.0, 0.0, 0.0, 0.0, 0.0, 0.0, 0.0, 0.0, 0.0, 0.0, 1.7297037956204598E9, 0.0, 2024-10-23 22:46:35.620
87.0, -44774.79097542656, -53472.23472264227, -27162.42100744498, -29248.039930825227, -16635.889307962574, -16251.863986475944, -187500.02235174447, -187500.02235174447, -0.082, 0.846, 0.49, 192.0, 0.0, 0.0, 0.0, 0.0, 0.0, 0.0, 0.0, 0.0, 0.0, 1.7297037956245415E9, 0.0, 2024-10-23 22:46:35.624
88.0, -44849.60226411847, -53362.46530562226, -25538.455014044644, -28384.748504727904, -16748.922079673062, -16150.498825371127, -187500.02235174447, -187500.02235174447, -0.08, 0.848, 0.492, 192.0, 253.0, 128.0, 26.0, 128.0, 15.0, 96.0, 0.0, 0.0, 0.0, 1.7297037956296265E9, 0.0, 2024-10-23 22:46:35.629
89.0, -45098.62304909504, -53503.84008930208, -21174.031039956935, -28115.32057706363, -16958.894367086217, -16241.559832282048, -187500.02235174447, -187500.02235174447, -0.08, 0.848, 0.492, 192.0, 0.0, 0.0, 0.0, 0.0, 0.0, 0.0, 0.0, 0.0, 0.0, 1.7297037956324365E9, 0.0, 2024-10-23 22:46:35.632
90.0, -45143.41594498348, -53634.888367043546, -20283.470485624133, -28653.8635079698, -16964.571710177865, -16348.66939171188, -187500.02235174447, -187500.02235174447, -0.08, 0.848, 0.492, 192.0, 0.0, 0.0, 0.0, 0.0, 0.0, 0.0, 0.0, 0.0, 0.0, 1.7297037956354349E9, 0.0, 2024-10-23 22:46:35.635
91.0, -44945.04421294263, -53611.28492489874, -23935.678474387943, -29330.09318472066, -16783.634338812153, -16351.776284191166, -187500.02235174447, -187500.02235174447, -0.08, 0.848, 0.492, 192.0, 0.0, 0.0, 0.0, 0.0, 0.0, 0.0, 0.0, 0.0, 0.0, 1.7297037956404853E9, 0.0, 2024-10-23 22:46:35.640
92.0, -44762.98925435415, -53458.04136491315, -27172.47929244987, -29245.625942424052, -16640.024380686806, -16242.02921891561, -187500.02235174447, -187500.02235174447, -0.08, 0.848, 0.492, 192.0, 0.0, 0.0, 0.0, 0.0, 0.0, 0.0, 0.0, 0.0, 0.0, 1.7297037956444244E9, 0.0, 2024-10-23 22:46:35.644
93.0, -44836.05710697855, -53350.8423985055, -25570.529767338012, -28378.71353372497, -16744.339972059726, -16135.970191475177, -187500.02235174447, -187500.02235174447, -0.08, 0.848, 0.492, 192.0, 0.0, 0.0, 0.0, 0.0, 0.0, 0.0, 0.0, 0.0, 0.0, 1.7297037956485524E9, 0.0, 2024-10-23 22:46:35.648
94.0, -45086.53075534472, -53494.34059790857, -21198.036813501934, -28103.98824262479, -16949.193709992614, -16224.483099518193, -187500.02235174447, -187500.02235174447, -0.08, 0.848, 0.492, 192.0, 0.0, 0.0, 0.0, 0.0, 0.0, 0.0, 0.0, 0.0, 0.0, 1.729703795652462E9, 0.0, 2024-10-23 22:46:35.652
95.0, -45138.520912947766, -53630.41801815248, -20281.39177338979, -28639.111356629295, -16957.866186841275, -16337.270002039671, -187500.02235174447, -187500.02235174447, -0.08, 0.848, 0.492, 192.0, 0.0, 0.0, 0.0, 0.0, 0.0, 0.0, 0.0, 0.0, 0.0, 1.7297037956574724E9, 0.0, 2024-10-23 22:46:35.657
96.0, -44932.907215703395, -53600.757253260286, -23929.799965596198, -29311.161257167016, -16755.89582394312, -16331.726769414756, -187500.02235174447, -187500.02235174447, -0.08, 0.848, 0.492, 192.0, 0.0, 0.0, 0.0, 0.0, 0.0, 0.0, 0.0, 0.0, 0.0, 1.7297037956604595E9, 0.0, 2024-10-23 22:46:35.660
97.0, -44755.702585661726, -53451.26878634319, -27167.51720518079, -29224.43648868042, -16626.479223546892, -16224.281933818094, -187500.02235174447, -187500.02235174447, -0.08, 0.848, 0.492, 192.0, 0.0, 0.0, 0.0, 0.0, 0.0, 0.0, 0.0, 0.0, 0.0, 1.7297037956635492E9, 0.0, 2024-10-23 22:46:35.663
98.0, -44823.67424055031, -53336.47022682074, -25603.386831687312, -28352.226716545432, -16726.972666617952, -16116.993560432622, -187500.02235174447, -187500.02235174447, -0.08, 0.848, 0.492, 192.0, 0.0, 0.0, 0.0, 0.0, 0.0, 0.0, 0.0, 0.0, 0.0, 1.7297037956700895E9, 0.0, 2024-10-23 22:46:35.670
99.0, -45075.22077265034, -53478.135583178475, -21225.86473534879, -28025.846544009037, -16936.609677864275, -16208.054567343543, -187500.02235174447, -187500.02235174447, -0.08, 0.848, 0.5, 192.0, 253.0, 128.0, 26.0, 128.0, 15.0, 160.0, 0.0, 0.0, 0.0, 1.7297037956724803E9, 0.0, 2024-10-23 22:46:35.672
100.0, -45127.00976455328, -53614.81650052268, -20278.82132277743, -28498.69769796106, -16949.908965815182, -16320.997932076209, -187500.02235174447, -187500.02235174447, -0.08, 0.848, 0.5, 192.0, 0.0, 0.0, 0.0, 0.0, 0.0, 0.0, 0.0, 0.0, 0.0, 1.7297037956765654E9, 0.0, 2024-10-23 22:46:35.676
101.0, -44926.98400342274, -53589.69313975491, -23922.26742771476, -29162.81272921714, -16754.107684386694, -16323.814251877577, -187500.02235174447, -187500.02235174447, -0.08, 0.848, 0.5, 192.0, 0.0, 0.0, 0.0, 0.0, 0.0, 0.0, 0.0, 0.0, 0.0, 1.7297037956804924E9, 0.0, 2024-10-23 22:46:35.680
102.0, -44755.92610310628, -53450.15119912043, -27163.80681560121, -29088.94021379235, -16625.13811887957, -16232.149747866362, -187500.02235174447, -187500.02235174447, -0.08, 0.848, 0.5, 192.0, 0.0, 0.0, 0.0, 0.0, 0.0, 0.0, 0.0, 0.0, 0.0, 1.729703795684494E9, 0.0, 2024-10-23 22:46:35.684
103.0, -44831.36324064294, -53348.33900312651, -25595.317851938948, -28233.136622087553, -16736.673323711555, -16136.886612997845, -187500.02235174447, -187500.02235174447, -0.08, 0.848, 0.5, 192.0, 0.0, 0.0, 0.0, 0.0, 0.0, 0.0, 0.0, 0.0, 0.0, 1.7297037956885238E9, 0.0, 2024-10-23 22:46:35.688
104.0, -45080.40637736397, -53487.16568793842, -21213.459517176096, -27954.276258263144, -16944.83511982383, -16226.293590819072, -187500.02235174447, -187500.02235174447, -0.08, 0.848, 0.5, 192.0, 0.0, 0.0, 0.0, 0.0, 0.0, 0.0, 0.0, 0.0, 0.0, 1.7297037956915464E9, 0.0, 2024-10-23 22:46:35.691
105.0, -45142.27600601626, -53629.18867220744, -20264.382095859302, -28495.099067103754, -16961.330707231846, -16347.820025422578, -187500.02235174447, -187500.02235174447, -0.08, 0.848, 0.5, 192.0, 0.0, 0.0, 0.0, 0.0, 0.0, 0.0, 0.0, 0.0, 0.0, 1.729703795695511E9, 0.0, 2024-10-23 22:46:35.695
106.0, -44941.62439604097, -53608.289791141724, -23902.039098982706, -29179.800055003176, -16763.94245194703, -16350.882214412954, -187500.02235174447, -187500.02235174447, -0.08, 0.848, 0.5, 192.0, 0.0, 0.0, 0.0, 0.0, 0.0, 0.0, 0.0, 0.0, 0.0, 1.7297037957005303E9, 0.0, 2024-10-23 22:46:35.700
107.0, -44760.508210719614, -53462.71287950431, -27168.701847636923, -29108.632100657476, -16625.473395046403, -16249.606460285959, -187500.02235174447, -187500.02235174447, -0.08, 0.848, 0.5, 192.0, 0.0, 0.0, 0.0, 0.0, 0.0, 0.0, 0.0, 0.0, 0.0, 1.729703795704533E9, 0.0, 2024-10-23 22:46:35.704
108.0, -44828.99395573067, -53352.98816597321, -25650.25843981009, -28249.073415884188, -16731.107739342184, -16147.168415447286, -187500.02235174447, -187500.02235174447, -0.08, 0.848, 0.5, 192.0, 0.0, 0.0, 0.0, 0.0, 0.0, 0.0, 0.0, 0.0, 0.0, 1.7297037957085216E9, 0.0, 2024-10-23 22:46:35.708
109.0, -45085.07789195513, -53502.00724625674, -21259.437055520662, -27967.44143574732, -16944.678657612643, -16240.64341075938, -187500.02235174447, -187500.02235174447, -0.082, 0.848, 0.498, 192.0, 253.0, 112.0, 26.0, 128.0, 15.0, 144.0, 0.0, 0.0, 0.0, 1.7297037957145252E9, 0.0, 2024-10-23 22:46:35.714
110.0, -45149.02623284176, -53648.67939337247, -20267.980726716607, -28500.463485773027, -16954.491073428522, -16356.783074949155, -187500.02235174447, -187500.02235174447, -0.082, 0.848, 0.498, 192.0, 0.0, 0.0, 0.0, 0.0, 0.0, 0.0, 0.0, 0.0, 0.0, 1.729703795717566E9, 0.0, 2024-10-23 22:46:35.717
111.0, -44949.78278276716, -53625.41122739449, -23877.273366126225, -29186.61733706204, -16772.614928795687, -16361.722810473779, -187500.02235174447, -187500.02235174447, -0.082, 0.848, 0.498, 192.0, 0.0, 0.0, 0.0, 0.0, 0.0, 0.0, 0.0, 0.0, 0.0, 1.7297037957205572E9, 0.0, 2024-10-23 22:46:35.720
112.0, -44763.97273111019, -53471.832391242075, -27150.46282416139, -29115.53878969417, -16633.877650961596, -16256.803722000566, -187500.02235174447, -187500.02235174447, -0.082, 0.848, 0.498, 192.0, 0.0, 0.0, 0.0, 0.0, 0.0, 0.0, 0.0, 0.0, 0.0, 1.7297037957245407E9, 0.0, 2024-10-23 22:46:35.724
113.0, -44829.59745283097, -53358.35258464248, -25654.684085212244, -28256.583602021172, -16736.91919290056, -16151.459950382705, -187500.02235174447, -187500.02235174447, -0.082, 0.848, 0.498, 192.0, 0.0, 0.0, 0.0, 0.0, 0.0, 0.0, 0.0, 0.0, 0.0, 1.729703795729556E9, 0.0, 2024-10-23 22:46:35.729
114.0, -45081.814537264654, -53497.87217353251, -21267.662497480214, -27968.670781692363, -16951.74180886052, -16245.31492535054, -187500.02235174447, -187500.02235174447, -0.082, 0.848, 0.498, 192.0, 0.0, 0.0, 0.0, 0.0, 0.0, 0.0, 0.0, 0.0, 0.0, 1.7297037957325573E9, 0.0, 2024-10-23 22:46:35.732
115.0, -45142.83479962764, -53637.54822463373, -20277.144941943283, -28495.83667467078, -16974.898216116217, -16365.634365753456, -187500.02235174447, -187500.02235174447, -0.082, 0.848, 0.498, 192.0, 0.0, 0.0, 0.0, 0.0, 0.0, 0.0, 0.0, 0.0, 0.0, 1.7297037957365856E9, 0.0, 2024-10-23 22:46:35.736
116.0, -44948.218160655284, -53620.38208489205, -23878.05567718216, -29180.560014314655, -16795.234894184458, -16374.530360046669, -187500.02235174447, -187500.02235174447, -0.082, 0.848, 0.498, 192.0, 0.0, 0.0, 0.0, 0.0, 0.0, 0.0, 0.0, 0.0, 0.0, 1.729703795740587E9, 0.0, 2024-10-23 22:46:35.740
117.0, -44768.0183968566, -53476.90623723343, -27154.59789688562, -29117.23752227277, -16657.950479739964, -16272.718164052745, -187500.02235174447, -187500.02235174447, -0.082, 0.848, 0.498, 192.0, 0.0, 0.0, 0.0, 0.0, 0.0, 0.0, 0.0, 0.0, 0.0, 1.7297037957445912E9, 0.0, 2024-10-23 22:46:35.744
118.0, -44826.33409814049, -53358.97843348723, -25706.316614904, -28254.750758975835, -16750.777274462853, -16162.14408423234, -187500.02235174447, -187500.02235174447, -0.082, 0.848, 0.498, 192.0, 0.0, 0.0, 0.0, 0.0, 0.0, 0.0, 0.0, 0.0, 0.0, 1.7297037957475886E9, 0.0, 2024-10-23 22:46:35.747
119.0, -45073.387929605, -53494.698225819855, -21322.290160928984, -27952.689284406817, -16951.4512361826, -16245.851367217467, -187500.02235174447, -187500.02235174447, -0.082, 0.842, 0.51, 192.0, 253.0, 112.0, 26.0, 80.0, 15.0, 240.0, 0.0, 0.0, 0.0, 1.729703795751608E9, 0.0, 2024-10-23 22:46:35.751
120.0, -45131.234244255334, -53630.954460019406, -20314.561762161466, -28472.59086043726, -16958.134407774738, -16355.531377259658, -187500.02235174447, -187500.02235174447, -0.082, 0.842, 0.51, 192.0, 0.0, 0.0, 0.0, 0.0, 0.0, 0.0, 0.0, 0.0, 0.0, 1.7297037957566211E9, 0.0, 2024-10-23 22:46:35.756
121.0, -44939.52333206217, -53612.648381310515, -23892.807828522662, -29155.928391924906, -16778.71695503199, -16363.913281430398, -187500.02235174447, -187500.02235174447, -0.082, 0.842, 0.51, 192.0, 0.0, 0.0, 0.0, 0.0, 0.0, 0.0, 0.0, 0.0, 0.0, 1.729703795760636E9, 0.0, 2024-10-23 22:46:35.760
122.0, -44763.52569622108, -53467.76437375121, -27160.14112951054, -29093.209396983315, -16650.306183136247, -16269.588919829002, -187500.02235174447, -187500.02235174447, -0.082, 0.842, 0.51, 192.0, 0.0, 0.0, 0.0, 0.0, 0.0, 0.0, 0.0, 0.0, 0.0, 1.7297037957646017E9, 0.0, 2024-10-23 22:46:35.764
123.0, -44831.36324064294, -53353.94929098479, -25712.95508300723, -28238.45633726792, -16755.22527160946, -16160.62416560938, -187500.02235174447, -187500.02235174447, -0.082, 0.842, 0.51, 192.0, 0.0, 0.0, 0.0, 0.0, 0.0, 0.0, 0.0, 0.0, 0.0, 1.7297037957686114E9, 0.0, 2024-10-23 22:46:35.768
124.0, -45083.78149077672, -53492.08307171859, -21303.55939907544, -27937.937133066316, -16963.990564822026, -16244.443207316783, -187500.02235174447, -187500.02235174447, -0.082, 0.842, 0.51, 192.0, 0.0, 0.0, 0.0, 0.0, 0.0, 0.0, 0.0, 0.0, 0.0, 1.7297037957727046E9, 0.0, 2024-10-23 22:46:35.772
125.0, -45146.29932001821, -53634.32957343216, -20251.976877686608, -28459.00099980843, -16969.44439046912, -16356.157226104408, -187500.02235174447, -187500.02235174447, -0.082, 0.842, 0.51, 192.0, 0.0, 0.0, 0.0, 0.0, 0.0, 0.0, 0.0, 0.0, 0.0, 1.729703795775624E9, 0.0, 2024-10-23 22:46:35.775
126.0, -44952.08501244605, -53619.08568371364, -23818.555333442135, -29153.53675526819, -16780.058059699306, -16368.137761132451, -187500.02235174447, -187500.02235174447, -0.082, 0.842, 0.51, 192.0, 0.0, 0.0, 0.0, 0.0, 0.0, 0.0, 0.0, 0.0, 0.0, 1.7297037957796793E9, 0.0, 2024-10-23 22:46:35.779
127.0, -44777.853164416934, -53479.09670819005, -27099.45614331438, -29096.338641207058, -16647.668677290523, -16274.014565231153, -187500.02235174447, -187500.02235174447, -0.082, 0.842, 0.51, 192.0, 0.0, 0.0, 0.0, 0.0, 0.0, 0.0, 0.0, 0.0, 0.0, 1.729703795784659E9, 0.0, 2024-10-23 22:46:35.784
128.0, -44844.52841812711, -53367.94148301381, -25692.458533341713, -28254.907221187023, -16757.348687332713, -16178.237340240163, -187500.02235174447, -187500.02235174447, -0.082, 0.842, 0.51, 192.0, 0.0, 0.0, 0.0, 0.0, 0.0, 0.0, 0.0, 0.0, 0.0, 1.7297037957886724E9, 0.0, 2024-10-23 22:46:35.788
129.0, -45090.66582806895, -53497.13456596548, -21282.705221498636, -27940.976970312237, -16950.646573382208, -16258.971841212731, -187500.02235174447, -187500.02235174447, -0.082, 0.838, 0.506, 192.0, 253.0, 112.0, 26.0, 48.0, 15.0, 208.0, 0.0, 0.0, 0.0, 1.7297037957927215E9, 0.0, 2024-10-23 22:46:35.792
130.0, -45143.617110683575, -53624.62891633856, -20216.41525225821, -28447.24398222494, -16945.572727390852, -16361.007554651209, -187500.02235174447, -187500.02235174447, -0.082, 0.838, 0.506, 192.0, 0.0, 0.0, 0.0, 0.0, 0.0, 0.0, 0.0, 0.0, 0.0, 1.7297037957967072E9, 0.0, 2024-10-23 22:46:35.796
131.0, -44946.49707633223, -53604.42293935096, -23791.800295329132, -29139.455156261345, -16760.634393767643, -16371.512874545202, -187500.02235174447, -187500.02235174447, -0.082, 0.838, 0.506, 192.0, 0.0, 0.0, 0.0, 0.0, 0.0, 0.0, 0.0, 0.0, 0.0, 1.7297037958007352E9, 0.0, 2024-10-23 22:46:35.800
132.0, -44773.24870505914, -53465.99858593924, -27101.043117170706, -29090.951870793328, -16637.90096496355, -16284.341071169505, -187500.02235174447, -187500.02235174447, -0.082, 0.838, 0.506, 192.0, 0.0, 0.0, 0.0, 0.0, 0.0, 0.0, 0.0, 0.0, 0.0, 1.7297037958036697E9, 0.0, 2024-10-23 22:46:35.803
133.0, -44839.34281341348, -53355.4915613522, -25735.128013506892, -28254.996628164845, -16752.654820997097, -16186.976872322188, -187500.02235174447, -187500.02235174447, -0.082, 0.838, 0.506, 192.0, 0.0, 0.0, 0.0, 0.0, 0.0, 0.0, 0.0, 0.0, 0.0, 1.729703795807708E9, 0.0, 2024-10-23 22:46:35.807
134.0, -45091.20226993588, -53492.1277752075, -21335.500041902073, -27947.63779015992, -16958.91671883067, -16276.719126310245, -187500.02235174447, -187500.02235174447, -0.082, 0.838, 0.506, 192.0, 0.0, 0.0, 0.0, 0.0, 0.0, 0.0, 0.0, 0.0, 0.0, 1.7297037958117108E9, 0.0, 2024-10-23 22:46:35.811
135.0, -45152.22253229887, -53631.17797746396, -20270.43941860669, -28464.320714988797, -16970.941957347626, -16391.517685832703, -187500.02235174447, -187500.02235174447, -0.082, 0.838, 0.506, 192.0, 0.0, 0.0, 0.0, 0.0, 0.0, 0.0, 0.0, 0.0, 0.0, 1.7297037958167105E9, 0.0, 2024-10-23 22:46:35.816
136.0, -44970.6146085995, -53629.68041058545, -23812.967397328306, -29173.25099387777, -16803.415632655102, -16412.86360178752, -187500.02235174447, -187500.02235174447, -0.082, 0.838, 0.506, 192.0, 0.0, 0.0, 0.0, 0.0, 0.0, 0.0, 0.0, 0.0, 0.0, 1.7297037958208752E9, 0.0, 2024-10-23 22:46:35.820
137.0, -44787.710283721724, -53486.6739495604, -27131.530896607746, -29129.441574745368, -16664.924224010017, -16315.879382595944, -187500.02235174447, -187500.02235174447, -0.082, 0.838, 0.506, 192.0, 0.0, 0.0, 0.0, 0.0, 0.0, 0.0, 0.0, 0.0, 0.0, 1.729703795824752E9, 0.0, 2024-10-23 22:46:35.824
138.0, -44836.928825012306, -53362.845285278, -25778.848025661475, -28279.98587846588, -16752.721876230466, -16201.594913195959, -187500.02235174447, -187500.02235174447, -0.082, 0.838, 0.506, 192.0, 0.0, 0.0, 0.0, 0.0, 0.0, 0.0, 0.0, 0.0, 0.0, 1.7297037958277123E9, 0.0, 2024-10-23 22:46:35.827
139.0, -45081.613371564556, -53492.41834788542, -21371.218129541652, -27962.76992115616, -16967.298623001414, -16281.144771712396, -187500.02235174447, -187500.02235174447, -0.084, 0.84, 0.504, 192.0, 253.0, 96.0, 26.0, 64.0, 15.0, 192.0, 0.0, 0.0, 0.0, 1.729703795832701E9, 0.0, 2024-10-23 22:46:35.832
140.0, -45154.34594802212, -53641.32566944667, -20244.779615972, -28475.809511638825, -16993.628977969765, -16403.431165627382, -187500.02235174447, -187500.02235174447, -0.084, 0.84, 0.504, 192.0, 0.0, 0.0, 0.0, 0.0, 0.0, 0.0, 0.0, 0.0, 0.0, 1.7297037958366935E9, 0.0, 2024-10-23 22:46:35.836
141.0, -44956.75652703721, -53622.66196282649, -23793.677841863377, -29173.47451132232, -16790.85395227122, -16403.922904005398, -187500.02235174447, -187500.02235174447, -0.084, 0.84, 0.504, 192.0, 0.0, 0.0, 0.0, 0.0, 0.0, 0.0, 0.0, 0.0, 0.0, 1.7297037958407366E9, 0.0, 2024-10-23 22:46:35.840
142.0, -44772.24287655865, -53474.24637964325, -27132.760242552788, -29118.086888562073, -16652.161377926037, -16298.690891109813, -187500.02235174447, -187500.02235174447, -0.084, 0.84, 0.504, 192.0, 0.0, 0.0, 0.0, 0.0, 0.0, 0.0, 0.0, 0.0, 0.0, 1.7297037958437712E9, 0.0, 2024-10-23 22:46:35.843
143.0, -44831.13972319839, -53356.9444247418, -25813.225008633737, -28268.2735643713, -16752.31954483027, -16189.05558455653, -187500.02235174447, -187500.02235174447, -0.084, 0.84, 0.504, 192.0, 0.0, 0.0, 0.0, 0.0, 0.0, 0.0, 0.0, 0.0, 0.0, 1.729703795847725E9, 0.0, 2024-10-23 22:46:35.847
144.0, -45077.344188373594, -53487.63507457198, -21404.321063079962, -27938.80885110007, -16946.958535547084, -16264.515073837647, -187500.02235174447, -187500.02235174447, -0.084, 0.84, 0.504, 192.0, 0.0, 0.0, 0.0, 0.0, 0.0, 0.0, 0.0, 0.0, 0.0, 1.7297037958517337E9, 0.0, 2024-10-23 22:46:35.851
145.0, -45141.717212404874, -53627.869919284574, -20265.00794470405, -28437.76684257589, -16958.894367086217, -16372.988089679253, -187500.02235174447, -187500.02235174447, -0.084, 0.84, 0.504, 192.0, 0.0, 0.0, 0.0, 0.0, 0.0, 0.0, 0.0, 0.0, 0.0, 1.7297037958557425E9, 0.0, 2024-10-23 22:46:35.855
146.0, -44950.878018245465, -53614.99531447832, -23775.058838732104, -29139.14223183897, -16768.03282118235, -16380.453572327326, -187500.02235174447, -187500.02235174447, -0.084, 0.84, 0.504, 192.0, 0.0, 0.0, 0.0, 0.0, 0.0, 0.0, 0.0, 0.0, 0.0, 1.7297037958607962E9, 0.0, 2024-10-23 22:46:35.860
147.0, -44754.026204827576, -53459.94126319185, -27133.140222208527, -29088.62728936998, -16613.8728396741, -16270.79591402959, -187500.02235174447, -187500.02235174447, -0.084, 0.84, 0.504, 192.0, 0.0, 0.0, 0.0, 0.0, 0.0, 0.0, 0.0, 0.0, 0.0, 1.7297037958648875E9, 0.0, 2024-10-23 22:46:35.864
148.0, -44812.610127044936, -53344.36039261346, -25846.707921827787, -28239.797441935236, -16713.248695522394, -16164.692183100247, -187500.02235174447, -187500.02235174447, -0.084, 0.84, 0.504, 192.0, 0.0, 0.0, 0.0, 0.0, 0.0, 0.0, 0.0, 0.0, 0.0, 1.7297037958687527E9, 0.0, 2024-10-23 22:46:35.868
149.0, -45068.98463594731, -53481.8236210136, -21412.792374228524, -27912.09851647598, -16934.419206907656, -16256.244928389184, -187500.02235174447, -187500.02235174447, -0.082, 0.84, 0.496, 192.0, 253.0, 112.0, 26.0, 64.0, 15.0, 128.0, 0.0, 0.0, 0.0, 1.7297037958717875E9, 0.0, 2024-10-23 22:46:35.871
150.0, -45141.717212404874, -53626.77468380627, -20243.7290839826, -28422.031214479353, -16970.383163736245, -16381.459400827815, -187500.02235174447, -187500.02235174447, -0.082, 0.84, 0.496, 192.0, 0.0, 0.0, 0.0, 0.0, 0.0, 0.0, 0.0, 0.0, 0.0, 1.7297037958758245E9, 0.0, 2024-10-23 22:46:35.875
151.0, -44960.668082316886, -53622.907832015495, -23732.165841122373, -29140.595095228568, -16789.334033648258, -16403.58762783857, -187500.02235174447, -187500.02235174447, -0.082, 0.84, 0.496, 192.0, 0.0, 0.0, 0.0, 0.0, 0.0, 0.0, 0.0, 0.0, 0.0, 1.7297037958798883E9, 0.0, 2024-10-23 22:46:35.879
152.0, -44770.18651606876, -53474.20167615434, -27096.21514036836, -29104.295862233146, -16634.257630617336, -16303.340053956515, -187500.02235174447, -187500.02235174447, -0.082, 0.84, 0.496, 192.0, 0.0, 0.0, 0.0, 0.0, 0.0, 0.0, 0.0, 0.0, 0.0, 1.729703795883803E9, 0.0, 2024-10-23 22:46:35.883
153.0, -44821.97550797171, -53351.8929304949, -25848.674875339853, -28264.183195135975, -16723.21757354946, -16192.475401458194, -187500.02235174447, -187500.02235174447, -0.082, 0.84, 0.496, 192.0, 0.0, 0.0, 0.0, 0.0, 0.0, 0.0, 0.0, 0.0, 0.0, 1.7297037958917947E9, 0.0, 2024-10-23 22:46:35.891
154.0, -45073.29852262718, -53484.23760941478, -21438.00514197411, -27932.326845208034, -16932.742826073507, -16272.874626263932, -187500.02235174447, -187500.02235174447, -0.082, 0.84, 0.496, 192.0, 0.0, 0.0, 0.0, 0.0, 0.0, 0.0, 0.0, 0.0, 0.0, 1.7297037958948154E9, 0.0, 2024-10-23 22:46:35.894
155.0, -45152.46840148788, -53633.0108205093, -20248.24413636257, -28437.990360020445, -16965.801056122906, -16397.262084157715, -187500.02235174447, -187500.02235174447, -0.082, 0.84, 0.496, 192.0, 0.0, 0.0, 0.0, 0.0, 0.0, 0.0, 0.0, 0.0, 0.0, 1.7297037958978236E9, 0.0, 2024-10-23 22:46:35.897
156.0, -44980.47172790429, -53636.408285666505, -23723.560419507077, -29166.50076705227, -16804.19794371104, -16426.520517649715, -187500.02235174447, -187500.02235174447, -0.082, 0.84, 0.496, 192.0, 0.0, 0.0, 0.0, 0.0, 0.0, 0.0, 0.0, 0.0, 0.0, 1.729703795901817E9, 0.0, 2024-10-23 22:46:35.901
157.0, -44793.76760646911, -53490.04906297315, -27092.236529855316, -29174.97207820083, -16667.785247300297, -16329.603353691502, -187500.02235174447, -187500.02235174447, -0.082, 0.84, 0.496, 192.0, 0.0, 0.0, 0.0, 0.0, 0.0, 0.0, 0.0, 0.0, 0.0, 1.729703795904805E9, 0.0, 2024-10-23 22:46:35.904
158.0, -44830.20094993126, -53352.854055506476, -25890.98672759375, -28388.23537686293, -16734.102873099193, -16202.868962629911, -187500.02235174447, -187500.02235174447, -0.082, 0.84, 0.496, 192.0, 0.0, 0.0, 0.0, 0.0, 0.0, 0.0, 0.0, 0.0, 0.0, 1.729703795907822E9, 0.0, 2024-10-23 22:46:35.907
159.0, -45090.19644143539, -53492.99949324125, -21456.601793360926, -28065.40913169493, -16943.87399481225, -16294.242893963206, -187500.02235174447, -187500.02235174447, -0.084, 0.846, 0.492, 192.0, 253.0, 96.0, 26.0, 112.0, 15.0, 96.0, 0.0, 0.0, 0.0, 1.7297037959118252E9, 0.0, 2024-10-23 22:46:35.911
160.0, -45162.72785219287, -53639.42577116797, -20253.183871887195, -28575.051257020386, -16973.020669581972, -16417.602171612045, -187500.02235174447, -187500.02235174447, -0.084, 0.846, 0.492, 192.0, 0.0, 0.0, 0.0, 0.0, 0.0, 0.0, 0.0, 0.0, 0.0, 1.7297037959168165E9, 0.0, 2024-10-23 22:46:35.916
161.0, -44976.82839355808, -53633.10022748712, -23734.17749812335, -29287.60251851112, -16794.340824406245, -16430.566183396124, -187500.02235174447, -187500.02235174447, -0.084, 0.846, 0.492, 192.0, 0.0, 0.0, 0.0, 0.0, 0.0, 0.0, 0.0, 0.0, 0.0, 1.7297037959209063E9, 0.0, 2024-10-23 22:46:35.920
162.0, -44792.09122563496, -53489.89260076197, -27108.35213760759, -29258.522898974767, -16651.043790703272, -16333.55961246009, -187500.02235174447, -187500.02235174447, -0.084, 0.846, 0.492, 192.0, 0.0, 0.0, 0.0, 0.0, 0.0, 0.0, 0.0, 0.0, 0.0, 1.7297037959248416E9, 0.0, 2024-10-23 22:46:35.924
163.0, -44849.02111876263, -53371.718927826754, -25909.89630340294, -28424.735775558445, -16748.69856222851, -16227.567640253024, -187500.02235174447, -187500.02235174447, -0.084, 0.846, 0.492, 192.0, 0.0, 0.0, 0.0, 0.0, 0.0, 0.0, 0.0, 0.0, 0.0, 1.729703795927888E9, 0.0, 2024-10-23 22:46:35.927
164.0, -45102.02051425225, -53500.44262414487, -21484.02738380759, -28080.250690013254, -16967.902120101706, -16306.446946435804, -187500.02235174447, -187500.02235174447, -0.084, 0.846, 0.492, 192.0, 0.0, 0.0, 0.0, 0.0, 0.0, 0.0, 0.0, 0.0, 0.0, 1.729703795931924E9, 0.0, 2024-10-23 22:46:35.931
165.0, -45165.87944816106, -53633.390800165034, -20262.6833632807, -28568.345733683796, -16967.11980904577, -16406.783927295677, -187500.02235174447, -187500.02235174447, -0.084, 0.846, 0.492, 192.0, 0.0, 0.0, 0.0, 0.0, 0.0, 0.0, 0.0, 0.0, 0.0, 1.72970379593585E9, 0.0, 2024-10-23 22:46:35.935
166.0, -44977.00720751372, -53623.60073609361, -23719.090070616017, -29278.415951539988, -16784.953091735017, -16418.697407090356, -187500.02235174447, -187500.02235174447, -0.084, 0.846, 0.492, 192.0, 0.0, 0.0, 0.0, 0.0, 0.0, 0.0, 0.0, 0.0, 0.0, 1.7297037959399333E9, 0.0, 2024-10-23 22:46:35.939
167.0, -44790.48190003418, -53481.421289613405, -27103.680623016433, -29255.46070998439, -16651.893156992573, -16323.121347799462, -187500.02235174447, -187500.02235174447, -0.084, 0.846, 0.492, 192.0, 0.0, 0.0, 0.0, 0.0, 0.0, 0.0, 0.0, 0.0, 0.0, 1.7297037959448693E9, 0.0, 2024-10-23 22:46:35.944
168.0, -44843.16496171534, -53363.64994807839, -25934.88555370397, -28420.24307492293, -16739.310829557282, -16212.770785423612, -187500.02235174447, -187500.02235174447, -0.084, 0.846, 0.492, 192.0, 0.0, 0.0, 0.0, 0.0, 0.0, 0.0, 0.0, 0.0, 0.0, 1.7297037959489405E9, 0.0, 2024-10-23 22:46:35.948
169.0, -45094.622086837546, -53495.458185131334, -21496.20908453573, -28071.13117827549, -16948.92548905915, -16291.13600148392, -187500.02235174447, -187500.02235174447, -0.084, 0.852, 0.488, 192.0, 253.0, 96.0, 26.0, 160.0, 15.0, 64.0, 0.0, 0.0, 0.0, 1.7297037959529188E9, 0.0, 2024-10-23 22:46:35.952
170.0, -45165.07478536067, -53636.52004438878, -20264.695020281677, -28561.260230691463, -16961.330707231846, -16400.05605221463, -187500.02235174447, -187500.02235174447, -0.084, 0.852, 0.488, 192.0, 0.0, 0.0, 0.0, 0.0, 0.0, 0.0, 0.0, 0.0, 0.0, 1.7297037959558675E9, 0.0, 2024-10-23 22:46:35.955
171.0, -44977.32013193609, -53626.86409078409, -23720.878210172443, -29277.566585250686, -16776.124152675173, -16408.214438940817, -187500.02235174447, -187500.02235174447, -0.084, 0.852, 0.488, 192.0, 0.0, 0.0, 0.0, 0.0, 0.0, 0.0, 0.0, 0.0, 0.0, 1.7297037959602675E9, 0.0, 2024-10-23 22:46:35.960
172.0, -44782.70349296373, -53475.02869069919, -27131.866172774575, -29243.79309937872, -16626.59098226917, -16302.13305975593, -187500.02235174447, -187500.02235174447, -0.084, 0.852, 0.488, 192.0, 0.0, 0.0, 0.0, 0.0, 0.0, 0.0, 0.0, 0.0, 0.0, 1.7297037959803624E9, 0.0, 2024-10-23 22:46:35.980
173.0, -44835.811237789545, -53359.58193058753, -25970.693048321373, -28410.27419689586, -16718.16607930256, -16195.001148581643, -187500.02235174447, -187500.02235174447, -0.084, 0.852, 0.488, 192.0, 0.0, 0.0, 0.0, 0.0, 0.0, 0.0, 0.0, 0.0, 0.0, 1.729703795980396E9, 0.0, 2024-10-23 22:46:35.980
174.0, -45090.419958879946, -53491.68074031839, -21536.911611188843, -28059.754140347737, -16936.766140075462, -16279.088411222509, -187500.02235174447, -187500.02235174447, -0.084, 0.852, 0.488, 192.0, 0.0, 0.0, 0.0, 0.0, 0.0, 0.0, 0.0, 0.0, 0.0, 1.7297037959804113E9, 0.0, 2024-10-23 22:46:35.980
175.0, -45165.83474467215, -53635.60362286611, -20292.344128172892, -28550.151413697175, -16967.83506486834, -16398.96081673632, -187500.02235174447, -187500.02235174447, -0.084, 0.852, 0.488, 192.0, 0.0, 0.0, 0.0, 0.0, 0.0, 0.0, 0.0, 0.0, 0.0, 1.7297037959804251E9, 0.0, 2024-10-23 22:46:35.980
176.0, -44981.05287326013, -53629.68041058545, -23730.51181203268, -29266.234250811845, -16783.522580089877, -16417.065729745118, -187500.02235174447, -187500.02235174447, -0.084, 0.852, 0.488, 192.0, 0.0, 0.0, 0.0, 0.0, 0.0, 0.0, 0.0, 0.0, 0.0, 1.7297037959809036E9, 0.0, 2024-10-23 22:46:35.980
177.0, -44795.93572568127, -53491.68074031839, -27107.905102718487, -29253.739625661332, -16649.412113358034, -16332.777301404156, -187500.02235174447, -187500.02235174447, -0.084, 0.852, 0.488, 192.0, 0.0, 0.0, 0.0, 0.0, 0.0, 0.0, 0.0, 0.0, 0.0, 1.7297037959839184E9, 0.0, 2024-10-23 22:46:35.983
178.0, -44841.15330471436, -53368.52262836965, -25969.46370237633, -28423.372319146674, -16722.16704156006, -16222.717311706223, -187500.02235174447, -187500.02235174447, -0.084, 0.852, 0.488, 192.0, 0.0, 0.0, 0.0, 0.0, 0.0, 0.0, 0.0, 0.0, 0.0, 1.729703795987924E9, 0.0, 2024-10-23 22:46:35.987
179.0, -45086.284886155714, -53492.01601648522, -21525.55692500555, -28058.949477547347, -16927.624276593244, -16297.305082953584, -187500.02235174447, -187500.02235174447, -0.08, 0.85, 0.488, 192.0, 253.0, 128.0, 26.0, 144.0, 15.0, 64.0, 0.0, 0.0, 0.0, 1.7297037959919446E9, 0.0, 2024-10-23 22:46:35.991
180.0, -45153.07189858817, -53625.56768960568, -20271.28878489599, -28541.6353990597, -16952.032381538436, -16406.6721685734, -187500.02235174447, -187500.02235174447, -0.08, 0.85, 0.488, 192.0, 0.0, 0.0, 0.0, 0.0, 0.0, 0.0, 0.0, 0.0, 0.0, 1.7297037959959393E9, 0.0, 2024-10-23 22:46:35.995
181.0, -44974.10148073453, -53625.18770994994, -23714.17268683585, -29270.414027024988, -16774.38071660766, -16429.806224084645, -187500.02235174447, -187500.02235174447, -0.08, 0.85, 0.488, 192.0, 0.0, 0.0, 0.0, 0.0, 0.0, 0.0, 0.0, 0.0, 0.0, 1.7297037960009503E9, 0.0, 2024-10-23 22:46:36.000
182.0, -44785.83273718748, -53481.37658612449, -27118.32101563466, -29259.93105887545, -16642.684238276986, -16339.66163869639, -187500.02235174447, -187500.02235174447, -0.08, 0.85, 0.488, 192.0, 0.0, 0.0, 0.0, 0.0, 0.0, 0.0, 0.0, 0.0, 0.0, 1.7297037960049372E9, 0.0, 2024-10-23 22:46:36.004
183.0, -44828.14458944137, -53353.74812528469, -26032.0932903401, -28431.776575061867, -16731.42066376456, -16226.315942563528, -187500.02235174447, -187500.02235174447, -0.08, 0.85, 0.488, 192.0, 0.0, 0.0, 0.0, 0.0, 0.0, 0.0, 0.0, 0.0, 0.0, 1.7297037960089211E9, 0.0, 2024-10-23 22:46:36.008
184.0, -45081.38985412, -53482.85180125854, -21597.46248691827, -28068.761893363226, -16948.5008059145, -16309.643245892912, -187500.02235174447, -187500.02235174447, -0.08, 0.85, 0.488, 192.0, 0.0, 0.0, 0.0, 0.0, 0.0, 0.0, 0.0, 0.0, 0.0, 1.7297037960119493E9, 0.0, 2024-10-23 22:46:36.011
185.0, -45159.486849246845, -53628.227547195864, -20302.514171900057, -28555.314666666352, -16979.659137685197, -16428.733340350787, -187500.02235174447, -187500.02235174447, -0.08, 0.85, 0.488, 192.0, 0.0, 0.0, 0.0, 0.0, 0.0, 0.0, 0.0, 0.0, 0.0, 1.7297037960159636E9, 0.0, 2024-10-23 22:46:36.015
186.0, -44973.20741095632, -53621.43261688145, -23718.531277004633, -29282.103989375115, -16797.76064130791, -16446.34651498157, -187500.02235174447, -187500.02235174447, -0.08, 0.85, 0.488, 192.0, 0.0, 0.0, 0.0, 0.0, 0.0, 0.0, 0.0, 0.0, 0.0, 1.7297037960199797E9, 0.0, 2024-10-23 22:46:36.019
187.0, -44782.569382497, -53475.766298266215, -27140.22572520086, -29259.864003642084, -16661.97379374192, -16348.37881903396, -187500.02235174447, -187500.02235174447, -0.08, 0.85, 0.488, 192.0, 0.0, 0.0, 0.0, 0.0, 0.0, 0.0, 0.0, 0.0, 0.0, 1.7297037960239832E9, 0.0, 2024-10-23 22:46:36.023
188.0, -44833.91133951084, -53360.45364862128, -26044.900839912993, -28433.452955896017, -16744.049399381805, -16235.457806045748, -187500.02235174447, -187500.02235174447, -0.08, 0.85, 0.488, 192.0, 0.0, 0.0, 0.0, 0.0, 0.0, 0.0, 0.0, 0.0, 0.0, 1.729703796028007E9, 0.0, 2024-10-23 22:46:36.028
189.0, -45089.61529607955, -53489.24440017276, -21588.186512969318, -28069.924184074902, -16954.289907728424, -16309.732652870734, -187500.02235174447, -187500.02235174447, -0.082, 0.848, 0.49, 192.0, 253.0, 112.0, 26.0, 128.0, 15.0, 80.0, 0.0, 0.0, 0.0, 1.729703796033048E9, 0.0, 2024-10-23 22:46:36.033
190.0, -45165.36535803859, -53631.04386699723, -20279.603633833365, -28553.37006489874, -16985.06825984338, -16421.334912936083, -187500.02235174447, -187500.02235174447, -0.082, 0.848, 0.49, 192.0, 0.0, 0.0, 0.0, 0.0, 0.0, 0.0, 0.0, 0.0, 0.0, 1.7297037960370672E9, 0.0, 2024-10-23 22:46:36.037
191.0, -44975.4649371463, -53625.4559308834, -23691.664480169355, -29273.051532870715, -16797.023033740883, -16428.934506050886, -187500.02235174447, -187500.02235174447, -0.082, 0.848, 0.49, 192.0, 0.0, 0.0, 0.0, 0.0, 0.0, 0.0, 0.0, 0.0, 0.0, 1.7297037960400496E9, 0.0, 2024-10-23 22:46:36.040
192.0, -44785.43040578728, -53482.98591172528, -27103.524160805246, -29254.767805906275, -16639.890270220076, -16328.776339146656, -187500.02235174447, -187500.02235174447, -0.082, 0.848, 0.49, 192.0, 0.0, 0.0, 0.0, 0.0, 0.0, 0.0, 0.0, 0.0, 0.0, 1.7297037960440395E9, 0.0, 2024-10-23 22:46:36.044
193.0, -44826.28939465158, -53357.525570097634, -26053.10393012809, -28429.00495874941, -16714.612151934165, -16211.139108078374, -187500.02235174447, -187500.02235174447, -0.082, 0.848, 0.49, 192.0, 0.0, 0.0, 0.0, 0.0, 0.0, 0.0, 0.0, 0.0, 0.0, 1.7297037960480793E9, 0.0, 2024-10-23 22:46:36.048
194.0, -45078.68529304091, -53482.56122858063, -21607.788992856622, -28053.294486200153, -16933.994523763005, -16284.296367680594, -187500.02235174447, -187500.02235174447, -0.082, 0.848, 0.49, 192.0, 0.0, 0.0, 0.0, 0.0, 0.0, 0.0, 0.0, 0.0, 0.0, 1.7297037960520976E9, 0.0, 2024-10-23 22:46:36.052
195.0, -45155.55294222271, -53622.013762237286, -20273.72512504162, -28523.26226511744, -16962.02361130996, -16389.886008487465, -187500.02235174447, -187500.02235174447, -0.082, 0.848, 0.49, 192.0, 0.0, 0.0, 0.0, 0.0, 0.0, 0.0, 0.0, 0.0, 0.0, 1.7297037960560577E9, 0.0, 2024-10-23 22:46:36.056
196.0, -44975.80021331313, -53623.332515160146, -23668.888052569397, -29251.079768071148, -16781.17564692207, -16407.25331392924, -187500.02235174447, -187500.02235174447, -0.082, 0.848, 0.49, 192.0, 0.0, 0.0, 0.0, 0.0, 0.0, 0.0, 0.0, 0.0, 0.0, 1.7297037960610487E9, 0.0, 2024-10-23 22:46:36.061
197.0, -44778.680178961775, -53475.05104244364, -27122.813716270175, -29238.562791176177, -16632.983581183384, -16301.149582999897, -187500.02235174447, -187500.02235174447, -0.082, 0.848, 0.49, 192.0, 0.0, 0.0, 0.0, 0.0, 0.0, 0.0, 0.0, 0.0, 0.0, 1.7297037960650425E9, 0.0, 2024-10-23 22:46:36.065
198.0, -44823.38366787239, -53355.55861658557, -26105.384660409054, -28412.419964363573, -16714.50039321189, -16184.473476943193, -187500.02235174447, -187500.02235174447, -0.082, 0.848, 0.49, 192.0, 0.0, 0.0, 0.0, 0.0, 0.0, 0.0, 0.0, 0.0, 0.0, 1.7297037960680864E9, 0.0, 2024-10-23 22:46:36.068
199.0, -45084.80967102166, -53492.79832754115, -21640.199022316818, -28043.705587828827, -16934.128634229735, -16273.656937319869, -187500.02235174447, -187500.02235174447, -0.08600000000000001, 0.842, 0.496, 192.0, 253.0, 80.0, 26.0, 80.0, 15.0, 128.0, 0.0, 0.0, 0.0, 1.729703796072046E9, 0.0, 2024-10-23 22:46:36.072
200.0, -45161.34204403663, -53633.122579231574, -20286.085639725407, -28525.944474452077, -16959.58727116433, -16395.38453762347, -187500.02235174447, -187500.02235174447, -0.08600000000000001, 0.842, 0.496, 192.0, 0.0, 0.0, 0.0, 0.0, 0.0, 0.0, 0.0, 0.0, 0.0, 1.729703796076065E9, 0.0, 2024-10-23 22:46:36.076
201.0, -44978.907105792416, -53630.75329431931, -23658.516843142133, -29256.220669295868, -16781.645033555633, -16420.954933280344, -187500.02235174447, -187500.02235174447, -0.08600000000000001, 0.842, 0.496, 192.0, 0.0, 0.0, 0.0, 0.0, 0.0, 0.0, 0.0, 0.0, 0.0, 1.7297037960800655E9, 0.0, 2024-10-23 22:46:36.080
202.0, -44794.30404833604, -53495.41348164243, -27091.588329266113, -29259.014637352782, -16636.403398085047, -16341.114502085986, -187500.02235174447, -187500.02235174447, -0.08600000000000001, 0.842, 0.496, 192.0, 0.0, 0.0, 0.0, 0.0, 0.0, 0.0, 0.0, 0.0, 0.0, 1.7297037960841198E9, 0.0, 2024-10-23 22:46:36.084
203.0, -44829.932728997795, -53367.78502080262, -26112.69368084594, -28452.00490379392, -16712.466384466457, -16232.797948455567, -187500.02235174447, -187500.02235174447, -0.08600000000000001, 0.842, 0.496, 192.0, 0.0, 0.0, 0.0, 0.0, 0.0, 0.0, 0.0, 0.0, 0.0, 1.729703796089063E9, 0.0, 2024-10-23 22:46:36.089
204.0, -45080.29461864169, -53491.7254438073, -21663.690705739344, -28071.958192820337, -16935.402683663688, -16316.013493062675, -187500.02235174447, -187500.02235174447, -0.08600000000000001, 0.842, 0.496, 192.0, 0.0, 0.0, 0.0, 0.0, 0.0, 0.0, 0.0, 0.0, 0.0, 1.7297037960931382E9, 0.0, 2024-10-23 22:46:36.093
205.0, -45151.88725613204, -53623.46662562688, -20315.813459850964, -28545.949285739578, -16969.26557651348, -16434.16481425343, -187500.02235174447, -187500.02235174447, -0.08600000000000001, 0.842, 0.496, 192.0, 0.0, 0.0, 0.0, 0.0, 0.0, 0.0, 0.0, 0.0, 0.0, 1.7297037960961125E9, 0.0, 2024-10-23 22:46:36.096
206.0, -44971.82160280009, -53625.74650356132, -23673.201939249273, -29274.906727660506, -16795.436059884556, -16455.913061608444, -187500.02235174447, -187500.02235174447, -0.08600000000000001, 0.842, 0.496, 192.0, 0.0, 0.0, 0.0, 0.0, 0.0, 0.0, 0.0, 0.0, 0.0, 1.7297037961001234E9, 0.0, 2024-10-23 22:46:36.100
207.0, -44785.67627497629, -53490.33963565107, -27105.871093973055, -29280.494663774334, -16662.756104797852, -16368.562444277102, -187500.02235174447, -187500.02235174447, -0.08600000000000001, 0.842, 0.496, 192.0, 0.0, 0.0, 0.0, 0.0, 0.0, 0.0, 0.0, 0.0, 0.0, 1.729703796104138E9, 0.0, 2024-10-23 22:46:36.104
208.0, -44828.63632781939, -53369.70727082578, -26144.053178316735, -28468.9698778355, -16750.151425618104, -16255.17204465533, -187500.02235174447, -187500.02235174447, -0.08600000000000001, 0.842, 0.496, 192.0, 0.0, 0.0, 0.0, 0.0, 0.0, 0.0, 0.0, 0.0, 0.0, 1.729703796108136E9, 0.0, 2024-10-23 22:46:36.108
209.0, -45079.221734907835, -53493.40182464145, -21711.232866195784, -28079.13310279049, -16963.565881677376, -16321.42261522086, -187500.02235174447, -187500.02235174447, -0.08, 0.834, 0.5, 192.0, 253.0, 128.0, 26.0, 16.0, 15.0, 160.0, 0.0, 0.0, 0.0, 1.7297037961121268E9, 0.0, 2024-10-23 22:46:36.112
210.0, -45162.12435509257, -53640.29748920173, -20322.720148887653, -28549.257343918962, -17001.09446061784, -16436.39998869896, -187500.02235174447, -187500.02235174447, -0.08, 0.834, 0.5, 192.0, 0.0, 0.0, 0.0, 0.0, 0.0, 0.0, 0.0, 0.0, 0.0, 1.7297037961161358E9, 0.0, 2024-10-23 22:46:36.116
211.0, -44980.27056220419, -53641.795056080235, -23670.3856194479, -29276.09137011664, -16812.691606604054, -16454.437846474393, -187500.02235174447, -187500.02235174447, -0.08, 0.834, 0.5, 192.0, 0.0, 0.0, 0.0, 0.0, 0.0, 0.0, 0.0, 0.0, 0.0, 1.7297037961211429E9, 0.0, 2024-10-23 22:46:36.121
212.0, -44792.51590877961, -53508.265734704226, -27105.13348640603, -29280.762884707798, -16665.77359029932, -16364.293261086139, -187500.02235174447, -187500.02235174447, -0.08, 0.834, 0.5, 192.0, 0.0, 0.0, 0.0, 0.0, 0.0, 0.0, 0.0, 0.0, 0.0, 1.729703796124158E9, 0.0, 2024-10-23 22:46:36.124
213.0, -44826.28939465158, -53377.77625057415, -26176.21733858792, -28467.87464235719, -16740.294306313313, -16241.872756704422, -187500.02235174447, -187500.02235174447, -0.08, 0.834, 0.5, 192.0, 0.0, 0.0, 0.0, 0.0, 0.0, 0.0, 0.0, 0.0, 0.0, 1.7297037961281908E9, 0.0, 2024-10-23 22:46:36.128
214.0, -45085.63668556651, -53504.01890325772, -21716.44082265387, -28076.65205915595, -16959.766085119973, -16317.93574308583, -187500.02235174447, -187500.02235174447, -0.08, 0.834, 0.5, 192.0, 0.0, 0.0, 0.0, 0.0, 0.0, 0.0, 0.0, 0.0, 0.0, 1.7297037961321826E9, 0.0, 2024-10-23 22:46:36.132
215.0, -45166.14766909453, -53643.18086423646, -20293.86404679585, -28535.823945501324, -16973.802980637905, -16422.8771833035, -187500.02235174447, -187500.02235174447, -0.08, 0.834, 0.5, 192.0, 0.0, 0.0, 0.0, 0.0, 0.0, 0.0, 0.0, 0.0, 0.0, 1.7297037961362116E9, 0.0, 2024-10-23 22:46:36.136
216.0, -44987.914858807904, -53642.93499504745, -23615.310921110027, -29263.797910666217, -16785.757754535407, -16433.494261919768, -187500.02235174447, -187500.02235174447, -0.08, 0.834, 0.5, 192.0, 0.0, 0.0, 0.0, 0.0, 0.0, 0.0, 0.0, 0.0, 0.0, 1.7297037961401992E9, 0.0, 2024-10-23 22:46:36.140
217.0, -44792.58296401298, -53498.98976075528, -27087.65442224198, -29266.301306045214, -16636.00106668485, -16334.788958405134, -187500.02235174447, -187500.02235174447, -0.08, 0.834, 0.5, 192.0, 0.0, 0.0, 0.0, 0.0, 0.0, 0.0, 0.0, 0.0, 0.0, 1.7297037961441903E9, 0.0, 2024-10-23 22:46:36.144
218.0, -44827.31757489653, -53370.04254699261, -26200.46898132193, -28455.447072440038, -16708.040739064305, -16211.116756333919, -187500.02235174447, -187500.02235174447, -0.08, 0.834, 0.5, 192.0, 0.0, 0.0, 0.0, 0.0, 0.0, 0.0, 0.0, 0.0, 0.0, 1.7297037961492107E9, 0.0, 2024-10-23 22:46:36.149
219.0, -45087.31306640066, -53498.98976075528, -21731.461194927837, -28060.69291361486, -16921.276381167936, -16286.710356081769, -187500.02235174447, -187500.02235174447, -0.08, 0.834, 0.5, 192.0, 0.0, 0.0, 0.0, 0.0, 0.0, 0.0, 0.0, 0.0, 0.0, 1.7297037961522639E9, 0.0, 2024-10-23 22:46:36.152
220.0, -45172.696730219934, -53646.62303288258, -20289.81838104944, -28523.642244773182, -16966.046925311915, -16406.20278193984, -187500.02235174447, -187500.02235174447, -0.082, 0.838, 0.498, 192.0, 253.0, 112.0, 26.0, 48.0, 15.0, 144.0, 0.0, 0.0, 0.0, 1.729703796156292E9, 0.0, 2024-10-23 22:46:36.156
221.0, -44997.72727462379, -53653.77559110828, -23605.185580871774, -29257.673532685465, -16786.338899891245, -16425.447633915857, -187500.02235174447, -187500.02235174447, -0.082, 0.838, 0.498, 192.0, 0.0, 0.0, 0.0, 0.0, 0.0, 0.0, 0.0, 0.0, 0.0, 1.7297037961602502E9, 0.0, 2024-10-23 22:46:36.160
222.0, -44807.17865314229, -53517.49700516427, -27059.938259117396, -29273.83384392665, -16638.325648108203, -16335.012475849686, -187500.02235174447, -187500.02235174447, -0.082, 0.838, 0.498, 192.0, 0.0, 0.0, 0.0, 0.0, 0.0, 0.0, 0.0, 0.0, 0.0, 1.7297037961642256E9, 0.0, 2024-10-23 22:46:36.164
223.0, -44829.5303975976, -53377.73154708523, -26188.75666722735, -28470.020409824898, -16703.50333493988, -16212.860192401433, -187500.02235174447, -187500.02235174447, -0.082, 0.838, 0.498, 192.0, 0.0, 0.0, 0.0, 0.0, 0.0, 0.0, 0.0, 0.0, 0.0, 1.7297037961682749E9, 0.0, 2024-10-23 22:46:36.168
224.0, -45084.474394854835, -53501.18023171189, -21718.6759970994, -28066.861995084524, -16926.998427748495, -16289.437268905314, -187500.02235174447, -187500.02235174447, -0.082, 0.838, 0.498, 192.0, 0.0, 0.0, 0.0, 0.0, 0.0, 0.0, 0.0, 0.0, 0.0, 1.7297037961722152E9, 0.0, 2024-10-23 22:46:36.172
225.0, -45167.667587717486, -53646.80184683822, -20246.120720639316, -28534.8851722342, -16962.805922365897, -16406.6721685734, -187500.02235174447, -187500.02235174447, -0.082, 0.838, 0.498, 192.0, 0.0, 0.0, 0.0, 0.0, 0.0, 0.0, 0.0, 0.0, 0.0, 1.7297037961766396E9, 0.0, 2024-10-23 22:46:36.176
226.0, -44982.03635001616, -53640.85628281311, -23588.488827763656, -29268.916460146484, -16782.516751589388, -16421.625485614, -187500.02235174447, -187500.02235174447, -0.082, 0.838, 0.498, 192.0, 0.0, 0.0, 0.0, 0.0, 0.0, 0.0, 0.0, 0.0, 0.0, 1.729703796180242E9, 0.0, 2024-10-23 22:46:36.180
227.0, -44796.092187892464, -53506.70111259236, -27071.225890067326, -29284.741495220842, -16660.587985585687, -16342.634420708946, -187500.02235174447, -187500.02235174447, -0.082, 0.838, 0.498, 192.0, 0.0, 0.0, 0.0, 0.0, 0.0, 0.0, 0.0, 0.0, 0.0, 1.7297037961842382E9, 0.0, 2024-10-23 22:46:36.184
228.0, -44824.23303416169, -53374.98228251723, -26226.084080467714, -28490.516959490415, -16736.74037894492, -16233.714369978235, -187500.02235174447, -187500.02235174447, -0.082, 0.838, 0.498, 192.0, 0.0, 0.0, 0.0, 0.0, 0.0, 0.0, 0.0, 0.0, 0.0, 1.7297037961882539E9, 0.0, 2024-10-23 22:46:36.188
229.0, -45070.281037125715, -53492.7759757967, -21771.806093669664, -28084.676335415406, -16943.762236089973, -16302.736556856224, -187500.02235174447, -187500.02235174447, -0.082, 0.838, 0.498, 192.0, 0.0, 0.0, 0.0, 0.0, 0.0, 0.0, 0.0, 0.0, 0.0, 1.7297037961922426E9, 0.0, 2024-10-23 22:46:36.192
230.0, -45151.26140728729, -53638.28583220075, -20305.01756727905, -28546.575134584327, -16987.526951733464, -16420.798471069156, -187500.02235174447, -187500.02235174447, -0.08, 0.84, 0.506, 192.0, 253.0, 128.0, 26.0, 64.0, 15.0, 208.0, 0.0, 0.0, 0.0, 1.7297037961962574E9, 0.0, 2024-10-23 22:46:36.196
231.0, -44971.03929174415, -53645.99718403783, -23617.00965368863, -29291.670536001988, -16821.833470086272, -16446.458273703847, -187500.02235174447, -187500.02235174447, -0.08, 0.84, 0.506, 192.0, 0.0, 0.0, 0.0, 0.0, 0.0, 0.0, 0.0, 0.0, 0.0, 1.7297037962002645E9, 0.0, 2024-10-23 22:46:36.200
232.0, -44775.126251593385, -53508.31043819314, -27115.482344088836, -29308.52375132129, -16686.11367775365, -16357.721848216279, -187500.02235174447, -187500.02235174447, -0.08, 0.84, 0.506, 192.0, 0.0, 0.0, 0.0, 0.0, 0.0, 0.0, 0.0, 0.0, 0.0, 1.7297037962052772E9, 0.0, 2024-10-23 22:46:36.205
233.0, -44805.43521707478, -53376.79277381811, -26281.471703227962, -28504.01741314142, -16766.647013026122, -16240.196375870273, -187500.02235174447, -187500.02235174447, -0.08, 0.84, 0.506, 192.0, 0.0, 0.0, 0.0, 0.0, 0.0, 0.0, 0.0, 0.0, 0.0, 1.729703796208378E9, 0.0, 2024-10-23 22:46:36.208
234.0, -45056.91469394144, -53495.83816478708, -21808.284140620726, -28088.40907673944, -16997.898161160727, -16309.196211003808, -187500.02235174447, -187500.02235174447, -0.08, 0.84, 0.506, 192.0, 0.0, 0.0, 0.0, 0.0, 0.0, 0.0, 0.0, 0.0, 0.0, 1.7297037962114303E9, 0.0, 2024-10-23 22:46:36.211
235.0, -45147.685128174446, -53648.031192783266, -20298.736727087107, -28543.825870016324, -17039.025370958494, -16422.85483155904, -187500.02235174447, -187500.02235174447, -0.08, 0.84, 0.506, 192.0, 0.0, 0.0, 0.0, 0.0, 0.0, 0.0, 0.0, 0.0, 0.0, 1.7297037962163045E9, 0.0, 2024-10-23 22:46:36.216
236.0, -44969.675835332375, -53652.52389341878, -23591.52866500958, -29278.37124805108, -16853.081208834792, -16439.193956755873, -187500.02235174447, -187500.02235174447, -0.08, 0.84, 0.506, 192.0, 0.0, 0.0, 0.0, 0.0, 0.0, 0.0, 0.0, 0.0, 0.0, 1.7297037962203276E9, 0.0, 2024-10-23 22:46:36.220
237.0, -44782.09999586344, -53518.59224064258, -27074.355134291072, -29295.447980814934, -16709.918285598553, -16346.858900411, -187500.02235174447, -187500.02235174447, -0.08, 0.84, 0.506, 192.0, 0.0, 0.0, 0.0, 0.0, 0.0, 0.0, 0.0, 0.0, 0.0, 1.729703796225757E9, 0.0, 2024-10-23 22:46:36.225
238.0, -44808.83268223199, -53385.644064622415, -26284.556243962797, -28495.367288037218, -16775.520655574877, -16218.917515148822, -187500.02235174447, -187500.02235174447, -0.08, 0.84, 0.506, 192.0, 0.0, 0.0, 0.0, 0.0, 0.0, 0.0, 0.0, 0.0, 0.0, 1.7297037962283175E9, 0.0, 2024-10-23 22:46:36.228
239.0, -45061.65326376597, -53506.723464336814, -21825.562039084678, -28060.64821012595, -16992.712556447095, -16284.050498491586, -187500.02235174447, -187500.02235174447, -0.08, 0.84, 0.506, 192.0, 0.0, 0.0, 0.0, 0.0, 0.0, 0.0, 0.0, 0.0, 0.0, 1.7297037962333505E9, 0.0, 2024-10-23 22:46:36.233
240.0, -45148.869770630576, -53653.19444575244, -20321.848430853897, -28436.53749663085, -17027.89420221975, -16398.111450447017, -187500.02235174447, -187500.02235174447, -0.08600000000000001, 0.8320000000000001, 0.508, 192.0, 253.0, 80.0, 26.0, 0.0, 15.0, 224.0, 0.0, 0.0, 0.0, 1.729703796236342E9, 0.0, 2024-10-23 22:46:36.236
241.0, -44974.59321911255, -53665.28673950276, -23573.13317932286, -29144.081967363592, -16843.514662207923, -16424.15123273745, -187500.02235174447, -187500.02235174447, -0.08600000000000001, 0.8320000000000001, 0.508, 192.0, 0.0, 0.0, 0.0, 0.0, 0.0, 0.0, 0.0, 0.0, 0.0, 1.7297037962423303E9, 0.0, 2024-10-23 22:46:36.242
242.0, -44779.70835920672, -53529.67870589241, -27069.393047021993, -29172.423979332925, -16692.886256323607, -16337.56057471759, -187500.02235174447, -187500.02235174447, -0.08600000000000001, 0.8320000000000001, 0.508, 192.0, 0.0, 0.0, 0.0, 0.0, 0.0, 0.0, 0.0, 0.0, 0.0, 1.7297037962463183E9, 0.0, 2024-10-23 22:46:36.246
243.0, -44809.90556596584, -53403.32429448656, -26302.2588255714, -28389.33061234124, -16766.579957792754, -16226.092425118975, -187500.02235174447, -187500.02235174447, -0.08600000000000001, 0.8320000000000001, 0.508, 192.0, 0.0, 0.0, 0.0, 0.0, 0.0, 0.0, 0.0, 0.0, 0.0, 1.729703796249346E9, 0.0, 2024-10-23 22:46:36.249
244.0, -45051.907903183455, -53514.45716791835, -21844.73983582733, -27964.960392112782, -16970.763143391985, -16289.861952049967, -187500.02235174447, -187500.02235174447, -0.08600000000000001, 0.8320000000000001, 0.508, 192.0, 0.0, 0.0, 0.0, 0.0, 0.0, 0.0, 0.0, 0.0, 0.0, 1.7297037962523625E9, 0.0, 2024-10-23 22:46:36.252
245.0, -45142.4548199719, -53659.14000977755, -20304.369366689847, -28406.58615906074, -17011.711539234107, -16406.225133684293, -187500.02235174447, -187500.02235174447, -0.08600000000000001, 0.8320000000000001, 0.508, 192.0, 0.0, 0.0, 0.0, 0.0, 0.0, 0.0, 0.0, 0.0, 0.0, 1.7297037962563603E9, 0.0, 2024-10-23 22:46:36.256
246.0, -44982.48338490527, -53677.53549546427, -23524.428728154748, -29162.410397816944, -16849.884909377684, -16447.665267904435, -187500.02235174447, -187500.02235174447, -0.08600000000000001, 0.8320000000000001, 0.508, 192.0, 0.0, 0.0, 0.0, 0.0, 0.0, 0.0, 0.0, 0.0, 0.0, 1.7297037962603388E9, 0.0, 2024-10-23 22:46:36.260
247.0, -44789.36431281141, -53536.69715365138, -27051.332837502105, -29189.456008607867, -16702.810430861766, -16359.867615683988, -187500.02235174447, -187500.02235174447, -0.08600000000000001, 0.8320000000000001, 0.508, 192.0, 0.0, 0.0, 0.0, 0.0, 0.0, 0.0, 0.0, 0.0, 0.0, 1.7297037962653477E9, 0.0, 2024-10-23 22:46:36.265
248.0, -44815.69466777977, -53401.20087876331, -26323.44827931503, -28396.594929289215, -16767.474027570966, -16237.625925257913, -187500.02235174447, -187500.02235174447, -0.08600000000000001, 0.8320000000000001, 0.508, 192.0, 0.0, 0.0, 0.0, 0.0, 0.0, 0.0, 0.0, 0.0, 0.0, 1.729703796268346E9, 0.0, 2024-10-23 22:46:36.268
249.0, -45072.89619122699, -53517.92168830892, -21869.885548339553, -27971.308287538086, -16977.915701617683, -16300.210809732773, -187500.02235174447, -187500.02235174447, -0.08600000000000001, 0.8320000000000001, 0.508, 192.0, 0.0, 0.0, 0.0, 0.0, 0.0, 0.0, 0.0, 0.0, 0.0, 1.7297037962724483E9, 0.0, 2024-10-23 22:46:36.272
250.0, -45167.75699469531, -53660.592873167145, -20322.518983187554, -28419.661929567093, -17015.84661195834, -16409.91317151942, -187500.02235174447, -187500.02235174447, -0.082, 0.834, 0.5, 192.0, 253.0, 112.0, 26.0, 16.0, 15.0, 160.0, 0.0, 0.0, 0.0, 1.7297037962761836E9, 0.0, 2024-10-23 22:46:36.276
251.0, -44991.982876298774, -53666.0690505587, -23571.009763599606, -29161.426921060913, -16842.33001975179, -16437.338761966083, -187500.02235174447, -187500.02235174447, -0.082, 0.834, 0.5, 192.0, 0.0, 0.0, 0.0, 0.0, 0.0, 0.0, 0.0, 0.0, 0.0, 1.7297037962803583E9, 0.0, 2024-10-23 22:46:36.280
252.0, -44800.80840597253, -53534.909014094956, -27095.61164326807, -29192.45114236488, -16689.287625466302, -16354.57025224808, -187500.02235174447, -187500.02235174447, -0.082, 0.834, 0.5, 192.0, 0.0, 0.0, 0.0, 0.0, 0.0, 0.0, 0.0, 0.0, 0.0, 1.729703796284395E9, 0.0, 2024-10-23 22:46:36.284
253.0, -44831.69851680977, -53410.47685271226, -26378.142997997165, -28418.76785978888, -16758.712143744488, -16244.912593950343, -187500.02235174447, -187500.02235174447, -0.082, 0.834, 0.5, 192.0, 0.0, 0.0, 0.0, 0.0, 0.0, 0.0, 0.0, 0.0, 0.0, 1.7297037962893689E9, 0.0, 2024-10-23 22:46:36.289
254.0, -45076.5395255732, -53518.324019709115, -21935.53262180479, -27983.065305121578, -16976.619300439277, -16307.586885403025, -187500.02235174447, -187500.02235174447, -0.082, 0.834, 0.5, 192.0, 0.0, 0.0, 0.0, 0.0, 0.0, 0.0, 0.0, 0.0, 0.0, 1.7297037962924082E9, 0.0, 2024-10-23 22:46:36.292
255.0, -45163.57721848217, -53659.92232083349, -20354.303163803, -28414.699842298014, -17024.474385318088, -16422.653665858947, -187500.02235174447, -187500.02235174447, -0.082, 0.834, 0.5, 192.0, 0.0, 0.0, 0.0, 0.0, 0.0, 0.0, 0.0, 0.0, 0.0, 1.7297037962953975E9, 0.0, 2024-10-23 22:46:36.295
0.0, -45003.650486904444, -53683.65987344502, -23537.146870749817, -29172.938069455395, -16871.253177076956, -16467.893596636488, -187500.02235174447, -187500.02235174447, -0.082, 0.834, 0.5, 192.0, 0.0, 0.0, 0.0, 0.0, 0.0, 0.0, 0.0, 0.0, 0.0, 1.729703796300425E9, 0.0, 2024-10-23 22:46:36.300
1.0, -44809.950269454755, -53548.677688679425, -27073.751637190777, -29218.088593255117, -16714.679207167534, -16386.086211930062, -187500.02235174447, -187500.02235174447, -0.082, 0.834, 0.5, 192.0, 0.0, 0.0, 0.0, 0.0, 0.0, 0.0, 0.0, 0.0, 0.0, 1.729703796304453E9, 0.0, 2024-10-23 22:46:36.304
2.0, -44829.26217666414, -53411.75090214621, -26424.545219486383, -28431.843630295236, -16771.631452039655, -16265.275033149128, -187500.02235174447, -187500.02235174447, -0.082, 0.834, 0.5, 192.0, 0.0, 0.0, 0.0, 0.0, 0.0, 0.0, 0.0, 0.0, 0.0, 1.7297037963084028E9, 0.0, 2024-10-23 22:46:36.308
3.0, -45084.58615357711, -53529.4328367034, -21939.175956151004, -27993.905901182403, -16991.930245391162, -16335.146586316418, -187500.02235174447, -187500.02235174447, -0.082, 0.834, 0.5, 192.0, 0.0, 0.0, 0.0, 0.0, 0.0, 0.0, 0.0, 0.0, 0.0, 1.7297037963124669E9, 0.0, 2024-10-23 22:46:36.312
4.0, -45170.12627960757, -53667.588969181656, -20332.800785637, -28426.52391511487, -17028.497699320043, -16445.20657601435, -187500.02235174447, -187500.02235174447, -0.078, 0.84, 0.494, 192.0, 253.0, 144.0, 26.0, 64.0, 15.0, 112.0, 0.0, 0.0, 0.0, 1.7297037963164573E9, 0.0, 2024-10-23 22:46:36.316
5.0, -45007.2714695062, -53684.19631531195, -23509.07307971395, -29173.899194466972, -16864.838226418284, -16478.756544441767, -187500.02235174447, -187500.02235174447, -0.078, 0.84, 0.494, 192.0, 0.0, 0.0, 0.0, 0.0, 0.0, 0.0, 0.0, 0.0, 0.0, 1.7297037963204544E9, 0.0, 2024-10-23 22:46:36.320
6.0, -44812.386609600384, -53544.92259561093, -27068.610735966056, -29213.886465297517, -16721.56354445977, -16390.44480209885, -187500.02235174447, -187500.02235174447, -0.078, 0.84, 0.494, 192.0, 0.0, 0.0, 0.0, 0.0, 0.0, 0.0, 0.0, 0.0, 0.0, 1.7297037963234336E9, 0.0, 2024-10-23 22:46:36.323
7.0, -44831.8326272765, -53411.28151551265, -26453.155452389175, -28432.1118512287, -16790.00458598192, -16271.198245429785, -187500.02235174447, -187500.02235174447, -0.078, 0.84, 0.494, 192.0, 0.0, 0.0, 0.0, 0.0, 0.0, 0.0, 0.0, 0.0, 0.0, 1.7297037963284028E9, 0.0, 2024-10-23 22:46:36.328
8.0, -45085.07789195513, -53528.11408378054, -21967.897947776073, -27989.97199415827, -17016.3159985919, -16344.04258060963, -187500.02235174447, -187500.02235174447, -0.078, 0.84, 0.494, 192.0, 0.0, 0.0, 0.0, 0.0, 0.0, 0.0, 0.0, 0.0, 0.0, 1.729703796332464E9, 0.0, 2024-10-23 22:46:36.332
9.0, -45168.785174940254, -53661.71046038991, -20322.630741909834, -28409.983624217944, -17033.392731355754, -16447.866433604533, -187500.02235174447, -187500.02235174447, -0.078, 0.84, 0.494, 192.0, 0.0, 0.0, 0.0, 0.0, 0.0, 0.0, 0.0, 0.0, 0.0, 1.7297037963364997E9, 0.0, 2024-10-23 22:46:36.336
10.0, -44998.30841997963, -53675.79205939676, -23484.79908523549, -29157.5824210146, -16844.744008152964, -16475.224968817827, -187500.02235174447, -187500.02235174447, -0.078, 0.84, 0.494, 192.0, 0.0, 0.0, 0.0, 0.0, 0.0, 0.0, 0.0, 0.0, 0.0, 1.7297037963404438E9, 0.0, 2024-10-23 22:46:36.340
11.0, -44800.18255712778, -53536.27247050673, -27060.608811451057, -29198.240244178804, -16696.93192207002, -16386.980281708275, -187500.02235174447, -187500.02235174447, -0.078, 0.84, 0.494, 192.0, 0.0, 0.0, 0.0, 0.0, 0.0, 0.0, 0.0, 0.0, 0.0, 1.7297037963444493E9, 0.0, 2024-10-23 22:46:36.344
12.0, -44812.878347978396, -53394.450651937805, -26476.982411978533, -28420.444240623026, -16753.54889077531, -16261.721105780734, -187500.02235174447, -187500.02235174447, -0.078, 0.84, 0.494, 192.0, 0.0, 0.0, 0.0, 0.0, 0.0, 0.0, 0.0, 0.0, 0.0, 1.7297037963484876E9, 0.0, 2024-10-23 22:46:36.348
13.0, -45060.848600965575, -53503.32599917961, -22012.288512264313, -27967.44143574732, -16973.98179459355, -16325.110653055985, -187500.02235174447, -187500.02235174447, -0.078, 0.84, 0.494, 192.0, 0.0, 0.0, 0.0, 0.0, 0.0, 0.0, 0.0, 0.0, 0.0, 1.7297037963514905E9, 0.0, 2024-10-23 22:46:36.351
14.0, -45163.3089975487, -53654.49084693085, -20331.951419347693, -28398.80775199029, -17031.71635052161, -16446.212404514838, -187500.02235174447, -187500.02235174447, -0.082, 0.848, 0.492, 192.0, 253.0, 112.0, 26.0, 128.0, 15.0, 96.0, 0.0, 0.0, 0.0, 1.7297037963554864E9, 0.0, 2024-10-23 22:46:36.355
15.0, -44992.5193181657, -53661.97868132337, -23498.99244296461, -29143.567877241123, -16852.29889777886, -16466.105457080062, -187500.02235174447, -187500.02235174447, -0.082, 0.848, 0.492, 192.0, 0.0, 0.0, 0.0, 0.0, 0.0, 0.0, 0.0, 0.0, 0.0, 1.729703796360477E9, 0.0, 2024-10-23 22:46:36.360
16.0, -44802.21656587322, -53525.56598491264, -27061.838157396098, -29184.315107383147, -16698.72006162644, -16372.473999556782, -187500.02235174447, -187500.02235174447, -0.082, 0.848, 0.492, 192.0, 0.0, 0.0, 0.0, 0.0, 0.0, 0.0, 0.0, 0.0, 0.0, 1.729703796364539E9, 0.0, 2024-10-23 22:46:36.364
17.0, -44828.479865608206, -53394.160079259884, -26476.647135811705, -28417.04677546582, -16763.45071356901, -16251.305192864562, -187500.02235174447, -187500.02235174447, -0.082, 0.848, 0.492, 192.0, 0.0, 0.0, 0.0, 0.0, 0.0, 0.0, 0.0, 0.0, 0.0, 1.7297037963685436E9, 0.0, 2024-10-23 22:46:36.368
18.0, -45085.56963033314, -53510.34444693857, -21981.510160149355, -27969.00605785919, -16983.54834122042, -16316.527583185147, -187500.02235174447, -187500.02235174447, -0.082, 0.848, 0.492, 192.0, 0.0, 0.0, 0.0, 0.0, 0.0, 0.0, 0.0, 0.0, 0.0, 1.7297037963724911E9, 0.0, 2024-10-23 22:46:36.372
19.0, -45180.117509379095, -53654.0661637862, -20299.5413898875, -28396.34906010021, -17028.162423153215, -16428.912154306432, -187500.02235174447, -187500.02235174447, -0.082, 0.848, 0.492, 192.0, 0.0, 0.0, 0.0, 0.0, 0.0, 0.0, 0.0, 0.0, 0.0, 1.7297037963765414E9, 0.0, 2024-10-23 22:46:36.376
20.0, -45017.217995788815, -53675.076803574186, -23435.26761952253, -29153.76027271274, -16852.321249523313, -16465.25609079076, -187500.02235174447, -187500.02235174447, -0.082, 0.848, 0.492, 192.0, 0.0, 0.0, 0.0, 0.0, 0.0, 0.0, 0.0, 0.0, 0.0, 1.7297037963795464E9, 0.0, 2024-10-23 22:46:36.379
21.0, -44822.243728905174, -53541.27926126472, -27022.49908715476, -29212.5453606302, -16707.683111153023, -16388.90253173143, -187500.02235174447, -187500.02235174447, -0.082, 0.848, 0.492, 192.0, 0.0, 0.0, 0.0, 0.0, 0.0, 0.0, 0.0, 0.0, 0.0, 1.7297037963835328E9, 0.0, 2024-10-23 22:46:36.383
22.0, -44832.70434531025, -53397.55754441709, -26486.99599349451, -28438.549153631826, -16764.210672880494, -16266.392620371893, -187500.02235174447, -187500.02235174447, -0.082, 0.848, 0.492, 192.0, 0.0, 0.0, 0.0, 0.0, 0.0, 0.0, 0.0, 0.0, 0.0, 1.729703796388513E9, 0.0, 2024-10-23 22:46:36.388
23.0, -45077.701816284876, -53502.56603986813, -22006.007672072374, -27986.932156912346, -16971.4560474701, -16324.998894333708, -187500.02235174447, -187500.02235174447, -0.082, 0.848, 0.492, 192.0, 0.0, 0.0, 0.0, 0.0, 0.0, 0.0, 0.0, 0.0, 0.0, 1.7297037963926532E9, 0.0, 2024-10-23 22:46:36.392
24.0, -45177.68116923347, -53652.03215504076, -20277.25670066556, -28463.35958997722, -17014.125527635282, -16432.644895630467, -187500.02235174447, -187500.02235174447, -0.08, 0.846, 0.488, 192.0, 253.0, 128.0, 26.0, 112.0, 15.0, 64.0, 0.0, 0.0, 0.0, 1.729703796396561E9, 0.0, 2024-10-23 22:46:36.396
25.0, -45011.25008001925, -53672.28283551727, -23400.91298829472, -29247.68230291394, -16842.464130218523, -16462.506826222758, -187500.02235174447, -187500.02235174447, -0.08, 0.846, 0.488, 192.0, 0.0, 0.0, 0.0, 0.0, 0.0, 0.0, 0.0, 0.0, 0.0, 1.7297037964025505E9, 0.0, 2024-10-23 22:46:36.402
26.0, -44804.51879555211, -53532.673839649426, -27031.283322725692, -29305.126286164083, -16684.325538197227, -16370.57410127808, -187500.02235174447, -187500.02235174447, -0.08, 0.846, 0.488, 192.0, 0.0, 0.0, 0.0, 0.0, 0.0, 0.0, 0.0, 0.0, 0.0, 1.7297037964055967E9, 0.0, 2024-10-23 22:46:36.405
27.0, -44811.470188077714, -53388.505087912694, -26548.64210470225, -28525.36332909624, -16720.960047359473, -16234.541384523081, -187500.02235174447, -187500.02235174447, -0.08, 0.846, 0.488, 192.0, 0.0, 0.0, 0.0, 0.0, 0.0, 0.0, 0.0, 0.0, 0.0, 1.72970379640855E9, 0.0, 2024-10-23 22:46:36.408
28.0, -45067.95645570236, -53504.08595849109, -22046.97841965895, -28059.195346736356, -16944.075160512348, -16302.110708011474, -187500.02235174447, -187500.02235174447, -0.08, 0.846, 0.488, 192.0, 0.0, 0.0, 0.0, 0.0, 0.0, 0.0, 0.0, 0.0, 0.0, 1.729703796412563E9, 0.0, 2024-10-23 22:46:36.412
29.0, -45166.77351793928, -53650.244015484335, -20287.896131026286, -28481.64331694166, -17000.066280372892, -16416.886915789477, -187500.02235174447, -187500.02235174447, -0.08, 0.846, 0.488, 192.0, 0.0, 0.0, 0.0, 0.0, 0.0, 0.0, 0.0, 0.0, 0.0, 1.7297037964165745E9, 0.0, 2024-10-23 22:46:36.416
30.0, -45004.924536338396, -53667.946597092945, -23370.313450135407, -29246.07297731316, -16839.938383095072, -16457.053000575663, -187500.02235174447, -187500.02235174447, -0.08, 0.846, 0.488, 192.0, 0.0, 0.0, 0.0, 0.0, 0.0, 0.0, 0.0, 0.0, 0.0, 1.729703796420613E9, 0.0, 2024-10-23 22:46:36.420
31.0, -44802.10480715094, -53525.58833665709, -27020.666244109423, -29310.647167044543, -16681.173942229027, -16370.037659411153, -187500.02235174447, -187500.02235174447, -0.08, 0.846, 0.488, 192.0, 0.0, 0.0, 0.0, 0.0, 0.0, 0.0, 0.0, 0.0, 0.0, 1.7297037964248264E9, 0.0, 2024-10-23 22:46:36.424
32.0, -44812.36425785592, -53381.66545410937, -26593.524407568504, -28544.608181072257, -16736.56156498928, -16246.343105595482, -187500.02235174447, -187500.02235174447, -0.08, 0.846, 0.488, 192.0, 0.0, 0.0, 0.0, 0.0, 0.0, 0.0, 0.0, 0.0, 0.0, 1.7297037964286005E9, 0.0, 2024-10-23 22:46:36.428
33.0, -45070.59396154809, -53493.87121127501, -22063.161082644594, -28068.739541618772, -16966.672774156665, -16318.315722741572, -187500.02235174447, -187500.02235174447, -0.08, 0.846, 0.488, 192.0, 0.0, 0.0, 0.0, 0.0, 0.0, 0.0, 0.0, 0.0, 0.0, 1.72970379643264E9, 0.0, 2024-10-23 22:46:36.432
34.0, -45168.584009240156, -53636.45298915541, -20221.422043016202, -28483.274994286898, -17008.89521943274, -16430.812052585134, -187500.02235174447, -187500.02235174447, -0.078, 0.848, 0.486, 192.0, 253.0, 144.0, 26.0, 128.0, 15.0, 48.0, 0.0, 0.0, 0.0, 1.7297037964356267E9, 0.0, 2024-10-23 22:46:36.435
35.0, -44998.95662056883, -53648.47822767237, -23334.57301075137, -29256.06420708468, -16846.979182598494, -16464.429076245913, -187500.02235174447, -187500.02235174447, -0.078, 0.848, 0.486, 192.0, 0.0, 0.0, 0.0, 0.0, 0.0, 0.0, 0.0, 0.0, 0.0, 1.7297037964396143E9, 0.0, 2024-10-23 22:46:36.439
36.0, -44798.416769315816, -53511.21616497233, -27116.666986544966, -29326.18162944098, -16699.25650349337, -16376.474961814281, -187500.02235174447, -187500.02235174447, -0.078, 0.848, 0.486, 192.0, 0.0, 0.0, 0.0, 0.0, 0.0, 0.0, 0.0, 0.0, 0.0, 1.7297037964449167E9, 0.0, 2024-10-23 22:46:36.444
37.0, -44811.02315318861, -53370.2437126927, -26750.120729222388, -28545.56930608384, -16745.301097071304, -16249.807625986055, -187500.02235174447, -187500.02235174447, -0.078, 0.848, 0.486, 192.0, 0.0, 0.0, 0.0, 0.0, 0.0, 0.0, 0.0, 0.0, 0.0, 1.729703796448603E9, 0.0, 2024-10-23 22:46:36.448
38.0, -45068.40349059147, -53478.60496981203, -21934.81736598222, -28006.869912966482, -16972.5065794595, -16313.46539419477, -187500.02235174447, -187500.02235174447, -0.078, 0.848, 0.486, 192.0, 0.0, 0.0, 0.0, 0.0, 0.0, 0.0, 0.0, 0.0, 0.0, 1.7297037964526367E9, 0.0, 2024-10-23 22:46:36.452
39.0, -45215.18739642947, -53618.5045383578, -17827.036121730343, -28093.639384941984, -17109.656883437263, -16429.761520595734, -187500.02235174447, -187500.02235174447, -0.078, 0.848, 0.486, 192.0, 0.0, 0.0, 0.0, 0.0, 0.0, 0.0, 0.0, 0.0, 0.0, 1.7297037964566703E9, 0.0, 2024-10-23 22:46:36.456
40.0, -45194.13205315257, -53838.7586282204, -17536.08346415561, -29192.361735387058, -17047.60844082933, -16635.643438773568, -187500.02235174447, -187500.02235174447, -0.078, 0.848, 0.486, 192.0, 0.0, 0.0, 0.0, 0.0, 0.0, 0.0, 0.0, 0.0, 0.0, 1.7297037964606571E9, 0.0, 2024-10-23 22:46:36.460
41.0, -44771.86289690291, -53693.33817879417, -29322.538295094764, -30655.104596031262, -16544.403617907003, -16506.338597099613, -187500.02235174447, -187500.02235174447, -0.078, 0.848, 0.486, 192.0, 0.0, 0.0, 0.0, 0.0, 0.0, 0.0, 0.0, 0.0, 0.0, 1.7297037964646504E9, 0.0, 2024-10-23 22:46:36.464
42.0, -44393.44786327456, -53064.69536598866, -40017.06570590326, -29249.023407581262, -16263.106913936963, -15947.813206650402, -187500.02235174447, -187500.02235174447, -0.078, 0.848, 0.486, 192.0, 0.0, 0.0, 0.0, 0.0, 0.0, 0.0, 0.0, 0.0, 0.0, 1.7297037964702728E9, 0.0, 2024-10-23 22:46:36.470
43.0, -44801.5236617951, -53027.34560100384, -30045.930152646324, -26647.772091361534, -16821.364083452714, -15912.788023088935, -187500.02235174447, -187500.02235174447, -0.078, 0.848, 0.486, 192.0, 0.0, 0.0, 0.0, 0.0, 0.0, 0.0, 0.0, 0.0, 0.0, 1.72970379647367E9, 0.0, 2024-10-23 22:46:36.473
44.0, -45469.50554484195, -53697.98734164087, -13492.496429979377, -26796.411191989326, -17486.641405420472, -16522.051873451695, -187500.02235174447, -187500.02235174447, -0.07200000000000001, 0.848, 0.488, 192.0, 253.0, 192.0, 26.0, 128.0, 15.0, 64.0, 0.0, 0.0, 0.0, 1.729703796477672E9, 0.0, 2024-10-23 22:46:36.477
45.0, -45464.789326761886, -54155.57225412992, -11908.87533532087, -29482.68854411704, -17319.495060383684, -16934.48626214102, -187500.02235174447, -187500.02235174447, -0.07200000000000001, 0.848, 0.488, 192.0, 0.0, 0.0, 0.0, 0.0, 0.0, 0.0, 0.0, 0.0, 0.0, 1.7297037964817157E9, 0.0, 2024-10-23 22:46:36.481
46.0, -44817.125179424904, -53769.669386109046, -26996.369897886503, -30894.91646229225, -16589.822362640185, -16592.683385930468, -187500.02235174447, -187500.02235174447, -0.07200000000000001, 0.848, 0.488, 192.0, 0.0, 0.0, 0.0, 0.0, 0.0, 0.0, 0.0, 0.0, 0.0, 1.7297037964857128E9, 0.0, 2024-10-23 22:46:36.485
47.0, -44395.236002830985, -53075.29009286047, -38578.17215659287, -29234.897105085507, -16280.608329845469, -15969.11441911631, -187500.02235174447, -187500.02235174447, -0.07200000000000001, 0.848, 0.488, 192.0, 0.0, 0.0, 0.0, 0.0, 0.0, 0.0, 0.0, 0.0, 0.0, 1.72970379649077E9, 0.0, 2024-10-23 22:46:36.490
48.0, -44791.37596981239, -53034.92284237419, -28990.7937038891, -26623.207524205154, -16818.167783995603, -15918.107738269298, -187500.02235174447, -187500.02235174447, -0.07200000000000001, 0.848, 0.488, 192.0, 0.0, 0.0, 0.0, 0.0, 0.0, 0.0, 0.0, 0.0, 0.0, 1.7297037964947903E9, 0.0, 2024-10-23 22:46:36.494
49.0, -45440.98471891698, -53693.04760611625, -13076.284596477104, -26848.22253563673, -17450.58804161406, -16506.94209419991, -187500.02235174447, -187500.02235174447, -0.07200000000000001, 0.848, 0.488, 192.0, 0.0, 0.0, 0.0, 0.0, 0.0, 0.0, 0.0, 0.0, 0.0, 1.7297037964978063E9, 0.0, 2024-10-23 22:46:36.497
50.0, -45430.56880600081, -54140.08249522239, -12062.744744151205, -29513.355137509723, -17275.931510440292, -16903.596151303787, -187500.02235174447, -187500.02235174447, -0.07200000000000001, 0.848, 0.488, 192.0, 0.0, 0.0, 0.0, 0.0, 0.0, 0.0, 0.0, 0.0, 0.0, 1.7297037965017135E9, 0.0, 2024-10-23 22:46:36.501
51.0, -44787.01737964361, -53747.94349049849, -27128.289893661728, -30852.448147827166, -16558.485216913847, -16551.779693577253, -187500.02235174447, -187500.02235174447, -0.07200000000000001, 0.848, 0.488, 192.0, 0.0, 0.0, 0.0, 0.0, 0.0, 0.0, 0.0, 0.0, 0.0, 1.729703796504724E9, 0.0, 2024-10-23 22:46:36.504
52.0, -44389.3798457837, -53070.842095713866, -38319.987156389616, -29180.224738147826, -16274.729821053723, -15947.008543850012, -187500.02235174447, -187500.02235174447, -0.07200000000000001, 0.848, 0.488, 192.0, 0.0, 0.0, 0.0, 0.0, 0.0, 0.0, 0.0, 0.0, 0.0, 1.72970379650874E9, 0.0, 2024-10-23 22:46:36.508
53.0, -44799.28848734957, -53046.07636285739, -28631.511763514492, -26632.036463264998, -16825.70032187704, -15918.979456303055, -187500.02235174447, -187500.02235174447, -0.07200000000000001, 0.848, 0.488, 192.0, 0.0, 0.0, 0.0, 0.0, 0.0, 0.0, 0.0, 0.0, 0.0, 1.7297037965157342E9, 0.0, 2024-10-23 22:46:36.515
54.0, -45438.771896215905, -53696.802699184744, -12987.414060522802, -26882.71127733127, -17439.658038575417, -16503.678739509432, -187500.02235174447, -187500.02235174447, -0.07, 0.85, 0.496, 192.0, 253.0, 208.0, 26.0, 144.0, 15.0, 128.0, 0.0, 0.0, 0.0, 1.7297037965198689E9, 0.0, 2024-10-23 22:46:36.519
55.0, -45424.35502104223, -54131.6782393072, -12112.902058708914, -29516.037346844358, -17253.89269040736, -16891.079174408816, -187500.02235174447, -187500.02235174447, -0.07, 0.85, 0.496, 192.0, 0.0, 0.0, 0.0, 0.0, 0.0, 0.0, 0.0, 0.0, 0.0, 1.729703796522833E9, 0.0, 2024-10-23 22:46:36.522
56.0, -44793.47703379119, -53750.558644599754, -27110.140277164017, -30854.236287383592, -16542.88369928404, -16552.763170333288, -187500.02235174447, -187500.02235174447, -0.07, 0.85, 0.496, 192.0, 0.0, 0.0, 0.0, 0.0, 0.0, 0.0, 0.0, 0.0, 0.0, 1.7297037965278642E9, 0.0, 2024-10-23 22:46:36.527
57.0, -44393.78313944139, -53076.94412195017, -38506.31129816906, -29221.240189223314, -16260.201187157774, -15953.356439275318, -187500.02235174447, -187500.02235174447, -0.07, 0.85, 0.496, 192.0, 0.0, 0.0, 0.0, 0.0, 0.0, 0.0, 0.0, 0.0, 0.0, 1.7297037965328004E9, 0.0, 2024-10-23 22:46:36.532
58.0, -44780.2671528181, -53021.04240906744, -29038.112346900984, -26626.962617273646, -16788.350556892223, -15899.24286594902, -187500.02235174447, -187500.02235174447, -0.07, 0.85, 0.496, 192.0, 0.0, 0.0, 0.0, 0.0, 0.0, 0.0, 0.0, 0.0, 0.0, 1.7297037965357835E9, 0.0, 2024-10-23 22:46:36.535
59.0, -45435.88852118117, -53678.18369605347, -13083.68302389181, -26811.655081707846, -17427.252820402722, -16485.059736378164, -187500.02235174447, -187500.02235174447, -0.07, 0.85, 0.496, 192.0, 0.0, 0.0, 0.0, 0.0, 0.0, 0.0, 0.0, 0.0, 0.0, 1.7297037965388763E9, 0.0, 2024-10-23 22:46:36.538
60.0, -45432.73692521297, -54132.9299369967, -11679.032347086948, -29452.714854802474, -17266.096742879956, -16888.531075540912, -187500.02235174447, -187500.02235174447, -0.07, 0.85, 0.496, 192.0, 0.0, 0.0, 0.0, 0.0, 0.0, 0.0, 0.0, 0.0, 0.0, 1.7297037965428307E9, 0.0, 2024-10-23 22:46:36.542
61.0, -44806.39634208636, -53770.80932507626, -26712.972129937665, -30873.34702889288, -16558.820493080675, -16563.357897205104, -187500.02235174447, -187500.02235174447, -0.07, 0.85, 0.496, 192.0, 0.0, 0.0, 0.0, 0.0, 0.0, 0.0, 0.0, 0.0, 0.0, 1.7297037965459356E9, 0.0, 2024-10-23 22:46:36.545
62.0, -44399.52753776641, -53095.4290146147, -38772.14059497602, -29303.78518149676, -16253.719181265735, -15958.787913177957, -187500.02235174447, -187500.02235174447, -0.07, 0.85, 0.496, 192.0, 0.0, 0.0, 0.0, 0.0, 0.0, 0.0, 0.0, 0.0, 0.0, 1.7297037965487723E9, 0.0, 2024-10-23 22:46:36.548
63.0, -44766.54318172255, -53012.99578106353, -29633.808688379373, -26632.79642257648, -16774.112495674195, -15880.892083751212, -187500.02235174447, -187500.02235174447, -0.07, 0.85, 0.496, 192.0, 0.0, 0.0, 0.0, 0.0, 0.0, 0.0, 0.0, 0.0, 0.0, 1.7297037965538225E9, 0.0, 2024-10-23 22:46:36.553
64.0, -45424.48913150896, -53663.1633237795, -13308.58627660111, -26741.560011096004, -17433.868936761493, -16467.848893147577, -187500.02235174447, -187500.02235174447, -0.08, 0.848, 0.506, 192.0, 253.0, 128.0, 26.0, 128.0, 15.0, 208.0, 0.0, 0.0, 0.0, 1.729703796556924E9, 0.0, 2024-10-23 22:46:36.556
65.0, -45455.558056301845, -54155.058164007445, -11378.714308585442, -29420.885970698117, -17316.052891737567, -16910.81576476285, -187500.02235174447, -187500.02235174447, -0.08, 0.848, 0.506, 192.0, 0.0, 0.0, 0.0, 0.0, 0.0, 0.0, 0.0, 0.0, 0.0, 1.7297037965618887E9, 0.0, 2024-10-23 22:46:36.561
66.0, -44826.87054000742, -53798.63724692312, -26416.56564671584, -30909.445096188203, -16609.447194271947, -16598.09250808865, -187500.02235174447, -187500.02235174447, -0.08, 0.848, 0.506, 192.0, 0.0, 0.0, 0.0, 0.0, 0.0, 0.0, 0.0, 0.0, 0.0, 1.729703796564936E9, 0.0, 2024-10-23 22:46:36.564
67.0, -44406.32246808082, -53114.1374247238, -38658.14669825396, -29350.254458219348, -16286.017452003653, -15991.01912868251, -187500.02235174447, -187500.02235174447, -0.08, 0.848, 0.506, 192.0, 0.0, 0.0, 0.0, 0.0, 0.0, 0.0, 0.0, 0.0, 0.0, 1.729703796569949E9, 0.0, 2024-10-23 22:46:36.569
68.0, -44746.113687290395, -53002.73633035855, -29677.618107511775, -26646.09571052739, -16772.346707862223, -15886.703537309593, -187500.02235174447, -187500.02235174447, -0.08, 0.848, 0.506, 192.0, 0.0, 0.0, 0.0, 0.0, 0.0, 0.0, 0.0, 0.0, 0.0, 1.7297037965738287E9, 0.0, 2024-10-23 22:46:36.573
69.0, -45403.523195209884, -53652.278024229774, -13464.489694176877, -26746.34328440944, -17422.223677900278, -16466.172512313427, -187500.02235174447, -187500.02235174447, -0.08, 0.848, 0.506, 192.0, 0.0, 0.0, 0.0, 0.0, 0.0, 0.0, 0.0, 0.0, 0.0, 1.7297037965818727E9, 0.0, 2024-10-23 22:46:36.581
70.0, -45441.61056776173, -54145.04458249147, -11618.302657401879, -29423.858752710672, -17300.09374619648, -16907.463003094555, -187500.02235174447, -187500.02235174447, -0.08, 0.848, 0.506, 192.0, 0.0, 0.0, 0.0, 0.0, 0.0, 0.0, 0.0, 0.0, 0.0, 1.7297037965969443E9, 0.0, 2024-10-23 22:46:36.596
71.0, -44824.09892369496, -53792.60227592019, -26549.580877969373, -30886.400447654778, -16601.869952901598, -16597.24314179935, -187500.02235174447, -187500.02235174447, -0.08, 0.848, 0.506, 192.0, 0.0, 0.0, 0.0, 0.0, 0.0, 0.0, 0.0, 0.0, 0.0, 1.7297037966001031E9, 0.0, 2024-10-23 22:46:36.600
72.0, -44410.971630927525, -53112.863375289846, -38443.81582067202, -29308.054364687727, -16291.292463695107, -15988.336919347874, -187500.02235174447, -187500.02235174447, -0.08, 0.848, 0.506, 192.0, 0.0, 0.0, 0.0, 0.0, 0.0, 0.0, 0.0, 0.0, 0.0, 1.7297037966039789E9, 0.0, 2024-10-23 22:46:36.603
73.0, -44762.20694329822, -53014.73921713105, -29338.586847613675, -26646.833318094414, -16785.780106279864, -15885.854171020292, -187500.02235174447, -187500.02235174447, -0.08, 0.848, 0.506, 192.0, 0.0, 0.0, 0.0, 0.0, 0.0, 0.0, 0.0, 0.0, 0.0, 1.7297037966079445E9, 0.0, 2024-10-23 22:46:36.607
74.0, -45409.22289004599, -53652.45683818541, -13438.025228741793, -26776.62989814638, -17420.122613921478, -16453.029686573707, -187500.02235174447, -187500.02235174447, -0.082, 0.84, 0.506, 192.0, 253.0, 112.0, 26.0, 64.0, 15.0, 208.0, 0.0, 0.0, 0.0, 1.7297037966110723E9, 0.0, 2024-10-23 22:46:36.611
75.0, -45432.73692521297, -54125.01741945952, -11904.226172474167, -29412.191142105003, -17280.04423142007, -16875.656470734655, -187500.02235174447, -187500.02235174447, -0.082, 0.84, 0.506, 192.0, 0.0, 0.0, 0.0, 0.0, 0.0, 0.0, 0.0, 0.0, 0.0, 1.7297037966138976E9, 0.0, 2024-10-23 22:46:36.613
76.0, -44829.239824919685, -53779.526505413836, -26727.67957778926, -30833.91855167372, -16585.642586427046, -16568.498798429824, -187500.02235174447, -187500.02235174447, -0.082, 0.84, 0.506, 192.0, 0.0, 0.0, 0.0, 0.0, 0.0, 0.0, 0.0, 0.0, 0.0, 1.7297037966180072E9, 0.0, 2024-10-23 22:46:36.618
77.0, -44434.91034923916, -53123.65926786176, -38407.13660802086, -29285.300288832223, -16299.406146932382, -15983.598349523349, -187500.02235174447, -187500.02235174447, -0.082, 0.84, 0.506, 192.0, 0.0, 0.0, 0.0, 0.0, 0.0, 0.0, 0.0, 0.0, 0.0, 1.7297037966208854E9, 0.0, 2024-10-23 22:46:36.620
78.0, -44779.4177865288, -53025.333944002865, -29290.262376101302, -26648.397940206283, -16786.02597546887, -15886.301205909396, -187500.02235174447, -187500.02235174447, -0.082, 0.84, 0.506, 192.0, 0.0, 0.0, 0.0, 0.0, 0.0, 0.0, 0.0, 0.0, 0.0, 1.7297037966250126E9, 0.0, 2024-10-23 22:46:36.625
79.0, -45419.39293377315, -53656.815428354195, -13416.902830231527, -26779.088590036463, -17408.410299826897, -16454.147273796472, -187500.02235174447, -187500.02235174447, -0.082, 0.84, 0.506, 192.0, 0.0, 0.0, 0.0, 0.0, 0.0, 0.0, 0.0, 0.0, 0.0, 1.7297037966282198E9, 0.0, 2024-10-23 22:46:36.628
80.0, -45436.46966653701, -54125.777378770996, -11825.369218035845, -29404.368031545644, -17267.996641158657, -16875.254139334458, -187500.02235174447, -187500.02235174447, -0.082, 0.84, 0.506, 192.0, 0.0, 0.0, 0.0, 0.0, 0.0, 0.0, 0.0, 0.0, 0.0, 1.7297037966309538E9, 0.0, 2024-10-23 22:46:36.630
81.0, -44833.50900811065, -53787.68489214002, -26637.490288912093, -30838.38890056478, -16589.24121728435, -16577.104220045116, -187500.02235174447, -187500.02235174447, -0.082, 0.84, 0.506, 192.0, 0.0, 0.0, 0.0, 0.0, 0.0, 0.0, 0.0, 0.0, 0.0, 1.729703796634956E9, 0.0, 2024-10-23 22:46:36.634
82.0, -44437.65961380716, -53130.834177831915, -38458.4785650347, -29304.746306508343, -16305.686987124323, -15993.611931039326, -187500.02235174447, -187500.02235174447, -0.082, 0.84, 0.506, 192.0, 0.0, 0.0, 0.0, 0.0, 0.0, 0.0, 0.0, 0.0, 0.0, 1.7297037966379352E9, 0.0, 2024-10-23 22:46:36.637
83.0, -44768.80070791253, -53016.34854273183, -29419.29899684179, -26642.094748269887, -16779.812190510296, -15880.579159328838, -187500.02235174447, -187500.02235174447, -0.082, 0.84, 0.506, 192.0, 0.0, 0.0, 0.0, 0.0, 0.0, 0.0, 0.0, 0.0, 0.0, 1.72970379664096E9, 0.0, 2024-10-23 22:46:36.640
84.0, -45411.63687844716, -53650.400477695526, -13488.048432832771, -26754.00993275761, -17407.717395748783, -16447.285288248695, -187500.02235174447, -187500.02235174447, -0.082, 0.84, 0.506, 192.0, 0.0, 0.0, 0.0, 0.0, 0.0, 0.0, 0.0, 0.0, 0.0, 1.729703796644981E9, 0.0, 2024-10-23 22:46:36.644
85.0, -45441.074125894804, -54130.8288730179, -11781.85037158136, -29387.00072610387, -17278.926644197305, -16876.86346493524, -187500.02235174447, -187500.02235174447, -0.08, 0.838, 0.504, 192.0, 253.0, 128.0, 26.0, 48.0, 15.0, 192.0, 0.0, 0.0, 0.0, 1.7297037966479175E9, 0.0, 2024-10-23 22:46:36.647
86.0, -44830.08919120899, -53784.823868849744, -26588.092933665866, -30834.410290051736, -16593.95743536442, -16569.83990309714, -187500.02235174447, -187500.02235174447, -0.08, 0.838, 0.504, 192.0, 0.0, 0.0, 0.0, 0.0, 0.0, 0.0, 0.0, 0.0, 0.0, 1.7297037966509643E9, 0.0, 2024-10-23 22:46:36.650
87.0, -44434.15038992767, -53129.31425920895, -38485.21125140325, -29312.077678689682, -16302.177763244841, -15984.581826279382, -187500.02235174447, -187500.02235174447, -0.08, 0.838, 0.504, 192.0, 0.0, 0.0, 0.0, 0.0, 0.0, 0.0, 0.0, 0.0, 0.0, 1.7297037966550832E9, 0.0, 2024-10-23 22:46:36.655
88.0, -44765.894981133344, -53014.33688573085, -29579.695115053073, -26646.833318094414, -16768.345745604725, -15867.861016733768, -187500.02235174447, -187500.02235174447, -0.08, 0.838, 0.504, 192.0, 0.0, 0.0, 0.0, 0.0, 0.0, 0.0, 0.0, 0.0, 0.0, 1.7297037966580498E9, 0.0, 2024-10-23 22:46:36.658
89.0, -45401.2656690199, -53640.47630315737, -13604.366910978188, -26723.969188209678, -17384.38217453744, -16419.792642568667, -187500.02235174447, -187500.02235174447, -0.08, 0.838, 0.504, 192.0, 0.0, 0.0, 0.0, 0.0, 0.0, 0.0, 0.0, 0.0, 0.0, 1.729703796660998E9, 0.0, 2024-10-23 22:46:36.660
90.0, -45447.53378004239, -54137.51204461003, -11617.565049834855, -29356.959981555938, -17280.871245964914, -16869.10740960925, -187500.02235174447, -187500.02235174447, -0.08, 0.838, 0.504, 192.0, 0.0, 0.0, 0.0, 0.0, 0.0, 0.0, 0.0, 0.0, 0.0, 1.7297037966640124E9, 0.0, 2024-10-23 22:46:36.664
91.0, -44852.19506647528, -53816.54099423182, -26324.476459559974, -30864.696903788677, -16608.731938449375, -16590.068231829195, -187500.02235174447, -187500.02235174447, -0.08, 0.838, 0.504, 192.0, 0.0, 0.0, 0.0, 0.0, 0.0, 0.0, 0.0, 0.0, 0.0, 1.7297037966679869E9, 0.0, 2024-10-23 22:46:36.667
92.0, -44445.52742785543, -53162.081916580435, -38491.20151891727, -29389.81704590524, -16308.458603436782, -16005.659521300737, -187500.02235174447, -187500.02235174447, -0.08, 0.838, 0.504, 192.0, 0.0, 0.0, 0.0, 0.0, 0.0, 0.0, 0.0, 0.0, 0.0, 1.7297037966710613E9, 0.0, 2024-10-23 22:46:36.671
93.0, -44759.79295489704, -53027.47971147057, -29822.502115071075, -26694.04020238402, -16771.89967297312, -15873.806580758881, -187500.02235174447, -187500.02235174447, -0.08, 0.838, 0.504, 192.0, 0.0, 0.0, 0.0, 0.0, 0.0, 0.0, 0.0, 0.0, 0.0, 1.729703796675042E9, 0.0, 2024-10-23 22:46:36.675
94.0, -45405.69131442205, -53647.3606404496, -13689.303539908355, -26723.723319020668, -17410.48901206124, -16430.588535140578, -187500.02235174447, -187500.02235174447, -0.08, 0.838, 0.504, 192.0, 0.0, 0.0, 0.0, 0.0, 0.0, 0.0, 0.0, 0.0, 0.0, 1.7297037966779585E9, 0.0, 2024-10-23 22:46:36.677
95.0, -45464.72227152852, -54148.26323369303, -11357.256633908348, -29356.535298411287, -17312.409557391355, -16884.19483711658, -187500.02235174447, -187500.02235174447, -0.082, 0.84, 0.504, 192.0, 253.0, 112.0, 26.0, 64.0, 15.0, 192.0, 0.0, 0.0, 0.0, 1.7297037966812074E9, 0.0, 2024-10-23 22:46:36.681
96.0, -44857.134801999906, -53814.93166863104, -26111.21846571189, -30898.984479783117, -16619.460775787924, -16591.744612663344, -187500.02235174447, -187500.02235174447, -0.082, 0.84, 0.504, 192.0, 0.0, 0.0, 0.0, 0.0, 0.0, 0.0, 0.0, 0.0, 0.0, 1.7297037966849737E9, 0.0, 2024-10-23 22:46:36.684
97.0, -44441.54881734238, -53152.04598332, -38724.4419723084, -29459.286267672334, -16301.753080100189, -16001.59150380987, -187500.02235174447, -187500.02235174447, -0.082, 0.84, 0.504, 192.0, 0.0, 0.0, 0.0, 0.0, 0.0, 0.0, 0.0, 0.0, 0.0, 1.7297037966879723E9, 0.0, 2024-10-23 22:46:36.687
98.0, -44749.466448958694, -52999.42827217916, -30313.43583028744, -26708.23356011314, -16761.12613214566, -15850.605470014272, -187500.02235174447, -187500.02235174447, -0.082, 0.84, 0.504, 192.0, 0.0, 0.0, 0.0, 0.0, 0.0, 0.0, 0.0, 0.0, 0.0, 1.7297037966921508E9, 0.0, 2024-10-23 22:46:36.692
99.0, -45408.06059933431, -53620.89617501452, -13840.356628937321, -26685.457132513184, -17403.49291604673, -16398.938464991865, -187500.02235174447, -187500.02235174447, -0.082, 0.84, 0.504, 192.0, 0.0, 0.0, 0.0, 0.0, 0.0, 0.0, 0.0, 0.0, 0.0, 1.7297037966962376E9, 0.0, 2024-10-23 22:46:36.696
100.0, -45485.37528340522, -54145.1786929582, -11030.94351660532, -29393.750952929375, -17313.52714461412, -16867.09575260827, -187500.02235174447, -187500.02235174447, -0.082, 0.84, 0.504, 192.0, 0.0, 0.0, 0.0, 0.0, 0.0, 0.0, 0.0, 0.0, 0.0, 1.7297037967000792E9, 0.0, 2024-10-23 22:46:36.700
101.0, -44880.60413367798, -53829.505006015905, -25784.547720497576, -31026.65764411183, -16626.5239270358, -16588.034223083763, -187500.02235174447, -187500.02235174447, -0.082, 0.84, 0.504, 192.0, 0.0, 0.0, 0.0, 0.0, 0.0, 0.0, 0.0, 0.0, 0.0, 1.7297037967042933E9, 0.0, 2024-10-23 22:46:36.704
102.0, -44453.99873900399, -53164.96529161517, -38801.935470334945, -29620.554103917373, -16312.906600583388, -15997.523486319005, -187500.02235174447, -187500.02235174447, -0.082, 0.84, 0.504, 192.0, 0.0, 0.0, 0.0, 0.0, 0.0, 0.0, 0.0, 0.0, 0.0, 1.7297037967091737E9, 0.0, 2024-10-23 22:46:36.709
103.0, -44744.079678544964, -52992.76745233148, -30615.00556647844, -26808.43643050628, -16753.88416694214, -15831.785301182903, -187500.02235174447, -187500.02235174447, -0.082, 0.84, 0.504, 192.0, 0.0, 0.0, 0.0, 0.0, 0.0, 0.0, 0.0, 0.0, 0.0, 1.7297037967122688E9, 0.0, 2024-10-23 22:46:36.712
104.0, -45393.64372416064, -53604.02060795076, -14059.001393199134, -26731.09939469092, -17389.187799595333, -16379.80537173812, -187500.02235174447, -187500.02235174447, -0.082, 0.84, 0.504, 192.0, 0.0, 0.0, 0.0, 0.0, 0.0, 0.0, 0.0, 0.0, 0.0, 1.7297037967160425E9, 0.0, 2024-10-23 22:46:36.716
105.0, -45478.66976006863, -54134.315745152926, -11127.167776485418, -29386.19606330348, -17305.972254988224, -16856.43397050309, -187500.02235174447, -187500.02235174447, -0.076, 0.844, 0.5, 192.0, 253.0, 160.0, 26.0, 96.0, 15.0, 160.0, 0.0, 0.0, 0.0, 1.7297037967200873E9, 0.0, 2024-10-23 22:46:36.720
106.0, -44876.625523164934, -53820.78782567833, -25803.09966839548, -31004.194140934247, -16613.694025718454, -16578.981766579363, -187500.02235174447, -187500.02235174447, -0.076, 0.844, 0.5, 192.0, 0.0, 0.0, 0.0, 0.0, 0.0, 0.0, 0.0, 0.0, 0.0, 1.7297037967242572E9, 0.0, 2024-10-23 22:46:36.724
107.0, -44453.61875934825, -53155.26463452156, -38525.98083328972, -29573.23546090549, -16293.102954995986, -15990.728556004591, -187500.02235174447, -187500.02235174447, -0.076, 0.844, 0.5, 192.0, 0.0, 0.0, 0.0, 0.0, 0.0, 0.0, 0.0, 0.0, 0.0, 1.729703796728328E9, 0.0, 2024-10-23 22:46:36.728
108.0, -44750.651091414824, -52995.38260643275, -30191.59647126156, -26799.674546679802, -16748.720913972964, -15839.697818720082, -187500.02235174447, -187500.02235174447, -0.076, 0.844, 0.5, 192.0, 0.0, 0.0, 0.0, 0.0, 0.0, 0.0, 0.0, 0.0, 0.0, 1.7297037967340682E9, 0.0, 2024-10-23 22:46:36.734
109.0, -45404.19374754355, -53620.538547103235, -13968.722697344148, -26789.54920644155, -17396.563875265583, -16398.62554056949, -187500.02235174447, -187500.02235174447, -0.076, 0.844, 0.5, 192.0, 0.0, 0.0, 0.0, 0.0, 0.0, 0.0, 0.0, 0.0, 0.0, 1.7297037967380376E9, 0.0, 2024-10-23 22:46:36.738
110.0, -45469.61730356423, -54130.71711429562, -11516.266943963403, -29429.133764402126, -17291.242455392177, -16857.931537381595, -187500.02235174447, -187500.02235174447, -0.076, 0.844, 0.5, 192.0, 0.0, 0.0, 0.0, 0.0, 0.0, 0.0, 0.0, 0.0, 0.0, 1.7297037967420697E9, 0.0, 2024-10-23 22:46:36.742
111.0, -44880.760595889165, -53818.7538169329, -26095.348727148623, -30977.260288865604, -16607.81551692671, -16579.294691001738, -187500.02235174447, -187500.02235174447, -0.076, 0.844, 0.5, 192.0, 0.0, 0.0, 0.0, 0.0, 0.0, 0.0, 0.0, 0.0, 0.0, 1.7297037967463093E9, 0.0, 2024-10-23 22:46:36.746
112.0, -44468.88500081122, -53164.026518348044, -38386.21537521069, -29542.099480879246, -16296.254550964184, -15998.797535752958, -187500.02235174447, -187500.02235174447, -0.076, 0.844, 0.5, 192.0, 0.0, 0.0, 0.0, 0.0, 0.0, 0.0, 0.0, 0.0, 0.0, 1.729703796750111E9, 0.0, 2024-10-23 22:46:36.750
113.0, -44765.44794624424, -53006.98316180506, -29898.274528774564, -26813.554979986548, -16755.247623353913, -15859.210891629566, -187500.02235174447, -187500.02235174447, -0.076, 0.844, 0.5, 192.0, 0.0, 0.0, 0.0, 0.0, 0.0, 0.0, 0.0, 0.0, 0.0, 1.7297037967551653E9, 0.0, 2024-10-23 22:46:36.755
114.0, -45405.8701283777, -53620.47149186987, -13891.36330978433, -26824.708500469747, -17396.876799687958, -16412.01423549822, -187500.02235174447, -187500.02235174447, -0.076, 0.844, 0.5, 192.0, 0.0, 0.0, 0.0, 0.0, 0.0, 0.0, 0.0, 0.0, 0.0, 1.7297037967582076E9, 0.0, 2024-10-23 22:46:36.758
115.0, -45470.08669019779, -54126.2244136601, -11549.481636223989, -29438.946180218005, -17302.910065997847, -16869.129761353703, -187500.02235174447, -187500.02235174447, -0.078, 0.844, 0.5, 192.0, 253.0, 144.0, 26.0, 96.0, 15.0, 160.0, 0.0, 0.0, 0.0, 1.7297037967612035E9, 0.0, 2024-10-23 22:46:36.761
116.0, -44876.625523164934, -53812.04829359631, -26066.358514590087, -30975.919184198283, -16627.61916251411, -16592.571627208188, -187500.02235174447, -187500.02235174447, -0.078, 0.844, 0.5, 192.0, 0.0, 0.0, 0.0, 0.0, 0.0, 0.0, 0.0, 0.0, 0.0, 1.7297037967821324E9, 0.0, 2024-10-23 22:46:36.782
117.0, -44462.73827108601, -53164.38414625933, -38386.75181707762, -29557.879812464693, -16325.557687945091, -16011.35921613684, -187500.02235174447, -187500.02235174447, -0.078, 0.844, 0.5, 192.0, 0.0, 0.0, 0.0, 0.0, 0.0, 0.0, 0.0, 0.0, 0.0, 1.729703796782168E9, 0.0, 2024-10-23 22:46:36.782
118.0, -44756.61900718439, -53006.938458316145, -29967.430826119285, -26826.697805726268, -16769.061001427293, -15855.858129961269, -187500.02235174447, -187500.02235174447, -0.078, 0.844, 0.5, 192.0, 0.0, 0.0, 0.0, 0.0, 0.0, 0.0, 0.0, 0.0, 0.0, 1.7297037967821836E9, 0.0, 2024-10-23 22:46:36.782
119.0, -45393.263744504904, -53617.34224764613, -13948.404961634275, -26822.607436490947, -17390.260683329187, -16394.53517133417, -187500.02235174447, -187500.02235174447, -0.078, 0.844, 0.5, 192.0, 0.0, 0.0, 0.0, 0.0, 0.0, 0.0, 0.0, 0.0, 0.0, 1.7297037967821963E9, 0.0, 2024-10-23 22:46:36.782
120.0, -45460.47544008201, -54131.83470151838, -11583.053956395861, -29437.515668572865, -17294.550513571565, -16851.4271797451, -187500.02235174447, -187500.02235174447, -0.078, 0.844, 0.5, 192.0, 0.0, 0.0, 0.0, 0.0, 0.0, 0.0, 0.0, 0.0, 0.0, 1.7297037967822084E9, 0.0, 2024-10-23 22:46:36.782
121.0, -44865.89668582639, -53816.22806980945, -26099.282634172756, -30970.59946901792, -16625.76396772432, -16573.639699654545, -187500.02235174447, -187500.02235174447, -0.078, 0.844, 0.5, 192.0, 0.0, 0.0, 0.0, 0.0, 0.0, 0.0, 0.0, 0.0, 0.0, 1.7297037967842207E9, 0.0, 2024-10-23 22:46:36.784
122.0, -44457.82088730585, -53168.72038468366, -38379.01811349608, -29552.94007694007, -16326.339999001028, -15995.131849662288, -187500.02235174447, -187500.02235174447, -0.078, 0.844, 0.5, 192.0, 0.0, 0.0, 0.0, 0.0, 0.0, 0.0, 0.0, 0.0, 0.0, 1.7297037967901654E9, 0.0, 2024-10-23 22:46:36.790
123.0, -44744.52671343407, -53002.93749605864, -29941.63691301786, -26809.621072962414, -16769.88801597214, -15833.953420395068, -187500.02235174447, -187500.02235174447, -0.078, 0.844, 0.5, 192.0, 0.0, 0.0, 0.0, 0.0, 0.0, 0.0, 0.0, 0.0, 0.0, 1.729703796793202E9, 0.0, 2024-10-23 22:46:36.793
124.0, -45373.348340195225, -53606.09932018511, -13987.632273153338, -26807.27413979461, -17380.023584368657, -16362.840397696544, -187500.02235174447, -187500.02235174447, -0.078, 0.844, 0.5, 192.0, 0.0, 0.0, 0.0, 0.0, 0.0, 0.0, 0.0, 0.0, 0.0, 1.7297037967962804E9, 0.0, 2024-10-23 22:46:36.796
125.0, -45445.81269571933, -54116.680218777685, -11659.049887543904, -29413.33108107222, -17276.26678660712, -16813.98800778246, -187500.02235174447, -187500.02235174447, -0.074, 0.844, 0.508, 192.0, 253.0, 176.0, 26.0, 96.0, 15.0, 224.0, 0.0, 0.0, 0.0, 1.729703796800147E9, 0.0, 2024-10-23 22:46:36.800
126.0, -44868.534191672115, -53810.88600288463, -26107.575131365673, -30939.7540616696, -16618.678464731987, -16546.258812696793, -187500.02235174447, -187500.02235174447, -0.074, 0.844, 0.508, 192.0, 0.0, 0.0, 0.0, 0.0, 0.0, 0.0, 0.0, 0.0, 0.0, 1.7297037968041632E9, 0.0, 2024-10-23 22:46:36.804
127.0, -44465.93457054312, -53167.82631490545, -38221.125390663794, -29527.79436442785, -16315.924086084855, -15974.322375574397, -187500.02235174447, -187500.02235174447, -0.074, 0.844, 0.508, 192.0, 0.0, 0.0, 0.0, 0.0, 0.0, 0.0, 0.0, 0.0, 0.0, 1.7297037968081758E9, 0.0, 2024-10-23 22:46:36.808
128.0, -44764.68798693275, -53018.02492356598, -29778.066847093924, -26826.317826070528, -16767.205806637503, -15829.885402904201, -187500.02235174447, -187500.02235174447, -0.074, 0.844, 0.508, 192.0, 0.0, 0.0, 0.0, 0.0, 0.0, 0.0, 0.0, 0.0, 0.0, 1.7297037968121595E9, 0.0, 2024-10-23 22:46:36.812
129.0, -45386.960552568504, -53616.89521275702, -13993.421374967264, -26839.952390188264, -17383.689270459327, -16364.941461675342, -187500.02235174447, -187500.02235174447, -0.074, 0.844, 0.508, 192.0, 0.0, 0.0, 0.0, 0.0, 0.0, 0.0, 0.0, 0.0, 0.0, 1.729703796816175E9, 0.0, 2024-10-23 22:46:36.816
130.0, -45444.18101837409, -54114.154471654234, -11781.515095414532, -29418.606092763675, -17276.155027884844, -16806.142545478648, -187500.02235174447, -187500.02235174447, -0.074, 0.844, 0.508, 192.0, 0.0, 0.0, 0.0, 0.0, 0.0, 0.0, 0.0, 0.0, 0.0, 1.7297037968204498E9, 0.0, 2024-10-23 22:46:36.820
131.0, -44863.25917998066, -53803.97931384794, -26159.520585479808, -30923.191419028215, -16607.390833782058, -16535.015885235774, -187500.02235174447, -187500.02235174447, -0.074, 0.844, 0.508, 192.0, 0.0, 0.0, 0.0, 0.0, 0.0, 0.0, 0.0, 0.0, 0.0, 1.7297037968242233E9, 0.0, 2024-10-23 22:46:36.824
132.0, -44465.08520425382, -53168.496867239104, -38178.92529713217, -29527.861419661218, -16315.968789573764, -15979.820904710401, -187500.02235174447, -187500.02235174447, -0.074, 0.844, 0.508, 192.0, 0.0, 0.0, 0.0, 0.0, 0.0, 0.0, 0.0, 0.0, 0.0, 1.729703796827278E9, 0.0, 2024-10-23 22:46:36.827
133.0, -44758.04951882953, -53012.99578106353, -29775.250527292555, -26837.717215742734, -16758.5556815333, -15834.80278668437, -187500.02235174447, -187500.02235174447, -0.074, 0.844, 0.508, 192.0, 0.0, 0.0, 0.0, 0.0, 0.0, 0.0, 0.0, 0.0, 0.0, 1.7297037968324196E9, 0.0, 2024-10-23 22:46:36.832
134.0, -45392.05675030431, -53620.76206454779, -14049.658364016816, -26853.31873337254, -17376.760229678184, -16376.162037391907, -187500.02235174447, -187500.02235174447, -0.074, 0.844, 0.508, 192.0, 0.0, 0.0, 0.0, 0.0, 0.0, 0.0, 0.0, 0.0, 0.0, 1.729703796837217E9, 0.0, 2024-10-23 22:46:36.837
135.0, -45456.49682956896, -54119.18361415668, -11791.908656586249, -29425.28926435581, -17283.106420410448, -16829.969505068006, -187500.02235174447, -187500.02235174447, -0.082, 0.844, 0.5, 192.0, 253.0, 112.0, 26.0, 96.0, 15.0, 160.0, 0.0, 0.0, 0.0, 1.7297037968402028E9, 0.0, 2024-10-23 22:46:36.840
136.0, -44867.908342827366, -53801.185345791026, -26119.108631504612, -30930.947474354205, -16624.422863057003, -16561.972089048875, -187500.02235174447, -187500.02235174447, -0.082, 0.844, 0.5, 192.0, 0.0, 0.0, 0.0, 0.0, 0.0, 0.0, 0.0, 0.0, 0.0, 1.7297037968444276E9, 0.0, 2024-10-23 22:46:36.844
137.0, -44475.210544492074, -53179.404518533294, -38191.50932926051, -29562.059588677836, -16328.172842046362, -16009.861649258335, -187500.02235174447, -187500.02235174447, -0.082, 0.844, 0.5, 192.0, 0.0, 0.0, 0.0, 0.0, 0.0, 0.0, 0.0, 0.0, 0.0, 1.7297037968482323E9, 0.0, 2024-10-23 22:46:36.848
138.0, -44763.83862064345, -53021.489443956554, -29903.080153832456, -26868.786140535613, -16768.278690371357, -15862.608356786772, -187500.02235174447, -187500.02235174447, -0.082, 0.844, 0.5, 192.0, 0.0, 0.0, 0.0, 0.0, 0.0, 0.0, 0.0, 0.0, 0.0, 1.7297037968526003E9, 0.0, 2024-10-23 22:46:36.852
139.0, -45386.53586942385, -53614.5035761003, -14069.462009604218, -26851.307076371562, -17387.019680383168, -16392.43410735537, -187500.02235174447, -187500.02235174447, -0.082, 0.844, 0.5, 192.0, 0.0, 0.0, 0.0, 0.0, 0.0, 0.0, 0.0, 0.0, 0.0, 1.7297037968552496E9, 0.0, 2024-10-23 22:46:36.855
140.0, -45459.91664647063, -54123.18457641418, -11529.610935403221, -29420.707156742475, -17305.52522009912, -16848.476749477, -187500.02235174447, -187500.02235174447, -0.082, 0.844, 0.5, 192.0, 0.0, 0.0, 0.0, 0.0, 0.0, 0.0, 0.0, 0.0, 0.0, 1.729703796860238E9, 0.0, 2024-10-23 22:46:36.860
141.0, -44879.151270288385, -53822.24068906793, -25872.323020973567, -30976.92501269877, -16645.43350284499, -16580.56874043569, -187500.02235174447, -187500.02235174447, -0.082, 0.844, 0.5, 192.0, 0.0, 0.0, 0.0, 0.0, 0.0, 0.0, 0.0, 0.0, 0.0, 1.729703796864241E9, 0.0, 2024-10-23 22:46:36.864
142.0, -44473.98119854703, -53188.81460294898, -38374.68187507175, -29634.97097909105, -16331.27973452565, -16011.336864392384, -187500.02235174447, -187500.02235174447, -0.082, 0.844, 0.5, 192.0, 0.0, 0.0, 0.0, 0.0, 0.0, 0.0, 0.0, 0.0, 0.0, 1.7297037968682687E9, 0.0, 2024-10-23 22:46:36.868
143.0, -44741.95626282171, -53000.031769279456, -30364.57662160118, -26871.758922548168, -16760.433228067544, -15826.353827280263, -187500.02235174447, -187500.02235174447, -0.082, 0.844, 0.5, 192.0, 0.0, 0.0, 0.0, 0.0, 0.0, 0.0, 0.0, 0.0, 0.0, 1.7297037968722625E9, 0.0, 2024-10-23 22:46:36.872
144.0, -45377.77398559737, -53593.60469503459, -14252.142817037442, -26781.010840059622, -17393.38992755293, -16345.316630043582, -187500.02235174447, -187500.02235174447, -0.082, 0.844, 0.5, 192.0, 0.0, 0.0, 0.0, 0.0, 0.0, 0.0, 0.0, 0.0, 0.0, 1.729703796876252E9, 0.0, 2024-10-23 22:46:36.876
