%OpenBCI Raw EXG Data
%Number of channels = 8
%Sample Rate = 250 Hz
%Board = OpenBCI_GUI$BoardCytonSerial
Sample Index, EXG Channel 0, EXG Channel 1, EXG Channel 2, EXG Channel 3, EXG Channel 4, EXG Channel 5, EXG Channel 6, EXG Channel 7, Accel Channel 0, Accel Channel 1, Accel Channel 2, Other, Other, Other, Other, Other, Other, Other, Analog Channel 0, Analog Channel 1, Analog Channel 2, Timestamp, Other, Timestamp (Formatted)
0.0, 0.0, 0.0, 0.0, 0.0, 0.0, 0.0, 0.0, 0.0, 0.18, 0.9540000000000001, -0.1, 192.0, 5.0, 160.0, 29.0, 208.0, 252.0, 224.0, 0.0, 0.0, 0.0, 1.7296907877525969E9, 0.0, 2024-10-23 19:09:47.752
1.0, 26210.66137679355, 23098.270368369864, 39428.43251567275, 24448.338085214866, 18635.83399484563, 24004.007757187817, 187500.0, -3458.574826547483, 0.18, 0.9540000000000001, -0.1, 192.0, 0.0, 0.0, 0.0, 0.0, 0.0, 0.0, 0.0, 0.0, 0.0, 1.7296907877696328E9, 0.0, 2024-10-23 19:09:47.769
2.0, 25992.396592187477, 23090.76018223288, 39386.90297447479, 23713.5468379911, 18617.30439869218, 23947.994285582816, 187500.0, -3364.2728166905426, 0.18, 0.9540000000000001, -0.1, 192.0, 0.0, 0.0, 0.0, 0.0, 0.0, 0.0, 0.0, 0.0, 0.0, 1.7296907877726035E9, 0.0, 2024-10-23 19:09:47.772
3.0, 25905.3141957896, 23055.13150157112, 39364.908857930764, 23166.309078491817, 18615.6950730914, 23911.091555487106, 187500.0, -3625.1847297173417, 0.18, 0.9540000000000001, -0.1, 192.0, 0.0, 0.0, 0.0, 0.0, 0.0, 0.0, 0.0, 0.0, 0.0, 1.7296907877765913E9, 0.0, 2024-10-23 19:09:47.776
4.0, 25873.46295994079, 23007.164657970032, 39365.78057596452, 22797.393536256975, 18647.92628859595, 23942.339294235622, 187500.0, -4134.133950964684, 0.18, 0.9540000000000001, -0.1, 192.0, 0.0, 0.0, 0.0, 0.0, 0.0, 0.0, 0.0, 0.0, 0.0, 1.7296907877968092E9, 0.0, 2024-10-23 19:09:47.796
5.0, 26223.75949904436, 23059.13246382862, 39440.23423674515, 24035.434309891978, 18652.46369272038, 24012.05438519173, 187500.0, -3994.301437652283, 0.18, 0.9540000000000001, -0.1, 192.0, 0.0, 0.0, 0.0, 0.0, 0.0, 0.0, 0.0, 0.0, 0.0, 1.7296907877996688E9, 0.0, 2024-10-23 19:09:47.799
6.0, 26226.486411867907, 23121.96321749249, 39451.56657118399, 24474.959012861134, 18646.004038572795, 24009.55098981273, 187500.0, -3443.8450269514356, 0.18, 0.9540000000000001, -0.1, 192.0, 0.0, 0.0, 0.0, 0.0, 0.0, 0.0, 0.0, 0.0, 0.0, 1.7296907878037117E9, 0.0, 2024-10-23 19:09:47.803
7.0, 26016.827048877127, 23115.23534241144, 39415.244986444115, 23736.12209989096, 18648.865061863075, 23968.624945715066, 187500.0, -3355.3321189084195, 0.18, 0.9540000000000001, -0.1, 192.0, 0.0, 0.0, 0.0, 0.0, 0.0, 0.0, 0.0, 0.0, 0.0, 1.7296907878066733E9, 0.0, 2024-10-23 19:09:47.806
8.0, 25926.32483557759, 23073.057600624277, 39385.76303550757, 23180.72595366549, 18641.086654792627, 23952.59874494061, 187500.0, -3613.0924359670207, 0.168, 0.9580000000000001, -0.094, 192.0, 5.0, 64.0, 29.0, 240.0, 253.0, 16.0, 0.0, 0.0, 0.0, 1.7296907878097022E9, 0.0, 2024-10-23 19:09:47.809
9.0, 25883.834169368052, 23013.93723653999, 39365.065320141955, 22786.910568107436, 18633.844689589107, 23931.811622597175, 187500.0, -4134.156302709139, 0.168, 0.9580000000000001, -0.094, 192.0, 0.0, 0.0, 0.0, 0.0, 0.0, 0.0, 0.0, 0.0, 0.0, 1.7296907878137004E9, 0.0, 2024-10-23 19:09:47.813
10.0, 26227.872220024135, 23058.439559750506, 39427.627852872356, 24012.948454969937, 18628.368512197558, 23966.23330905835, 187500.0, -3996.3354463977157, 0.168, 0.9580000000000001, -0.094, 192.0, 0.0, 0.0, 0.0, 0.0, 0.0, 0.0, 0.0, 0.0, 0.0, 1.7296907878167171E9, 0.0, 2024-10-23 19:09:47.816
11.0, 26225.77115604534, 23122.0079209814, 39430.7570970961, 24441.02906477798, 18622.311189450167, 23979.37613479807, 187500.0, -3440.760486216603, 0.168, 0.9580000000000001, -0.094, 192.0, 0.0, 0.0, 0.0, 0.0, 0.0, 0.0, 0.0, 0.0, 0.0, 1.7296907878196948E9, 0.0, 2024-10-23 19:09:47.819
12.0, 26013.87661860903, 23117.314054645783, 39390.300439631996, 23704.583788464523, 18632.436529688424, 23963.439341001435, 187500.0, -3353.543979351995, 0.168, 0.9580000000000001, -0.094, 192.0, 0.0, 0.0, 0.0, 0.0, 0.0, 0.0, 0.0, 0.0, 0.0, 1.7296907878236947E9, 0.0, 2024-10-23 19:09:47.823
13.0, 25923.329701820578, 23078.332612315728, 39365.199430608685, 23154.35089520823, 18630.87190757655, 23935.879640088042, 187500.0, -3630.3256309420626, 0.168, 0.9580000000000001, -0.094, 192.0, 0.0, 0.0, 0.0, 0.0, 0.0, 0.0, 0.0, 0.0, 0.0, 1.7296907878267E9, 0.0, 2024-10-23 19:09:47.826
14.0, 25884.12474204597, 23016.97707378591, 39344.725232687626, 22770.482035932786, 18632.838861088618, 23900.854456526573, 187500.0, -4164.420564701625, 0.168, 0.9580000000000001, -0.094, 192.0, 0.0, 0.0, 0.0, 0.0, 0.0, 0.0, 0.0, 0.0, 0.0, 1.72969078782974E9, 0.0, 2024-10-23 19:09:47.829
15.0, 26231.604961348174, 23061.255879551874, 39413.18862595423, 23998.173951884983, 18641.421930959455, 23956.30913452019, 187500.0, -4016.2732024518496, 0.168, 0.9580000000000001, -0.094, 192.0, 0.0, 0.0, 0.0, 0.0, 0.0, 0.0, 0.0, 0.0, 0.0, 1.7296907878337047E9, 0.0, 2024-10-23 19:09:47.833
16.0, 26228.453365379974, 23116.755261034403, 39420.363535924385, 24420.733680812562, 18640.93019258144, 23975.55398649621, 187500.0, -3474.8468965109464, 0.168, 0.9580000000000001, -0.094, 192.0, 0.0, 0.0, 0.0, 0.0, 0.0, 0.0, 0.0, 0.0, 0.0, 1.7296907878367453E9, 0.0, 2024-10-23 19:09:47.836
17.0, 26008.266330750746, 23103.545380061314, 39376.50941330307, 23685.49539869969, 18635.319904723157, 23952.486986218333, 187500.0, -3384.6352558893273, 0.168, 0.9580000000000001, -0.094, 192.0, 0.0, 0.0, 0.0, 0.0, 0.0, 0.0, 0.0, 0.0, 0.0, 1.729690787839754E9, 0.0, 2024-10-23 19:09:47.839
18.0, 25913.874913915985, 23058.998353361887, 39343.16061057575, 23136.961238022, 18616.745605080796, 23932.50452667529, 187500.0, -3644.8766165824672, 0.166, 0.96, -0.09, 192.0, 5.0, 48.0, 30.0, 0.0, 253.0, 48.0, 0.0, 0.0, 0.0, 1.729690787843718E9, 0.0, 2024-10-23 19:09:47.843
19.0, 25878.17917802086, 23003.297806179264, 39327.17911329021, 22765.45289343034, 18605.748546808787, 23916.187753222915, 187500.0, -4161.581893155801, 0.166, 0.96, -0.09, 192.0, 0.0, 0.0, 0.0, 0.0, 0.0, 0.0, 0.0, 0.0, 0.0, 1.7296907878468027E9, 0.0, 2024-10-23 19:09:47.846
20.0, 26227.224019434932, 23052.76221665886, 39398.77175078056, 24005.617082788598, 18602.641654329498, 23977.342126052634, 187500.0, -4017.100216996696, 0.166, 0.96, -0.09, 192.0, 0.0, 0.0, 0.0, 0.0, 0.0, 0.0, 0.0, 0.0, 0.0, 1.72969078784976E9, 0.0, 2024-10-23 19:09:47.849
21.0, 26226.732281056917, 23114.274217399863, 39418.24012020113, 24428.31092218291, 18630.62603838754, 23998.553931540722, 187500.0, -3489.219068195709, 0.166, 0.96, -0.09, 192.0, 0.0, 0.0, 0.0, 0.0, 0.0, 0.0, 0.0, 0.0, 0.0, 1.7296907878527765E9, 0.0, 2024-10-23 19:09:47.852
22.0, 26013.42958371992, 23099.164438148076, 39384.980724451634, 23693.922006359342, 18629.35198895359, 23958.36549501008, 187500.0, -3400.1473665413105, 0.166, 0.96, -0.09, 192.0, 0.0, 0.0, 0.0, 0.0, 0.0, 0.0, 0.0, 0.0, 0.0, 1.7296907878567693E9, 0.0, 2024-10-23 19:09:47.856
23.0, 25924.022605898692, 23060.495920240395, 39368.99922716609, 23153.970915552487, 18637.82330010215, 23955.3033060197, 187500.0, -3642.8426078370344, 0.166, 0.96, -0.09, 192.0, 0.0, 0.0, 0.0, 0.0, 0.0, 0.0, 0.0, 0.0, 0.0, 1.7296907878597288E9, 0.0, 2024-10-23 19:09:47.859
24.0, 25888.550387448122, 23007.11995448112, 39361.04200614, 22786.910568107436, 18634.001151800294, 23930.247000485302, 187500.0, -4179.887971864698, 0.166, 0.96, -0.09, 192.0, 0.0, 0.0, 0.0, 0.0, 0.0, 0.0, 0.0, 0.0, 0.0, 1.7296907878627276E9, 0.0, 2024-10-23 19:09:47.862
25.0, 26235.67297883904, 23053.052789336776, 39431.89703606332, 24032.685045323975, 18632.168308754957, 23981.723067965875, 187500.0, -4022.5093391548803, 0.166, 0.96, -0.09, 192.0, 0.0, 0.0, 0.0, 0.0, 0.0, 0.0, 0.0, 0.0, 0.0, 1.7296907878667686E9, 0.0, 2024-10-23 19:09:47.866
26.0, 26226.508763612364, 23111.793173765323, 39442.46941119068, 24450.774425360494, 18635.051683789694, 23992.965995426894, 187500.0, -3472.254094154131, 0.166, 0.96, -0.09, 192.0, 0.0, 0.0, 0.0, 0.0, 0.0, 0.0, 0.0, 0.0, 0.0, 1.7296907878697836E9, 0.0, 2024-10-23 19:09:47.869
27.0, 26014.68128140942, 23106.294644629317, 39406.21488168417, 23721.727576461744, 18632.145957010503, 23960.488910733333, 187500.0, -3400.125014796855, 0.166, 0.96, -0.09, 192.0, 0.0, 0.0, 0.0, 0.0, 0.0, 0.0, 0.0, 0.0, 0.0, 1.729690787872786E9, 0.0, 2024-10-23 19:09:47.872
28.0, 25919.999291896736, 23065.346248787195, 39378.65518077078, 23178.177854797585, 18636.683361134932, 23955.951506608904, 187500.0, -3656.4771719547716, 0.162, 0.9580000000000001, -0.082, 192.0, 5.0, 16.0, 29.0, 240.0, 253.0, 112.0, 0.0, 0.0, 0.0, 1.7296907878767824E9, 0.0, 2024-10-23 19:09:47.876
29.0, 25883.521244945678, 23008.617521359625, 39367.009921909565, 22810.245789318775, 18639.790253614217, 23961.964125867384, 187500.0, -4195.333027283315, 0.162, 0.9580000000000001, -0.082, 192.0, 0.0, 0.0, 0.0, 0.0, 0.0, 0.0, 0.0, 0.0, 0.0, 1.7296907878797827E9, 0.0, 2024-10-23 19:09:47.879
30.0, 26227.358129901666, 23049.141234057097, 39429.23717847314, 24048.42067342051, 18631.45305293239, 23995.290576850246, 187500.0, -4053.5335604588463, 0.162, 0.9580000000000001, -0.082, 192.0, 0.0, 0.0, 0.0, 0.0, 0.0, 0.0, 0.0, 0.0, 0.0, 1.7296907878847566E9, 0.0, 2024-10-23 19:09:47.884
31.0, 26220.38438563161, 23111.122621431667, 39443.497591435626, 24472.61207969333, 18650.697904908408, 24030.76279530082, 187500.0, -3498.9197252893123, 0.162, 0.9580000000000001, -0.082, 192.0, 0.0, 0.0, 0.0, 0.0, 0.0, 0.0, 0.0, 0.0, 0.0, 1.72969078788781E9, 0.0, 2024-10-23 19:09:47.887
32.0, 26004.041851048692, 23101.019632937867, 39402.63860257132, 23735.11627139047, 18644.439416460922, 23979.264376075793, 187500.0, -3407.4340352337404, 0.162, 0.9580000000000001, -0.082, 192.0, 0.0, 0.0, 0.0, 0.0, 0.0, 0.0, 0.0, 0.0, 0.0, 1.7296907878918147E9, 0.0, 2024-10-23 19:09:47.891
33.0, 25912.17618133738, 23058.28309753932, 39373.00018942358, 23185.509226978927, 18627.072111019148, 23952.755207151797, 187500.0, -3689.5801054930816, 0.162, 0.9580000000000001, -0.082, 192.0, 0.0, 0.0, 0.0, 0.0, 0.0, 0.0, 0.0, 0.0, 0.0, 1.7296907878948104E9, 0.0, 2024-10-23 19:09:47.894
34.0, 25876.16752101988, 22995.273529919807, 39354.22472408113, 22809.59758872957, 18615.851535302583, 23905.704785073376, 187500.0, -4215.516652526457, 0.162, 0.9580000000000001, -0.082, 192.0, 0.0, 0.0, 0.0, 0.0, 0.0, 0.0, 0.0, 0.0, 0.0, 1.7296907878988554E9, 0.0, 2024-10-23 19:09:47.898
35.0, 26232.52138287084, 23051.778739902824, 39433.10403026391, 24050.924068799504, 18627.83207033063, 23970.413085271488, 187500.0, -4060.7531739179108, 0.162, 0.9580000000000001, -0.082, 192.0, 0.0, 0.0, 0.0, 0.0, 0.0, 0.0, 0.0, 0.0, 0.0, 1.7296907879028504E9, 0.0, 2024-10-23 19:09:47.902
36.0, 26227.13461245711, 23115.2576941559, 39444.48106819166, 24454.574221917897, 18630.313113965167, 23997.190475128948, 187500.0, -3503.904164302846, 0.162, 0.9580000000000001, -0.082, 192.0, 0.0, 0.0, 0.0, 0.0, 0.0, 0.0, 0.0, 0.0, 0.0, 1.7296907879068685E9, 0.0, 2024-10-23 19:09:47.906
37.0, 26011.686147652406, 23106.741679518425, 39403.577375838446, 23701.78982040761, 18627.943829052907, 23963.88637589054, 187500.0, -3438.6370704933493, 0.162, 0.9580000000000001, -0.082, 192.0, 0.0, 0.0, 0.0, 0.0, 0.0, 0.0, 0.0, 0.0, 0.0, 1.7296907879108613E9, 0.0, 2024-10-23 19:09:47.910
38.0, 25918.90405641843, 23063.60281271968, 39371.50262254508, 23149.76878759489, 18619.651331859986, 23933.48800343132, 187500.0, -3712.110663904031, 0.158, 0.9580000000000001, -0.082, 192.0, 4.0, 240.0, 29.0, 240.0, 253.0, 112.0, 0.0, 0.0, 0.0, 1.7296907879148595E9, 0.0, 2024-10-23 19:09:47.914
39.0, 25887.008117080703, 23009.466887648927, 39352.50363975807, 22783.22253027231, 18617.01382601426, 23914.332558433125, 187500.0, -4226.491359054013, 0.158, 0.9580000000000001, -0.082, 192.0, 0.0, 0.0, 0.0, 0.0, 0.0, 0.0, 0.0, 0.0, 0.0, 1.7296907879198508E9, 0.0, 2024-10-23 19:09:47.919
40.0, 26233.214286948954, 23056.18203356052, 39411.46754163117, 24020.548048084744, 18614.21985795735, 23968.870814904072, 187500.0, -4101.187479637561, 0.158, 0.9580000000000001, -0.082, 192.0, 0.0, 0.0, 0.0, 0.0, 0.0, 0.0, 0.0, 0.0, 0.0, 1.7296907879228847E9, 0.0, 2024-10-23 19:09:47.922
41.0, 26211.980129716412, 23104.931188217546, 39403.13034094934, 24409.55780858491, 18607.894314276495, 23969.854291660107, 187500.0, -3558.4871242627055, 0.158, 0.9580000000000001, -0.082, 192.0, 0.0, 0.0, 0.0, 0.0, 0.0, 0.0, 0.0, 0.0, 0.0, 1.729690787926856E9, 0.0, 2024-10-23 19:09:47.926
42.0, 25995.503484666766, 23093.643557267616, 39358.11392761635, 23659.6344303649, 18608.184886954416, 23936.84076509962, 187500.0, -3471.8294110094803, 0.158, 0.9580000000000001, -0.082, 192.0, 0.0, 0.0, 0.0, 0.0, 0.0, 0.0, 0.0, 0.0, 0.0, 1.729690787930878E9, 0.0, 2024-10-23 19:09:47.930
43.0, 25901.715564932296, 23050.929373613522, 39328.31905225743, 23111.010862709387, 18603.267503174247, 23924.167325993458, 187500.0, -3739.4915508617823, 0.158, 0.9580000000000001, -0.082, 192.0, 0.0, 0.0, 0.0, 0.0, 0.0, 0.0, 0.0, 0.0, 0.0, 1.7296907879348843E9, 0.0, 2024-10-23 19:09:47.934
44.0, 25868.389113949434, 22994.960605497436, 39313.611604405836, 22747.817367055104, 18597.500753104778, 23907.02353799624, 187500.0, -4263.103516471805, 0.158, 0.9580000000000001, -0.082, 192.0, 0.0, 0.0, 0.0, 0.0, 0.0, 0.0, 0.0, 0.0, 0.0, 1.7296907879388533E9, 0.0, 2024-10-23 19:09:47.938
45.0, 26216.27166465183, 23042.480414209418, 39381.22563138314, 24005.013585688306, 18590.30349139017, 23946.27320125976, 187500.0, -4105.456662828525, 0.158, 0.9580000000000001, -0.082, 192.0, 0.0, 0.0, 0.0, 0.0, 0.0, 0.0, 0.0, 0.0, 0.0, 1.7296907879428575E9, 0.0, 2024-10-23 19:09:47.942
46.0, 26204.42524009052, 23100.48319107094, 39393.67555304475, 24405.713308538594, 18601.702881062374, 23965.853329402606, 187500.0, -3559.8505806744793, 0.158, 0.9580000000000001, -0.082, 192.0, 0.0, 0.0, 0.0, 0.0, 0.0, 0.0, 0.0, 0.0, 0.0, 1.7296907879471376E9, 0.0, 2024-10-23 19:09:47.947
47.0, 25993.04479277668, 23090.38020257714, 39362.91955267424, 23662.495453655178, 18606.530857864724, 23940.394692468013, 187500.0, -3510.475577172706, 0.158, 0.9580000000000001, -0.082, 192.0, 0.0, 0.0, 0.0, 0.0, 0.0, 0.0, 0.0, 0.0, 0.0, 1.7296907879519587E9, 0.0, 2024-10-23 19:09:47.951
48.0, 25902.900207388426, 23044.69323691049, 39340.94778787468, 23120.33154014725, 18604.20627644137, 23909.07989848613, 187500.0, -3783.7927083722007, 0.154, 0.962, -0.078, 192.0, 4.0, 208.0, 30.0, 16.0, 253.0, 144.0, 0.0, 0.0, 0.0, 1.7296907879549682E9, 0.0, 2024-10-23 19:09:47.954
49.0, 25876.212224508792, 22991.40667812904, 39337.12563957282, 22771.487864433275, 18613.862230046063, 23909.973968264338, 187500.0, -4289.925609818174, 0.154, 0.962, -0.078, 192.0, 0.0, 0.0, 0.0, 0.0, 0.0, 0.0, 0.0, 0.0, 0.0, 1.7296907879589632E9, 0.0, 2024-10-23 19:09:47.958
50.0, 26224.72062405594, 23038.188879274, 39407.198358440204, 24034.22731569139, 18602.328729907123, 23968.69200094843, 187500.0, -4139.587776611778, 0.154, 0.962, -0.078, 192.0, 0.0, 0.0, 0.0, 0.0, 0.0, 0.0, 0.0, 0.0, 0.0, 1.729690787962944E9, 0.0, 2024-10-23 19:09:47.962
51.0, 26211.980129716412, 23096.14695264661, 39416.586091111436, 24431.37311117329, 18594.72913679232, 23983.421800544478, 187500.0, -3586.046825176099, 0.154, 0.962, -0.078, 192.0, 0.0, 0.0, 0.0, 0.0, 0.0, 0.0, 0.0, 0.0, 0.0, 1.7296907879669397E9, 0.0, 2024-10-23 19:09:47.966
52.0, 26004.220665004334, 23093.934129945534, 39392.33444837743, 23695.196055793294, 18612.431718400923, 23985.07582963417, 187500.0, -3509.6932661167702, 0.154, 0.962, -0.078, 192.0, 0.0, 0.0, 0.0, 0.0, 0.0, 0.0, 0.0, 0.0, 0.0, 1.7296907879709346E9, 0.0, 2024-10-23 19:09:47.970
53.0, 25912.667919715397, 23052.538699214307, 39372.195526623196, 23152.965087051998, 18609.838916044107, 23945.64735241501, 187500.0, -3776.5730949131366, 0.154, 0.962, -0.078, 192.0, 0.0, 0.0, 0.0, 0.0, 0.0, 0.0, 0.0, 0.0, 0.0, 1.72969078797597E9, 0.0, 2024-10-23 19:09:47.975
54.0, 25873.999401807716, 22993.038355474277, 39353.93415140321, 22795.493637978274, 18600.898218261984, 23956.219727542368, 187500.0, -4297.167575021694, 0.154, 0.962, -0.078, 192.0, 0.0, 0.0, 0.0, 0.0, 0.0, 0.0, 0.0, 0.0, 0.0, 1.7296907879789782E9, 0.0, 2024-10-23 19:09:47.978
55.0, 26223.04424322179, 23045.74376889989, 39427.65020461681, 24056.690818868974, 18616.67854984743, 24006.958187455915, 187500.0, -4148.193198227072, 0.154, 0.962, -0.078, 192.0, 0.0, 0.0, 0.0, 0.0, 0.0, 0.0, 0.0, 0.0, 0.0, 1.7296907879820127E9, 0.0, 2024-10-23 19:09:47.982
56.0, 26216.42812686302, 23111.837877254235, 39446.67153914828, 24446.237021236066, 18637.733893124332, 24011.94262646945, 187500.0, -3622.2342994492415, 0.154, 0.962, -0.078, 192.0, 0.0, 0.0, 0.0, 0.0, 0.0, 0.0, 0.0, 0.0, 0.0, 1.729690787987971E9, 0.0, 2024-10-23 19:09:47.987
57.0, 26007.305205739165, 23102.51719981637, 39408.31594566297, 23701.946282618796, 18632.615343644065, 23974.771675440275, 187500.0, -3547.9147491353456, 0.154, 0.962, -0.078, 192.0, 0.0, 0.0, 0.0, 0.0, 0.0, 0.0, 0.0, 0.0, 0.0, 1.7296907879910145E9, 0.0, 2024-10-23 19:09:47.991
58.0, 25914.54546624964, 23060.071237095744, 39380.711541260665, 23155.513185919906, 18624.568715640155, 23942.31694249117, 187500.0, -3819.2872785672284, 0.15, 0.964, -0.076, 192.0, 4.0, 176.0, 30.0, 32.0, 253.0, 160.0, 0.0, 0.0, 0.0, 1.7296907879950166E9, 0.0, 2024-10-23 19:09:47.995
59.0, 25881.196663522325, 22997.44164913197, 39368.08280564342, 22801.37214677002, 18635.565773912167, 23926.91659056146, 187500.0, -4341.312270320925, 0.15, 0.964, -0.076, 192.0, 0.0, 0.0, 0.0, 0.0, 0.0, 0.0, 0.0, 0.0, 0.0, 1.7296907879990897E9, 0.0, 2024-10-23 19:09:47.999
60.0, 26226.508763612364, 23045.430844477516, 39435.383908198346, 24059.775359603806, 18631.788329099218, 23993.591844271643, 187500.0, -4196.07063485034, 0.15, 0.964, -0.076, 192.0, 0.0, 0.0, 0.0, 0.0, 0.0, 0.0, 0.0, 0.0, 0.0, 1.7296907880029736E9, 0.0, 2024-10-23 19:09:48.002
61.0, 26205.498123824374, 23098.04685092531, 39437.820248343975, 24442.727797356583, 18628.79319534221, 24007.18170490047, 187500.0, -3669.083555827565, 0.15, 0.964, -0.076, 192.0, 0.0, 0.0, 0.0, 0.0, 0.0, 0.0, 0.0, 0.0, 0.0, 1.7296907880069668E9, 0.0, 2024-10-23 19:09:48.006
62.0, 25990.697859608874, 23086.647461253102, 39399.88933800332, 23698.392355250402, 18631.721273865853, 23972.089466105637, 187500.0, -3589.4889938222163, 0.15, 0.964, -0.076, 192.0, 0.0, 0.0, 0.0, 0.0, 0.0, 0.0, 0.0, 0.0, 0.0, 1.7296907880109828E9, 0.0, 2024-10-23 19:09:48.010
63.0, 25894.294785773134, 23045.877879366624, 39370.20622136667, 23150.34993295073, 18620.076015004637, 23945.06620705917, 187500.0, -3865.1754099339737, 0.15, 0.964, -0.076, 192.0, 0.0, 0.0, 0.0, 0.0, 0.0, 0.0, 0.0, 0.0, 0.0, 1.7296907880150137E9, 0.0, 2024-10-23 19:09:48.015
64.0, 25864.6563726254, 22995.184122941988, 39355.16349734825, 22804.434335760398, 18611.649407344987, 23925.10609926058, 187500.0, -4392.877744779318, 0.15, 0.964, -0.076, 192.0, 0.0, 0.0, 0.0, 0.0, 0.0, 0.0, 0.0, 0.0, 0.0, 1.7296907880190897E9, 0.0, 2024-10-23 19:09:48.019
65.0, 26209.543789570784, 23043.441539220996, 39415.736724822134, 24058.590717147676, 18592.561017580156, 23941.78050062424, 187500.0, -4243.255167395493, 0.15, 0.964, -0.076, 192.0, 0.0, 0.0, 0.0, 0.0, 0.0, 0.0, 0.0, 0.0, 0.0, 1.7296907880230062E9, 0.0, 2024-10-23 19:09:48.023
66.0, 26195.775114986314, 23105.467630084473, 39427.89607380582, 24436.782233331473, 18615.516259135755, 23971.3071550497, 187500.0, -3713.7423412492685, 0.15, 0.964, -0.076, 192.0, 0.0, 0.0, 0.0, 0.0, 0.0, 0.0, 0.0, 0.0, 0.0, 1.7296907880270712E9, 0.0, 2024-10-23 19:09:48.027
67.0, 25991.01078403125, 23097.37629859165, 39401.09633220391, 23702.92975937483, 18644.68528564993, 24005.550027555233, 187500.0, -3609.2479359207077, 0.15, 0.964, -0.076, 192.0, 0.0, 0.0, 0.0, 0.0, 0.0, 0.0, 0.0, 0.0, 0.0, 1.7296907880310297E9, 0.0, 2024-10-23 19:09:48.031
68.0, 25897.93812011935, 23056.338495771706, 39368.50748878807, 23146.080749759763, 18623.652294117488, 23961.472387489368, 187500.0, -3865.8906657565435, 0.156, 0.968, -0.084, 192.0, 4.0, 224.0, 30.0, 64.0, 253.0, 96.0, 0.0, 0.0, 0.0, 1.7296907880350602E9, 0.0, 2024-10-23 19:09:48.035
69.0, 25867.539747660132, 22995.944082253467, 39342.71357568665, 22787.402306485452, 18607.000244498282, 23931.67751213044, 187500.0, -4410.803843832475, 0.156, 0.968, -0.084, 192.0, 0.0, 0.0, 0.0, 0.0, 0.0, 0.0, 0.0, 0.0, 0.0, 1.7296907880400448E9, 0.0, 2024-10-23 19:09:48.040
70.0, 26219.110336197657, 23052.114016069656, 39406.728971806646, 24048.532432142787, 18596.651386815476, 23983.064172633192, 187500.0, -4235.566167302867, 0.156, 0.968, -0.084, 192.0, 0.0, 0.0, 0.0, 0.0, 0.0, 0.0, 0.0, 0.0, 0.0, 1.7296907880430288E9, 0.0, 2024-10-23 19:09:48.043
71.0, 26206.883931980603, 23115.302397644806, 39414.32856492145, 24413.379956886765, 18604.96623575285, 23940.349988979102, 187500.0, -3718.480911073794, 0.156, 0.968, -0.084, 192.0, 0.0, 0.0, 0.0, 0.0, 0.0, 0.0, 0.0, 0.0, 0.0, 1.7296907880470953E9, 0.0, 2024-10-23 19:09:48.047
72.0, 25999.079763779613, 23107.23341789644, 39383.95254420669, 23667.993982791184, 18624.97104704035, 23942.60751516909, 187500.0, -3650.2186835072857, 0.156, 0.968, -0.084, 192.0, 0.0, 0.0, 0.0, 0.0, 0.0, 0.0, 0.0, 0.0, 0.0, 1.7296907880510323E9, 0.0, 2024-10-23 19:09:48.051
73.0, 25902.989614366248, 23063.267536552852, 39356.01286363755, 23124.131336704653, 18618.28787544821, 23964.13224507955, 187500.0, -3935.4939979903697, 0.156, 0.968, -0.084, 192.0, 0.0, 0.0, 0.0, 0.0, 0.0, 0.0, 0.0, 0.0, 0.0, 1.7296907880570679E9, 0.0, 2024-10-23 19:09:48.057
74.0, 25871.093675028525, 22999.74387881087, 39333.41524999324, 22773.16424526742, 18598.752450794276, 23909.325767675135, 187500.0, -4463.665719469276, 0.156, 0.968, -0.084, 192.0, 0.0, 0.0, 0.0, 0.0, 0.0, 0.0, 0.0, 0.0, 0.0, 1.7296907880600595E9, 0.0, 2024-10-23 19:09:48.060
75.0, 26220.362033887155, 23049.632972435116, 39402.3480298934, 24042.60921986213, 18591.711651290854, 23979.912576664996, 187500.0, -4289.344464462336, 0.156, 0.968, -0.084, 192.0, 0.0, 0.0, 0.0, 0.0, 0.0, 0.0, 0.0, 0.0, 0.0, 1.7296907880630765E9, 0.0, 2024-10-23 19:09:48.063
76.0, 26199.61961503263, 23106.294644629317, 39400.26931765906, 24407.68026205066, 18571.662136514442, 23992.94364368244, 187500.0, -3767.0959552640866, 0.156, 0.968, -0.084, 192.0, 0.0, 0.0, 0.0, 0.0, 0.0, 0.0, 0.0, 0.0, 0.0, 1.7296907880670977E9, 0.0, 2024-10-23 19:09:48.067
77.0, 25991.547225898175, 23094.47057181246, 39375.36947433585, 23663.30011645557, 18612.945808523396, 23950.944715850917, 187500.0, -3686.7190822028024, 0.156, 0.968, -0.084, 192.0, 0.0, 0.0, 0.0, 0.0, 0.0, 0.0, 0.0, 0.0, 0.0, 1.7296907880710688E9, 0.0, 2024-10-23 19:09:48.071
78.0, 25907.75053593523, 23057.791359161303, 39364.95356141968, 23125.360682649694, 18631.430701187935, 23921.82039282565, 187500.0, -3953.330690065705, 0.152, 0.964, -0.08600000000000001, 192.0, 4.0, 192.0, 30.0, 32.0, 253.0, 80.0, 0.0, 0.0, 0.0, 1.7296907880750508E9, 0.0, 2024-10-23 19:09:48.075
79.0, 25884.907053101906, 23003.27545443481, 39354.89527641479, 22789.145742552966, 18625.418081929456, 23906.21887519585, 187500.0, -4472.673472484765, 0.152, 0.964, -0.08600000000000001, 192.0, 0.0, 0.0, 0.0, 0.0, 0.0, 0.0, 0.0, 0.0, 0.0, 1.7296907880790892E9, 0.0, 2024-10-23 19:09:48.079
80.0, 26230.554429358774, 23054.595059704192, 39428.253701717105, 24066.302068984758, 18626.826241830142, 23993.614196016097, 187500.0, -4285.097633015827, 0.152, 0.964, -0.08600000000000001, 192.0, 0.0, 0.0, 0.0, 0.0, 0.0, 0.0, 0.0, 0.0, 0.0, 1.729690788083068E9, 0.0, 2024-10-23 19:09:48.083
81.0, 26211.153115171568, 23114.900066244612, 39438.669614633276, 24429.540268127952, 18630.82720408764, 24004.566550799198, 187500.0, -3768.973501798332, 0.152, 0.964, -0.08600000000000001, 192.0, 0.0, 0.0, 0.0, 0.0, 0.0, 0.0, 0.0, 0.0, 0.0, 1.7296907880901325E9, 0.0, 2024-10-23 19:09:48.090
82.0, 25996.978699800817, 23099.18678989253, 39398.41412286927, 23679.68394514131, 18623.093500506104, 23957.851404887606, 187500.0, -3707.2826871016846, 0.152, 0.964, -0.08600000000000001, 192.0, 0.0, 0.0, 0.0, 0.0, 0.0, 0.0, 0.0, 0.0, 0.0, 1.7296907880940857E9, 0.0, 2024-10-23 19:09:48.094
83.0, 25905.5153614897, 23060.0935888402, 39375.5929917804, 23138.592915367237, 18621.037140016215, 23933.48800343132, 187500.0, -4001.6551615780786, 0.152, 0.964, -0.08600000000000001, 192.0, 0.0, 0.0, 0.0, 0.0, 0.0, 0.0, 0.0, 0.0, 0.0, 1.729690788097108E9, 0.0, 2024-10-23 19:09:48.097
84.0, 25879.16265477689, 22996.65933807604, 39358.270389827536, 22802.445030503874, 18608.475459632333, 23913.21497121036, 187500.0, -4532.978479025183, 0.152, 0.964, -0.08600000000000001, 192.0, 0.0, 0.0, 0.0, 0.0, 0.0, 0.0, 0.0, 0.0, 0.0, 1.7296907881000946E9, 0.0, 2024-10-23 19:09:48.100
85.0, 26225.10060371168, 23046.839004378202, 39427.38198368335, 24070.61595566463, 18608.29664567669, 23977.69975396392, 187500.0, -4351.459962303635, 0.152, 0.964, -0.08600000000000001, 192.0, 0.0, 0.0, 0.0, 0.0, 0.0, 0.0, 0.0, 0.0, 0.0, 1.7296907881031203E9, 0.0, 2024-10-23 19:09:48.103
86.0, 26206.682766280504, 23107.322824874263, 39436.8591233324, 24428.847364049838, 18613.3928434125, 23991.624890759576, 187500.0, -3817.2532698217956, 0.152, 0.964, -0.08600000000000001, 192.0, 0.0, 0.0, 0.0, 0.0, 0.0, 0.0, 0.0, 0.0, 0.0, 1.7296907881072984E9, 0.0, 2024-10-23 19:09:48.107
87.0, 25992.62010963203, 23091.721307244457, 39393.60849781138, 23668.284555469105, 18604.78742179721, 23946.40731172649, 187500.0, -3752.433210901405, 0.152, 0.964, -0.08600000000000001, 192.0, 0.0, 0.0, 0.0, 0.0, 0.0, 0.0, 0.0, 0.0, 0.0, 1.7296907881111333E9, 0.0, 2024-10-23 19:09:48.111
88.0, 25901.335585276556, 23047.286039267306, 39365.758224220066, 23118.76691803538, 18594.036232714207, 23909.839857797608, 187500.0, -4044.682269654545, 0.158, 0.9580000000000001, -0.084, 192.0, 4.0, 240.0, 29.0, 240.0, 253.0, 96.0, 0.0, 0.0, 0.0, 1.7296907881152442E9, 0.0, 2024-10-23 19:09:48.115
89.0, 25878.1568262764, 22989.59618682816, 39353.6882822142, 22788.676355919404, 18604.608607841565, 23909.750450819785, 187500.0, -4556.201941514247, 0.158, 0.9580000000000001, -0.084, 192.0, 0.0, 0.0, 0.0, 0.0, 0.0, 0.0, 0.0, 0.0, 0.0, 1.7296907881191225E9, 0.0, 2024-10-23 19:09:48.119
90.0, 26221.926655999025, 23043.732111898913, 39424.76682958208, 24066.413827707034, 18610.86709628905, 23988.093315135637, 187500.0, -4377.879724249808, 0.158, 0.9580000000000001, -0.084, 192.0, 0.0, 0.0, 0.0, 0.0, 0.0, 0.0, 0.0, 0.0, 0.0, 1.729690788122214E9, 0.0, 2024-10-23 19:09:48.122
91.0, 26197.250330120365, 23100.326728859753, 39429.68421336225, 24420.0631284789, 18611.202372455882, 23980.672535976475, 187500.0, -3838.9344619434432, 0.158, 0.9580000000000001, -0.084, 192.0, 0.0, 0.0, 0.0, 0.0, 0.0, 0.0, 0.0, 0.0, 0.0, 1.7296907881261709E9, 0.0, 2024-10-23 19:09:48.126
92.0, 25988.038002018693, 23091.94482468901, 39395.41898911226, 23672.50903517116, 18620.254828960282, 23974.525806251266, 187500.0, -3766.4701064193378, 0.158, 0.9580000000000001, -0.084, 192.0, 0.0, 0.0, 0.0, 0.0, 0.0, 0.0, 0.0, 0.0, 0.0, 1.7296907881311693E9, 0.0, 2024-10-23 19:09:48.131
93.0, 25892.439590983344, 23046.637838678103, 39358.270389827536, 23122.142031448133, 18592.91864549144, 23935.678474387943, 187500.0, -4041.5977289197126, 0.158, 0.9580000000000001, -0.084, 192.0, 0.0, 0.0, 0.0, 0.0, 0.0, 0.0, 0.0, 0.0, 0.0, 1.7296907881351523E9, 0.0, 2024-10-23 19:09:48.135
94.0, 25866.26569822618, 22983.203587913944, 39337.4832674841, 22778.9756988258, 18582.368622108534, 23895.713555301852, 187500.0, -4559.174723526803, 0.158, 0.9580000000000001, -0.084, 192.0, 0.0, 0.0, 0.0, 0.0, 0.0, 0.0, 0.0, 0.0, 0.0, 1.729690788139152E9, 0.0, 2024-10-23 19:09:48.139
95.0, 26218.059804208257, 23038.79237637429, 39413.434495143236, 24058.23308923639, 18594.81854377014, 23958.723122921365, 187500.0, -4383.646474319276, 0.158, 0.9580000000000001, -0.084, 192.0, 0.0, 0.0, 0.0, 0.0, 0.0, 0.0, 0.0, 0.0, 0.0, 1.7296907881451669E9, 0.0, 2024-10-23 19:09:48.145
96.0, 26198.05499292076, 23101.33255736024, 39428.119591250375, 24414.45284062062, 18610.710634077863, 24022.380891130077, 187500.0, -3846.556406802703, 0.158, 0.9580000000000001, -0.084, 192.0, 0.0, 0.0, 0.0, 0.0, 0.0, 0.0, 0.0, 0.0, 0.0, 1.7296907881481771E9, 0.0, 2024-10-23 19:09:48.148
97.0, 25988.2838712077, 23092.9506531895, 39384.064302928964, 23657.24279370818, 18604.094517719095, 23980.136094109548, 187500.0, -3790.8335078756227, 0.158, 0.9580000000000001, -0.084, 192.0, 0.0, 0.0, 0.0, 0.0, 0.0, 0.0, 0.0, 0.0, 0.0, 1.7296907881511881E9, 0.0, 2024-10-23 19:09:48.151
98.0, 25894.965338106795, 23047.80012938978, 39355.92345665973, 23105.780554506848, 18602.328729907123, 23919.2946457022, 187500.0, -4074.2312758244607, 0.16, 0.96, -0.084, 192.0, 5.0, 0.0, 30.0, 0.0, 253.0, 96.0, 0.0, 0.0, 0.0, 1.7296907881541584E9, 0.0, 2024-10-23 19:09:48.154
99.0, 25877.866253598484, 22990.847884517658, 39347.74271818909, 22775.26530924622, 18610.35300616658, 23905.324805417637, 187500.0, -4596.323322811523, 0.16, 0.96, -0.084, 192.0, 0.0, 0.0, 0.0, 0.0, 0.0, 0.0, 0.0, 0.0, 0.0, 1.7296907881591992E9, 0.0, 2024-10-23 19:09:48.159
100.0, 26221.971359487936, 23037.89830659608, 39413.076867231954, 24051.639324622076, 18605.569732853142, 23963.953431123904, 187500.0, -4416.34707645739, 0.16, 0.96, -0.084, 192.0, 0.0, 0.0, 0.0, 0.0, 0.0, 0.0, 0.0, 0.0, 0.0, 1.7296907881632595E9, 0.0, 2024-10-23 19:09:48.163
101.0, 26192.08707715119, 23089.441429310016, 39412.451018387204, 24389.06125891939, 18599.423003127933, 23968.915518392983, 187500.0, -3904.8944598310545, 0.16, 0.96, -0.084, 192.0, 0.0, 0.0, 0.0, 0.0, 0.0, 0.0, 0.0, 0.0, 0.0, 1.7296907881672163E9, 0.0, 2024-10-23 19:09:48.167
102.0, 25977.42092340242, 23069.011934877868, 39367.32284633194, 23624.273970636605, 18594.25975015876, 23926.670721372455, 187500.0, -3852.591377805636, 0.16, 0.96, -0.084, 192.0, 0.0, 0.0, 0.0, 0.0, 0.0, 0.0, 0.0, 0.0, 0.0, 1.7296907881712365E9, 0.0, 2024-10-23 19:09:48.171
103.0, 25885.84582636903, 23023.32496921122, 39344.009976865054, 23087.94386243151, 18599.53476185021, 23916.947712534395, 187500.0, -4123.33805839277, 0.16, 0.96, -0.084, 192.0, 0.0, 0.0, 0.0, 0.0, 0.0, 0.0, 0.0, 0.0, 0.0, 1.7296907881742053E9, 0.0, 2024-10-23 19:09:48.174
104.0, 25869.21612849428, 22971.06659067471, 39335.67277618322, 22768.112751020522, 18592.96334898035, 23900.92151175994, 187500.0, -4636.243538408701, 0.16, 0.96, -0.084, 192.0, 0.0, 0.0, 0.0, 0.0, 0.0, 0.0, 0.0, 0.0, 0.0, 1.72969078817823E9, 0.0, 2024-10-23 19:09:48.178
105.0, 26218.104507697168, 23027.527097168815, 39403.577375838446, 24051.304048455248, 18581.429848841413, 23968.84846315962, 187500.0, -4454.099172842404, 0.16, 0.96, -0.084, 192.0, 0.0, 0.0, 0.0, 0.0, 0.0, 0.0, 0.0, 0.0, 0.0, 1.7296907881822264E9, 0.0, 2024-10-23 19:09:48.182
106.0, 26192.601167273664, 23087.47447579795, 39408.42770438525, 24392.950462454613, 18581.318090119137, 23983.60061450012, 187500.0, -3940.0984573481633, 0.16, 0.96, -0.084, 192.0, 0.0, 0.0, 0.0, 0.0, 0.0, 0.0, 0.0, 0.0, 0.0, 1.7296907881863272E9, 0.0, 2024-10-23 19:09:48.186
107.0, 25979.72315308132, 23068.497844755395, 39372.17317487874, 23637.77442428761, 18595.220875170337, 23927.78830859522, 187500.0, -3877.5359246177586, 0.16, 0.96, -0.084, 192.0, 0.0, 0.0, 0.0, 0.0, 0.0, 0.0, 0.0, 0.0, 0.0, 1.7296907881912472E9, 0.0, 2024-10-23 19:09:48.191
108.0, 25880.190835021836, 23015.99359702988, 39339.74079367409, 23087.09449614221, 18583.642671542486, 23884.470627840834, 187500.0, -4154.988128541485, 0.156, 0.966, -0.088, 192.0, 4.0, 224.0, 30.0, 48.0, 253.0, 64.0, 0.0, 0.0, 0.0, 1.7296907881952384E9, 0.0, 2024-10-23 19:09:48.195
109.0, 25853.189927719824, 22946.43496828496, 39320.07125855342, 22756.31102994812, 18568.39878182397, 23862.901194441463, 187500.0, -4669.6817481138405, 0.156, 0.966, -0.088, 192.0, 0.0, 0.0, 0.0, 0.0, 0.0, 0.0, 0.0, 0.0, 0.0, 1.729690788199612E9, 0.0, 2024-10-23 19:09:48.199
110.0, 26198.65849002105, 22995.60880608664, 39388.73581752012, 24034.6743505805, 18567.34824983457, 23943.88156460304, 187500.0, -4497.707426274708, 0.156, 0.966, -0.088, 192.0, 0.0, 0.0, 0.0, 0.0, 0.0, 0.0, 0.0, 0.0, 0.0, 1.7296907882023103E9, 0.0, 2024-10-23 19:09:48.202
111.0, 26170.69645770746, 23050.45998697996, 39394.636678056326, 24366.709514464084, 18569.851645213563, 23956.577355453654, 187500.0, -3977.582332799713, 0.156, 0.966, -0.088, 192.0, 0.0, 0.0, 0.0, 0.0, 0.0, 0.0, 0.0, 0.0, 0.0, 1.7296907882098525E9, 0.0, 2024-10-23 19:09:48.209
112.0, 25959.13719643798, 23034.947876327977, 39354.157668847765, 23606.079650649983, 18557.781703207696, 23881.073162683628, 187500.0, -3931.3142217772274, 0.156, 0.966, -0.088, 192.0, 0.0, 0.0, 0.0, 0.0, 0.0, 0.0, 0.0, 0.0, 0.0, 1.7296907882102897E9, 0.0, 2024-10-23 19:09:48.210
113.0, 25871.004268050703, 22995.98878574238, 39337.34915701737, 23073.9963738914, 18570.835121969598, 23895.66885181294, 187500.0, -4216.321315326848, 0.156, 0.966, -0.088, 192.0, 0.0, 0.0, 0.0, 0.0, 0.0, 0.0, 0.0, 0.0, 0.0, 1.729690788214293E9, 0.0, 2024-10-23 19:09:48.214
114.0, 25858.084959755535, 22941.517584504796, 39332.09649707037, 22768.962117309824, 18573.986717937794, 23891.131447688516, 187500.0, -4739.88857744796, 0.156, 0.966, -0.088, 192.0, 0.0, 0.0, 0.0, 0.0, 0.0, 0.0, 0.0, 0.0, 0.0, 1.7296907882192738E9, 0.0, 2024-10-23 19:09:48.219
115.0, 26203.665280779038, 22994.290053163775, 39398.90586124729, 24056.646115380063, 18567.795284723674, 23958.879585132552, 187500.0, -4527.412894655811, 0.156, 0.966, -0.088, 192.0, 0.0, 0.0, 0.0, 0.0, 0.0, 0.0, 0.0, 0.0, 0.0, 1.7296907882232573E9, 0.0, 2024-10-23 19:09:48.223
116.0, 26171.299954807753, 23054.460949237462, 39399.55406183649, 24377.594814013817, 18562.25205209876, 23932.21395399737, 187500.0, -3996.357798142171, 0.156, 0.966, -0.088, 192.0, 0.0, 0.0, 0.0, 0.0, 0.0, 0.0, 0.0, 0.0, 0.0, 1.7296907882272656E9, 0.0, 2024-10-23 19:09:48.227
117.0, 25971.72122856632, 23051.666981180548, 39372.061416156466, 23634.891049252874, 18584.894369231984, 23927.20716323938, 187500.0, -3940.2772713038057, 0.156, 0.966, -0.088, 192.0, 0.0, 0.0, 0.0, 0.0, 0.0, 0.0, 0.0, 0.0, 0.0, 1.7296907882302995E9, 0.0, 2024-10-23 19:09:48.230
118.0, 25885.73406764675, 23017.871143564123, 39358.15863110526, 23110.47442084246, 18600.317072906146, 23974.83873067364, 187500.0, -4208.0735216228395, 0.156, 0.966, -0.088, 192.0, 0.0, 0.0, 0.0, 0.0, 0.0, 0.0, 0.0, 0.0, 0.0, 1.7296907882343817E9, 0.0, 2024-10-23 19:09:48.234
119.0, 25867.204471493304, 22960.11423589161, 39341.95361637516, 22789.726887908804, 18587.576578566623, 23924.144974249004, 187500.0, -4749.7456967527505, 0.154, 0.962, -0.08600000000000001, 192.0, 4.0, 208.0, 30.0, 16.0, 253.0, 80.0, 0.0, 0.0, 0.0, 1.7296907882383018E9, 0.0, 2024-10-23 19:09:48.238
120.0, 26212.516571583343, 23013.758422584346, 39407.66774507377, 24073.946365588472, 18582.16745640844, 23967.619117214577, 187500.0, -4574.217447545225, 0.154, 0.962, -0.08600000000000001, 192.0, 0.0, 0.0, 0.0, 0.0, 0.0, 0.0, 0.0, 0.0, 0.0, 1.7296907882423053E9, 0.0, 2024-10-23 19:09:48.242
121.0, 26182.81110320224, 23073.482283768928, 39414.37326841036, 24399.767744513483, 18600.361776395057, 23989.99321341434, 187500.0, -4031.6064991481903, 0.154, 0.962, -0.08600000000000001, 192.0, 0.0, 0.0, 0.0, 0.0, 0.0, 0.0, 0.0, 0.0, 0.0, 1.729690788248372E9, 0.0, 2024-10-23 19:09:48.248
122.0, 25972.816464044627, 23061.166472574052, 39371.010884167066, 23641.037778978083, 18580.222854640826, 23946.675532659952, 187500.0, -3976.97883569942, 0.154, 0.962, -0.08600000000000001, 192.0, 0.0, 0.0, 0.0, 0.0, 0.0, 0.0, 0.0, 0.0, 0.0, 1.7296907882514987E9, 0.0, 2024-10-23 19:09:48.251
123.0, 25882.49306470073, 23020.799222087768, 39340.4336977522, 23098.71740325897, 18565.783627722696, 23906.53179961822, 187500.0, -4249.848932009809, 0.154, 0.962, -0.08600000000000001, 192.0, 0.0, 0.0, 0.0, 0.0, 0.0, 0.0, 0.0, 0.0, 0.0, 1.7296907882554488E9, 0.0, 2024-10-23 19:09:48.255
124.0, 25871.920689573373, 22967.89264296206, 39333.90698837125, 22788.922225108414, 18574.746677249273, 23895.937072746405, 187500.0, -4756.250054389245, 0.154, 0.962, -0.08600000000000001, 192.0, 0.0, 0.0, 0.0, 0.0, 0.0, 0.0, 0.0, 0.0, 0.0, 1.7296907882585752E9, 0.0, 2024-10-23 19:09:48.258
125.0, 26217.076327452225, 23023.436727933495, 39407.980669496144, 24074.818083622227, 18584.44733434288, 23961.27122178927, 187500.0, -4572.071680077515, 0.154, 0.962, -0.08600000000000001, 192.0, 0.0, 0.0, 0.0, 0.0, 0.0, 0.0, 0.0, 0.0, 0.0, 1.7296907882623422E9, 0.0, 2024-10-23 19:09:48.262
126.0, 26189.918957939026, 23079.539606516315, 39419.581224868445, 24388.748334497017, 18597.321939149137, 23945.26737275927, 187500.0, -4049.711412156989, 0.154, 0.962, -0.08600000000000001, 192.0, 0.0, 0.0, 0.0, 0.0, 0.0, 0.0, 0.0, 0.0, 0.0, 1.729690788266615E9, 0.0, 2024-10-23 19:09:48.266
127.0, 25982.271251949223, 23066.75440868788, 39382.85730872838, 23633.01350271863, 18597.52310484923, 23925.821355083153, 187500.0, -3990.0546062057742, 0.154, 0.962, -0.08600000000000001, 192.0, 0.0, 0.0, 0.0, 0.0, 0.0, 0.0, 0.0, 0.0, 0.0, 1.7296907882705052E9, 0.0, 2024-10-23 19:09:48.270
128.0, 25888.528035703665, 23023.92846631151, 39360.1926398507, 23088.14502813161, 18599.423003127933, 23906.308282173668, 187500.0, -4291.892563330241, 0.154, 0.962, -0.08600000000000001, 192.0, 0.0, 0.0, 0.0, 0.0, 0.0, 0.0, 0.0, 0.0, 0.0, 1.7296907882753687E9, 0.0, 2024-10-23 19:09:48.275
129.0, 25870.043143039125, 22960.31540159171, 39345.127564087816, 22782.64138491647, 18586.570750066134, 23908.275235685735, 187500.0, -4812.151767271968, 0.152, 0.966, -0.08600000000000001, 192.0, 4.0, 192.0, 30.0, 48.0, 253.0, 80.0, 0.0, 0.0, 0.0, 1.7296907882794423E9, 0.0, 2024-10-23 19:09:48.279
130.0, 26210.393155860085, 23013.624312117616, 39409.724105563655, 24077.589699934688, 18571.4833225588, 23972.380038783558, 187500.0, -4611.746026485685, 0.152, 0.966, -0.08600000000000001, 192.0, 0.0, 0.0, 0.0, 0.0, 0.0, 0.0, 0.0, 0.0, 0.0, 1.7296907882834325E9, 0.0, 2024-10-23 19:09:48.283
131.0, 26181.3805915571, 23072.543510501804, 39423.51513189258, 24398.560750312896, 18590.16938092344, 23976.962146396894, 187500.0, -4080.1097846162065, 0.152, 0.966, -0.08600000000000001, 192.0, 0.0, 0.0, 0.0, 0.0, 0.0, 0.0, 0.0, 0.0, 0.0, 1.729690788286379E9, 0.0, 2024-10-23 19:09:48.286
132.0, 25977.107998980046, 23057.567841716747, 39391.552137321494, 23642.311828412036, 18595.82437227063, 23929.621151640553, 187500.0, -4010.260583193372, 0.152, 0.966, -0.08600000000000001, 192.0, 0.0, 0.0, 0.0, 0.0, 0.0, 0.0, 0.0, 0.0, 0.0, 1.729690788290381E9, 0.0, 2024-10-23 19:09:48.290
133.0, 25876.92748033136, 23001.55437011175, 39354.89527641479, 23089.396725821105, 18575.260767371747, 23873.562976546644, 187500.0, -4292.2501912415255, 0.152, 0.966, -0.08600000000000001, 192.0, 0.0, 0.0, 0.0, 0.0, 0.0, 0.0, 0.0, 0.0, 0.0, 1.729690788294388E9, 0.0, 2024-10-23 19:09:48.294
134.0, 25862.667067368875, 22938.72361644788, 39347.34038678889, 22782.529626194195, 18591.44343035739, 23892.316090144646, 187500.0, -4797.712540353839, 0.152, 0.966, -0.08600000000000001, 192.0, 0.0, 0.0, 0.0, 0.0, 0.0, 0.0, 0.0, 0.0, 0.0, 1.7296907882984188E9, 0.0, 2024-10-23 19:09:48.298
135.0, 26209.789658759793, 22995.720564808915, 39422.12932373635, 24081.590662192186, 18596.070241459638, 23987.80274245772, 187500.0, -4610.4496253072775, 0.152, 0.966, -0.08600000000000001, 192.0, 0.0, 0.0, 0.0, 0.0, 0.0, 0.0, 0.0, 0.0, 0.0, 1.7296907883023813E9, 0.0, 2024-10-23 19:09:48.302
136.0, 26170.2270710739, 23050.482338724418, 39419.11183823489, 24386.937843196138, 18587.397764610978, 23992.876588449075, 187500.0, -4091.732691732966, 0.152, 0.966, -0.08600000000000001, 192.0, 0.0, 0.0, 0.0, 0.0, 0.0, 0.0, 0.0, 0.0, 0.0, 1.7296907883073895E9, 0.0, 2024-10-23 19:09:48.307
137.0, 25958.93603073788, 23033.115033282644, 39374.7436254911, 23621.323540368503, 18583.53091282021, 23941.91461109097, 187500.0, -4044.414048721081, 0.152, 0.966, -0.08600000000000001, 192.0, 0.0, 0.0, 0.0, 0.0, 0.0, 0.0, 0.0, 0.0, 0.0, 1.7296907883114212E9, 0.0, 2024-10-23 19:09:48.311
138.0, 25871.272488984167, 22995.60880608664, 39355.610532237355, 23077.818522193258, 18591.465782101845, 23911.091555487106, 187500.0, -4334.562043495422, 0.152, 0.966, -0.08600000000000001, 192.0, 0.0, 0.0, 0.0, 0.0, 0.0, 0.0, 0.0, 0.0, 0.0, 1.7296907883144248E9, 0.0, 2024-10-23 19:09:48.314
139.0, 25864.96929704777, 22943.372779294587, 39349.35204378987, 22781.188521526878, 18594.706785047863, 23922.960331792874, 187500.0, -4878.089413415124, 0.152, 0.966, -0.08, 192.0, 4.0, 192.0, 30.0, 48.0, 253.0, 128.0, 0.0, 0.0, 0.0, 1.7296907883183928E9, 0.0, 2024-10-23 19:09:48.318
140.0, 26207.599187803175, 22989.93146299499, 39408.673573574255, 24074.23693826639, 18575.4842848163, 23949.514204205778, 187500.0, -4657.231826452235, 0.152, 0.966, -0.08, 192.0, 0.0, 0.0, 0.0, 0.0, 0.0, 0.0, 0.0, 0.0, 0.0, 1.729690788322395E9, 0.0, 2024-10-23 19:09:48.322
141.0, 26168.75185593985, 23040.42405371953, 39405.20905318369, 24364.96607839657, 18561.067409642626, 23947.524898949254, 187500.0, -4107.71418901851, 0.152, 0.966, -0.08, 192.0, 0.0, 0.0, 0.0, 0.0, 0.0, 0.0, 0.0, 0.0, 0.0, 1.7296907883264997E9, 0.0, 2024-10-23 19:09:48.326
142.0, 25962.311144150633, 23025.001350045368, 39363.388939307806, 23594.635557488866, 18557.11115087404, 23900.92151175994, 187500.0, -4048.973804589964, 0.152, 0.966, -0.08, 192.0, 0.0, 0.0, 0.0, 0.0, 0.0, 0.0, 0.0, 0.0, 0.0, 1.7296907883314335E9, 0.0, 2024-10-23 19:09:48.331
143.0, 25873.552366918608, 22985.997555970855, 39341.26071229705, 23050.683504424516, 18565.381296322503, 23875.127598658517, 187500.0, -4335.277299317992, 0.152, 0.966, -0.08, 192.0, 0.0, 0.0, 0.0, 0.0, 0.0, 0.0, 0.0, 0.0, 0.0, 1.72969078833543E9, 0.0, 2024-10-23 19:09:48.335
144.0, 25868.478520927256, 22934.141508834542, 39336.58919770589, 22760.31199220562, 18571.975060936817, 23889.611529065554, 187500.0, -4863.001985907792, 0.152, 0.966, -0.08, 192.0, 0.0, 0.0, 0.0, 0.0, 0.0, 0.0, 0.0, 0.0, 0.0, 1.72969078833944E9, 0.0, 2024-10-23 19:09:48.339
145.0, 26216.80810651876, 22991.51843685132, 39409.433532885734, 24070.280679497802, 18577.00420343926, 23962.88054739005, 187500.0, -4650.414544393367, 0.152, 0.966, -0.08, 192.0, 0.0, 0.0, 0.0, 0.0, 0.0, 0.0, 0.0, 0.0, 0.0, 1.7296907883424296E9, 0.0, 2024-10-23 19:09:48.342
146.0, 26174.965640898426, 23040.312294997253, 39407.31011716248, 24361.92624115065, 18576.668927272432, 23969.295498048723, 187500.0, -4125.81910202731, 0.152, 0.966, -0.08, 192.0, 0.0, 0.0, 0.0, 0.0, 0.0, 0.0, 0.0, 0.0, 0.0, 1.7296907883464465E9, 0.0, 2024-10-23 19:09:48.346
147.0, 25970.91656576593, 23028.242352991387, 39372.6425615123, 23601.34108082546, 18582.34627036408, 23940.97583782385, 187500.0, -4074.6559589691115, 0.152, 0.966, -0.08, 192.0, 0.0, 0.0, 0.0, 0.0, 0.0, 0.0, 0.0, 0.0, 0.0, 1.7296907883504775E9, 0.0, 2024-10-23 19:09:48.350
148.0, 25881.867215855982, 22984.589396070172, 39342.22183730863, 23056.964344616455, 18559.078104386106, 23903.201389694383, 187500.0, -4369.251950890059, 0.152, 0.966, -0.08, 192.0, 0.0, 0.0, 0.0, 0.0, 0.0, 0.0, 0.0, 0.0, 0.0, 1.7296907883565974E9, 0.0, 2024-10-23 19:09:48.356
149.0, 25869.484349427745, 22921.132793561555, 39320.54064518698, 22763.865919574015, 18530.020836594205, 23883.97888946282, 187500.0, -4885.331378618644, 0.15, 0.97, -0.08600000000000001, 192.0, 4.0, 176.0, 30.0, 80.0, 253.0, 80.0, 0.0, 0.0, 0.0, 1.7296907883594584E9, 0.0, 2024-10-23 19:09:48.359
150.0, 26215.779926273815, 22978.576776811693, 39397.6988670467, 24076.270947011824, 18569.24814811327, 23933.197430753404, 187500.0, -4659.668166597863, 0.15, 0.97, -0.08600000000000001, 192.0, 0.0, 0.0, 0.0, 0.0, 0.0, 0.0, 0.0, 0.0, 0.0, 1.7296907883634973E9, 0.0, 2024-10-23 19:09:48.363
151.0, 26180.285356078788, 23040.46875720844, 39402.97387873815, 24375.292584334922, 18566.834159712096, 23951.63761992903, 187500.0, -4141.219453957016, 0.15, 0.97, -0.08600000000000001, 192.0, 0.0, 0.0, 0.0, 0.0, 0.0, 0.0, 0.0, 0.0, 0.0, 1.7296907883675003E9, 0.0, 2024-10-23 19:09:48.367
152.0, 25971.47535937731, 23029.047015791777, 39358.136279360806, 23619.781270001087, 18550.4279792819, 23956.577355453654, 187500.0, -4117.303087389838, 0.15, 0.97, -0.08600000000000001, 192.0, 0.0, 0.0, 0.0, 0.0, 0.0, 0.0, 0.0, 0.0, 0.0, 1.7296907883714993E9, 0.0, 2024-10-23 19:09:48.371
153.0, 25876.346334975522, 22981.92953847999, 39337.75148841757, 23080.72424897245, 18582.10040117507, 23914.757241577776, 187500.0, -4408.4122071757565, 0.15, 0.97, -0.08600000000000001, 192.0, 0.0, 0.0, 0.0, 0.0, 0.0, 0.0, 0.0, 0.0, 0.0, 1.7296907883744867E9, 0.0, 2024-10-23 19:09:48.374
154.0, 25867.78561684914, 22921.222200539378, 39332.52118021502, 22798.533475224194, 18586.2354738993, 23903.134334461014, 187500.0, -4915.930916777958, 0.15, 0.97, -0.08600000000000001, 192.0, 0.0, 0.0, 0.0, 0.0, 0.0, 0.0, 0.0, 0.0, 0.0, 1.729690788378513E9, 0.0, 2024-10-23 19:09:48.378
155.0, 26203.061783678746, 22971.915956964014, 39394.01082921158, 24100.611996723652, 18592.136334435505, 23975.151655096015, 187500.0, -4680.455288941299, 0.15, 0.97, -0.08600000000000001, 192.0, 0.0, 0.0, 0.0, 0.0, 0.0, 0.0, 0.0, 0.0, 0.0, 1.729690788382534E9, 0.0, 2024-10-23 19:09:48.382
156.0, 26161.55459422524, 23026.47656517942, 39398.59293682491, 24393.375145599264, 18611.604703856076, 23987.914501179996, 187500.0, -4141.755895823943, 0.15, 0.97, -0.08600000000000001, 192.0, 0.0, 0.0, 0.0, 0.0, 0.0, 0.0, 0.0, 0.0, 0.0, 1.7296907883865497E9, 0.0, 2024-10-23 19:09:48.386
157.0, 25955.583269069586, 23014.048995262267, 39356.90693341577, 23634.309903897036, 18604.094517719095, 23950.98941933983, 187500.0, -4107.155395407128, 0.15, 0.97, -0.08600000000000001, 192.0, 0.0, 0.0, 0.0, 0.0, 0.0, 0.0, 0.0, 0.0, 0.0, 1.7296907883915212E9, 0.0, 2024-10-23 19:09:48.391
158.0, 25863.22586098026, 22970.06076217422, 39343.62999720931, 23101.04198468232, 18634.694055878408, 23924.323788204645, 187500.0, -4406.691122852698, 0.15, 0.97, -0.08600000000000001, 192.0, 0.0, 0.0, 0.0, 0.0, 0.0, 0.0, 0.0, 0.0, 0.0, 1.7296907883965464E9, 0.0, 2024-10-23 19:09:48.396
159.0, 25849.92657302935, 22906.96178757689, 39323.28990975498, 22820.371129557032, 18611.202372455882, 23914.466668899855, 187500.0, -4926.011553527303, 0.156, 0.96, -0.08600000000000001, 192.0, 4.0, 224.0, 30.0, 0.0, 253.0, 80.0, 0.0, 0.0, 0.0, 1.7296907884005635E9, 0.0, 2024-10-23 19:09:48.400
160.0, 26190.678917250505, 22961.187119625465, 39387.37236110835, 24127.501145303388, 18615.516259135755, 23982.952413910916, 187500.0, -4701.085949073547, 0.156, 0.96, -0.08600000000000001, 192.0, 0.0, 0.0, 0.0, 0.0, 0.0, 0.0, 0.0, 0.0, 0.0, 1.729690788403577E9, 0.0, 2024-10-23 19:09:48.403
161.0, 26154.156166810535, 23018.586399386695, 39399.46465485867, 24410.094250451835, 18650.4520357194, 23989.99321341434, 187500.0, -4185.408852745158, 0.156, 0.96, -0.08600000000000001, 192.0, 0.0, 0.0, 0.0, 0.0, 0.0, 0.0, 0.0, 0.0, 0.0, 1.7296907884065886E9, 0.0, 2024-10-23 19:09:48.406
162.0, 25946.195536398358, 22999.676823577505, 39349.10617460086, 23650.20199420476, 18631.385997699024, 23951.704675162397, 187500.0, -4143.3875731691805, 0.156, 0.96, -0.08600000000000001, 192.0, 0.0, 0.0, 0.0, 0.0, 0.0, 0.0, 0.0, 0.0, 0.0, 1.7296907884105918E9, 0.0, 2024-10-23 19:09:48.410
163.0, 25849.948924773806, 22954.794520711246, 39319.9818515756, 23109.24507489742, 18634.448186689402, 23923.16149749297, 187500.0, -4435.21194877767, 0.156, 0.96, -0.08600000000000001, 192.0, 0.0, 0.0, 0.0, 0.0, 0.0, 0.0, 0.0, 0.0, 0.0, 1.729690788414544E9, 0.0, 2024-10-23 19:09:48.414
164.0, 25843.64573283741, 22896.165895004975, 39303.21804323412, 22830.74233898429, 18624.166384239958, 23905.660081584465, 187500.0, -4950.062030561213, 0.156, 0.96, -0.08600000000000001, 192.0, 0.0, 0.0, 0.0, 0.0, 0.0, 0.0, 0.0, 0.0, 0.0, 1.7296907884195163E9, 0.0, 2024-10-23 19:09:48.419
165.0, 26149.372893497097, 22944.40095953953, 39356.236381082104, 24021.4197661185, 18614.4433754019, 23951.92819260695, 187500.0, -4754.931301466382, 0.156, 0.96, -0.08600000000000001, 192.0, 0.0, 0.0, 0.0, 0.0, 0.0, 0.0, 0.0, 0.0, 0.0, 1.7296907884235852E9, 0.0, 2024-10-23 19:09:48.423
166.0, 26150.26696327531, 23001.084983478187, 39361.131413117815, 24347.554069465885, 18612.990512012304, 23953.984553096838, 187500.0, -4289.769147606987, 0.156, 0.96, -0.08600000000000001, 192.0, 0.0, 0.0, 0.0, 0.0, 0.0, 0.0, 0.0, 0.0, 0.0, 1.729690788426643E9, 0.0, 2024-10-23 19:09:48.426
167.0, 25968.457873875843, 22999.31919566622, 39325.39097373378, 23716.385509536925, 18612.476421889834, 23920.72515734734, 187500.0, -4176.334044496303, 0.156, 0.96, -0.08600000000000001, 192.0, 0.0, 0.0, 0.0, 0.0, 0.0, 0.0, 0.0, 0.0, 0.0, 1.7296907884305842E9, 0.0, 2024-10-23 19:09:48.430
168.0, 25866.578622648554, 22958.39315156855, 39291.796301817456, 23133.787290309345, 18604.608607841565, 23889.34330813209, 187500.0, -4437.916509856762, 0.156, 0.96, -0.08600000000000001, 192.0, 0.0, 0.0, 0.0, 0.0, 0.0, 0.0, 0.0, 0.0, 0.0, 1.7296907884346025E9, 0.0, 2024-10-23 19:09:48.434
169.0, 25874.044105296627, 22906.87238059907, 39277.20061268814, 22910.381604478553, 18588.627110556023, 23864.085836897593, 187500.0, -4876.211866880878, 0.15, 0.9560000000000001, -0.088, 192.0, 4.0, 176.0, 29.0, 224.0, 253.0, 64.0, 0.0, 0.0, 0.0, 1.7296907884385684E9, 0.0, 2024-10-23 19:09:48.438
170.0, 26129.703358376428, 22948.133700863567, 39329.92837785821, 23935.901991832496, 18603.423965385435, 23909.906913030973, 187500.0, -4708.864356143994, 0.15, 0.9560000000000001, -0.088, 192.0, 0.0, 0.0, 0.0, 0.0, 0.0, 0.0, 0.0, 0.0, 0.0, 1.7296907884426153E9, 0.0, 2024-10-23 19:09:48.442
171.0, 26140.521602692796, 23002.448439889962, 39346.379261777314, 24249.65342875164, 18620.41129117147, 23953.045779829718, 187500.0, -4268.445583396624, 0.15, 0.9560000000000001, -0.088, 192.0, 0.0, 0.0, 0.0, 0.0, 0.0, 0.0, 0.0, 0.0, 0.0, 1.7296907884466224E9, 0.0, 2024-10-23 19:09:48.446
172.0, 25959.628934815995, 22990.31144265073, 39301.228737977595, 23646.245735436172, 18596.405517626466, 23897.68050881392, 187500.0, -4167.236884502993, 0.15, 0.9560000000000001, -0.088, 192.0, 0.0, 0.0, 0.0, 0.0, 0.0, 0.0, 0.0, 0.0, 0.0, 1.729690788451672E9, 0.0, 2024-10-23 19:09:48.451
173.0, 25865.751608103707, 22951.39705555404, 39275.9712667431, 23086.021612408356, 18593.320976891635, 23849.221926834816, 187500.0, -4440.978698847139, 0.15, 0.9560000000000001, -0.088, 192.0, 0.0, 0.0, 0.0, 0.0, 0.0, 0.0, 0.0, 0.0, 0.0, 1.7296907884545922E9, 0.0, 2024-10-23 19:09:48.454
174.0, 25879.497930943722, 22900.658595640492, 39272.48439460807, 22888.834522823636, 18605.21210494186, 23856.15096761596, 187500.0, -4859.716279472862, 0.15, 0.9560000000000001, -0.088, 192.0, 0.0, 0.0, 0.0, 0.0, 0.0, 0.0, 0.0, 0.0, 0.0, 1.7296907884586232E9, 0.0, 2024-10-23 19:09:48.458
175.0, 26132.564381666707, 22936.846069913634, 39322.99933707707, 23917.752375334785, 18602.641654329498, 23883.889482484996, 187500.0, -4689.708911145796, 0.15, 0.9560000000000001, -0.088, 192.0, 0.0, 0.0, 0.0, 0.0, 0.0, 0.0, 0.0, 0.0, 0.0, 1.729690788462606E9, 0.0, 2024-10-23 19:09:48.462
176.0, 26138.2193730139, 22984.209416414433, 39339.02553785152, 24225.17826857308, 18617.393805670003, 23903.380203650024, 187500.0, -4265.696318828621, 0.15, 0.9560000000000001, -0.088, 192.0, 0.0, 0.0, 0.0, 0.0, 0.0, 0.0, 0.0, 0.0, 0.0, 1.729690788466653E9, 0.0, 2024-10-23 19:09:48.466
177.0, 25964.881594762996, 22976.006326199335, 39311.06350553793, 23642.28947666758, 18611.805869556174, 23902.977872249827, 187500.0, -4163.034756545396, 0.15, 0.9560000000000001, -0.088, 192.0, 0.0, 0.0, 0.0, 0.0, 0.0, 0.0, 0.0, 0.0, 0.0, 1.7296907884707468E9, 0.0, 2024-10-23 19:09:48.470
178.0, 25867.74091336023, 22930.542877977237, 39282.38621740177, 23092.704784000493, 18587.375412866524, 23871.037229423193, 187500.0, -4416.503538668578, 0.15, 0.9560000000000001, -0.088, 192.0, 0.0, 0.0, 0.0, 0.0, 0.0, 0.0, 0.0, 0.0, 0.0, 1.72969078847474E9, 0.0, 2024-10-23 19:09:48.474
179.0, 25883.16361703439, 22879.11151398558, 39281.089816223364, 22900.68094738495, 18603.87100027454, 23840.728263941797, 187500.0, -4845.075886854635, 0.16, 0.96, -0.082, 192.0, 5.0, 0.0, 30.0, 0.0, 253.0, 112.0, 0.0, 0.0, 0.0, 1.729690788479653E9, 0.0, 2024-10-23 19:09:48.479
180.0, 26143.628495172085, 22924.01616859629, 39351.02842462402, 23949.089521061127, 18635.45401518989, 23917.953541034884, 187500.0, -4685.0597482990925, 0.16, 0.96, -0.082, 192.0, 0.0, 0.0, 0.0, 0.0, 0.0, 0.0, 0.0, 0.0, 0.0, 1.7296907884826229E9, 0.0, 2024-10-23 19:09:48.482
181.0, 26153.507966221332, 22974.26289013182, 39368.70865448817, 24269.501777827954, 18645.132320539036, 23979.13026560906, 187500.0, -4268.333824674347, 0.16, 0.96, -0.082, 192.0, 0.0, 0.0, 0.0, 0.0, 0.0, 0.0, 0.0, 0.0, 0.0, 1.7296907884866266E9, 0.0, 2024-10-23 19:09:48.486
182.0, 25979.074952492116, 22965.299840605243, 39335.73983141659, 23674.72185787223, 18640.572564670154, 23948.217803027368, 187500.0, -4172.556599683357, 0.16, 0.96, -0.082, 192.0, 0.0, 0.0, 0.0, 0.0, 0.0, 0.0, 0.0, 0.0, 0.0, 1.729690788490641E9, 0.0, 2024-10-23 19:09:48.490
183.0, 25878.492102443233, 22918.137659804543, 39307.107246769345, 23118.81162152429, 18629.888430820516, 23886.035249952707, 187500.0, -4436.865977867363, 0.16, 0.96, -0.082, 192.0, 0.0, 0.0, 0.0, 0.0, 0.0, 0.0, 0.0, 0.0, 0.0, 1.7296907884946568E9, 0.0, 2024-10-23 19:09:48.494
184.0, 25887.70102115882, 22869.410856891973, 39302.45808392264, 22925.91606687499, 18626.35685519658, 23876.513406814745, 187500.0, -4861.593826007107, 0.16, 0.96, -0.082, 192.0, 0.0, 0.0, 0.0, 0.0, 0.0, 0.0, 0.0, 0.0, 0.0, 1.7296907884986868E9, 0.0, 2024-10-23 19:09:48.498
185.0, 26148.724692907894, 22918.629398182562, 39364.59593350839, 23976.850387674618, 18634.045855289205, 23982.326565066167, 187500.0, -4686.087928544036, 0.16, 0.96, -0.082, 192.0, 0.0, 0.0, 0.0, 0.0, 0.0, 0.0, 0.0, 0.0, 0.0, 1.729690788502709E9, 0.0, 2024-10-23 19:09:48.502
186.0, 26154.89377437756, 22969.814892985214, 39382.85730872838, 24283.94100474608, 18663.79602715922, 23986.70750697941, 187500.0, -4246.250301152504, 0.16, 0.96, -0.082, 192.0, 0.0, 0.0, 0.0, 0.0, 0.0, 0.0, 0.0, 0.0, 0.0, 1.7296907885077083E9, 0.0, 2024-10-23 19:09:48.507
187.0, 25977.398571657966, 22963.087017904167, 39348.68149145621, 23684.22134926574, 18654.050666576706, 23944.954448336895, 187500.0, -4157.312709964837, 0.16, 0.96, -0.082, 192.0, 0.0, 0.0, 0.0, 0.0, 0.0, 0.0, 0.0, 0.0, 0.0, 1.7296907885106945E9, 0.0, 2024-10-23 19:09:48.510
188.0, 25877.821550109573, 22920.126965061067, 39313.253976494554, 23132.893220531132, 18629.486099420323, 23930.917552818963, 187500.0, -4438.095323812405, 0.16, 0.96, -0.082, 192.0, 0.0, 0.0, 0.0, 0.0, 0.0, 0.0, 0.0, 0.0, 0.0, 1.7296907885146875E9, 0.0, 2024-10-23 19:09:48.514
189.0, 25895.524131718175, 22875.423476150452, 39310.77293286001, 22944.57977349517, 18643.03125656024, 23909.906913030973, 187500.0, -4864.34309057511, 0.15, 0.962, -0.084, 192.0, 4.0, 176.0, 30.0, 16.0, 253.0, 96.0, 0.0, 0.0, 0.0, 1.7296907885188177E9, 0.0, 2024-10-23 19:09:48.518
190.0, 26153.306800521234, 22921.57982845066, 39363.32188407444, 23984.65114648952, 18634.448186689402, 23954.40923624149, 187500.0, -4706.159795064902, 0.15, 0.962, -0.084, 192.0, 0.0, 0.0, 0.0, 0.0, 0.0, 0.0, 0.0, 0.0, 0.0, 1.7296907885227036E9, 0.0, 2024-10-23 19:09:48.522
191.0, 26151.071626075704, 22962.30470684823, 39361.913724173755, 24276.85550175375, 18623.4958319063, 23954.40923624149, 187500.0, -4284.628246382266, 0.15, 0.962, -0.084, 192.0, 0.0, 0.0, 0.0, 0.0, 0.0, 0.0, 0.0, 0.0, 0.0, 1.7296907885267997E9, 0.0, 2024-10-23 19:09:48.526
192.0, 25973.397609400465, 22951.374703809586, 39328.54256970198, 23670.00563979216, 18621.886506305516, 23917.215933467858, 187500.0, -4172.9142275946415, 0.15, 0.962, -0.084, 192.0, 0.0, 0.0, 0.0, 0.0, 0.0, 0.0, 0.0, 0.0, 0.0, 1.729690788530691E9, 0.0, 2024-10-23 19:09:48.530
193.0, 25877.59803266502, 22908.0570230552, 39299.753522843544, 23111.681415043047, 18614.26456144626, 23891.95846223336, 187500.0, -4442.073934325449, 0.15, 0.962, -0.084, 192.0, 0.0, 0.0, 0.0, 0.0, 0.0, 0.0, 0.0, 0.0, 0.0, 1.72969078853567E9, 0.0, 2024-10-23 19:09:48.535
194.0, 25898.385155008455, 22865.67811556794, 39295.03730476348, 22926.497212230828, 18618.48904114831, 23885.163531918948, 187500.0, -4868.411108065976, 0.15, 0.962, -0.084, 192.0, 0.0, 0.0, 0.0, 0.0, 0.0, 0.0, 0.0, 0.0, 0.0, 1.7296907885386696E9, 0.0, 2024-10-23 19:09:48.538
195.0, 26153.306800521234, 22908.9063893445, 39343.29472104248, 23965.003963113304, 18624.948695295894, 23938.517145933765, 187500.0, -4698.694312416829, 0.15, 0.962, -0.084, 192.0, 0.0, 0.0, 0.0, 0.0, 0.0, 0.0, 0.0, 0.0, 0.0, 1.7296907885426924E9, 0.0, 2024-10-23 19:09:48.542
196.0, 26151.496309220354, 22957.677895745983, 39349.195581578686, 24254.347295087256, 18630.603686643088, 23962.299402034212, 187500.0, -4274.927589288663, 0.15, 0.962, -0.084, 192.0, 0.0, 0.0, 0.0, 0.0, 0.0, 0.0, 0.0, 0.0, 0.0, 1.729690788546743E9, 0.0, 2024-10-23 19:09:48.546
197.0, 25971.90004252196, 22948.223107841386, 39310.88469158229, 23643.6305813349, 18624.836936573618, 23922.26742771476, 187500.0, -4201.345646541792, 0.15, 0.962, -0.084, 192.0, 0.0, 0.0, 0.0, 0.0, 0.0, 0.0, 0.0, 0.0, 0.0, 1.7296907885507166E9, 0.0, 2024-10-23 19:09:48.550
198.0, 25868.702038371808, 22896.76939210527, 39271.90324925223, 23085.61928100816, 18608.095479976593, 23874.010011435752, 187500.0, -4449.628823951343, 0.15, 0.962, -0.084, 192.0, 0.0, 0.0, 0.0, 0.0, 0.0, 0.0, 0.0, 0.0, 0.0, 1.7296907885548294E9, 0.0, 2024-10-23 19:09:48.554
199.0, 25882.180140278357, 22847.43909209241, 39264.25895264852, 22891.650842625004, 18612.11879397855, 23858.117921128025, 187500.0, -4870.825096467149, 0.158, 0.97, -0.078, 192.0, 4.0, 240.0, 30.0, 80.0, 253.0, 144.0, 0.0, 0.0, 0.0, 1.7296907885588784E9, 0.0, 2024-10-23 19:09:48.558
200.0, 26134.71014913442, 22888.990985034823, 39309.0294967925, 23932.169250508457, 18596.67373855993, 23906.35298566258, 187500.0, -4696.92852460486, 0.158, 0.97, -0.078, 192.0, 0.0, 0.0, 0.0, 0.0, 0.0, 0.0, 0.0, 0.0, 0.0, 1.7296907885637872E9, 0.0, 2024-10-23 19:09:48.563
201.0, 26135.93949507946, 22941.78580543826, 39319.08778179739, 24223.79246041685, 18603.714538063352, 23939.92530583445, 187500.0, -4292.674874386176, 0.158, 0.97, -0.078, 192.0, 0.0, 0.0, 0.0, 0.0, 0.0, 0.0, 0.0, 0.0, 0.0, 1.7296907885668304E9, 0.0, 2024-10-23 19:09:48.566
202.0, 25962.132330194992, 22928.955904120914, 39293.85266230734, 23618.7754415006, 18625.887468563018, 23913.483192143824, 187500.0, -4221.484568296024, 0.158, 0.97, -0.078, 192.0, 0.0, 0.0, 0.0, 0.0, 0.0, 0.0, 0.0, 0.0, 0.0, 1.7296907885718853E9, 0.0, 2024-10-23 19:09:48.571
203.0, 25861.772997590662, 22873.27770868274, 39268.90811549522, 23064.675696453538, 18626.40155868549, 23843.365769787524, 187500.0, -4481.167135377781, 0.158, 0.97, -0.078, 192.0, 0.0, 0.0, 0.0, 0.0, 0.0, 0.0, 0.0, 0.0, 0.0, 1.7296907885748048E9, 0.0, 2024-10-23 19:09:48.574
204.0, 25874.714657630284, 22820.259370834752, 39262.53786832546, 22884.028897765744, 18613.035215501215, 23861.045999651673, 187500.0, -4895.389663623531, 0.158, 0.97, -0.078, 192.0, 0.0, 0.0, 0.0, 0.0, 0.0, 0.0, 0.0, 0.0, 0.0, 1.7296907885818772E9, 0.0, 2024-10-23 19:09:48.581
205.0, 26131.69266363295, 22865.186377189922, 39314.505674184045, 23930.35875920758, 18604.005110741273, 23942.98749482483, 187500.0, -4727.393952297443, 0.158, 0.97, -0.078, 192.0, 0.0, 0.0, 0.0, 0.0, 0.0, 0.0, 0.0, 0.0, 0.0, 1.7296907885848005E9, 0.0, 2024-10-23 19:09:48.584
206.0, 26138.35348348063, 22919.434060982952, 39331.157723803255, 24227.167573829603, 18619.941904537907, 23974.682268462453, 187500.0, -4321.888604389263, 0.158, 0.97, -0.078, 192.0, 0.0, 0.0, 0.0, 0.0, 0.0, 0.0, 0.0, 0.0, 0.0, 1.7296907885879257E9, 0.0, 2024-10-23 19:09:48.587
207.0, 25960.634763316484, 22907.45352595491, 39296.57957513089, 23629.90661023934, 18604.96623575285, 23954.677457174952, 187500.0, -4241.042344694418, 0.158, 0.97, -0.078, 192.0, 0.0, 0.0, 0.0, 0.0, 0.0, 0.0, 0.0, 0.0, 0.0, 1.7296907885919309E9, 0.0, 2024-10-23 19:09:48.591
208.0, 25854.620439364964, 22848.71314152636, 39263.05195844793, 23071.828254679236, 18593.700956547375, 23887.44340985339, 187500.0, -4512.951315993228, 0.158, 0.97, -0.078, 192.0, 0.0, 0.0, 0.0, 0.0, 0.0, 0.0, 0.0, 0.0, 0.0, 1.7296907885948226E9, 0.0, 2024-10-23 19:09:48.594
209.0, 25875.49696868622, 22796.387707756487, 39276.53006035448, 22899.608063651092, 18630.089596520615, 23871.730133501307, 187500.0, -4911.795844053727, 0.162, 0.96, -0.076, 192.0, 5.0, 16.0, 30.0, 0.0, 253.0, 160.0, 0.0, 0.0, 0.0, 1.729690788597808E9, 0.0, 2024-10-23 19:09:48.597
210.0, 26146.489518462364, 22855.955106729878, 39355.85640142637, 23956.5550037092, 18649.088579307627, 23957.583183954142, 187500.0, -4722.543623750642, 0.162, 0.96, -0.076, 192.0, 0.0, 0.0, 0.0, 0.0, 0.0, 0.0, 0.0, 0.0, 0.0, 1.7296907886028705E9, 0.0, 2024-10-23 19:09:48.602
211.0, 26148.83645163017, 22902.357328219096, 39367.83693645441, 24242.746739714952, 18649.826186874652, 23969.854291660107, 187500.0, -4276.358100933802, 0.162, 0.96, -0.076, 192.0, 0.0, 0.0, 0.0, 0.0, 0.0, 0.0, 0.0, 0.0, 0.0, 1.729690788606851E9, 0.0, 2024-10-23 19:09:48.606
212.0, 25967.94378375337, 22886.174665233455, 39331.38124124781, 23624.6763020368, 18641.578393170643, 23928.92824756244, 187500.0, -4186.928771368119, 0.162, 0.96, -0.076, 192.0, 0.0, 0.0, 0.0, 0.0, 0.0, 0.0, 0.0, 0.0, 0.0, 1.729690788610953E9, 0.0, 2024-10-23 19:09:48.610
213.0, 25869.3055354721, 22838.43133907692, 39301.295793210964, 23067.044981365798, 18627.697959863897, 23890.237377910304, 187500.0, -4467.107888115393, 0.162, 0.96, -0.076, 192.0, 0.0, 0.0, 0.0, 0.0, 0.0, 0.0, 0.0, 0.0, 0.0, 1.7296907886148295E9, 0.0, 2024-10-23 19:09:48.614
214.0, 25888.03629732565, 22789.682184419893, 39293.316220440414, 22890.57795889115, 18609.749509066285, 23877.76510450424, 187500.0, -4909.426559141464, 0.162, 0.96, -0.076, 192.0, 0.0, 0.0, 0.0, 0.0, 0.0, 0.0, 0.0, 0.0, 0.0, 1.729690788618896E9, 0.0, 2024-10-23 19:09:48.618
215.0, 26145.79661438425, 22837.067882665146, 39343.16061057575, 23938.584201167134, 18598.864209516552, 23923.541477148712, 187500.0, -4738.100437891536, 0.162, 0.96, -0.076, 192.0, 0.0, 0.0, 0.0, 0.0, 0.0, 0.0, 0.0, 0.0, 0.0, 1.7296907886228254E9, 0.0, 2024-10-23 19:09:48.622
216.0, 26146.198945784447, 22892.38845019203, 39352.79421243599, 24221.64669294914, 18603.222799685336, 23932.59393365311, 187500.0, -4309.595144938844, 0.162, 0.96, -0.076, 192.0, 0.0, 0.0, 0.0, 0.0, 0.0, 0.0, 0.0, 0.0, 0.0, 1.729690788625991E9, 0.0, 2024-10-23 19:09:48.625
217.0, 25968.100245964557, 22887.04638326721, 39317.59021491888, 23607.979548928684, 18604.072165974638, 23900.742697804297, 187500.0, -4248.306661642392, 0.162, 0.96, -0.076, 192.0, 0.0, 0.0, 0.0, 0.0, 0.0, 0.0, 0.0, 0.0, 0.0, 1.729690788630826E9, 0.0, 2024-10-23 19:09:48.630
218.0, 25865.59514589252, 22839.772443744238, 39285.00137150304, 23055.444425993493, 18597.232532171314, 23870.411380578447, 187500.0, -4508.838595013452, 0.162, 0.96, -0.076, 192.0, 0.0, 0.0, 0.0, 0.0, 0.0, 0.0, 0.0, 0.0, 0.0, 1.7296907886348772E9, 0.0, 2024-10-23 19:09:48.634
219.0, 25885.264681013192, 22797.952329868356, 39283.190880202164, 22882.508979142785, 18596.137296693003, 23870.791360234187, 187500.0, -4937.075667032679, 0.162, 0.964, -0.076, 192.0, 5.0, 16.0, 30.0, 32.0, 253.0, 160.0, 0.0, 0.0, 0.0, 1.729690788638873E9, 0.0, 2024-10-23 19:09:48.638
220.0, 26144.522564950297, 22847.707313025872, 39339.29375878498, 23931.63280864153, 18594.81854377014, 23927.005997539283, 187500.0, -4752.383202598477, 0.162, 0.964, -0.076, 192.0, 0.0, 0.0, 0.0, 0.0, 0.0, 0.0, 0.0, 0.0, 0.0, 1.7296907886428857E9, 0.0, 2024-10-23 19:09:48.642
221.0, 26138.2193730139, 22898.602235150604, 39345.44048851019, 24205.21816077449, 18595.66791005944, 23930.962256307874, 187500.0, -4321.642735200255, 0.162, 0.964, -0.076, 192.0, 0.0, 0.0, 0.0, 0.0, 0.0, 0.0, 0.0, 0.0, 0.0, 1.7296907886478643E9, 0.0, 2024-10-23 19:09:48.647
222.0, 25955.247992902758, 22887.381659434042, 39309.58829040388, 23592.6686039768, 18596.472572859835, 23893.701898300875, 187500.0, -4242.048173194906, 0.162, 0.964, -0.076, 192.0, 0.0, 0.0, 0.0, 0.0, 0.0, 0.0, 0.0, 0.0, 0.0, 1.729690788650884E9, 0.0, 2024-10-23 19:09:48.650
223.0, 25854.955715531793, 22844.57806880213, 39282.58738310187, 23045.9896380889, 18597.478401360324, 23873.764142246742, 187500.0, -4508.726836291175, 0.162, 0.964, -0.076, 192.0, 0.0, 0.0, 0.0, 0.0, 0.0, 0.0, 0.0, 0.0, 0.0, 1.7296907886538973E9, 0.0, 2024-10-23 19:09:48.653
224.0, 25871.004268050703, 22793.884312377493, 39274.49605160905, 22869.902595269992, 18597.120773449038, 23856.329781571603, 187500.0, -4955.269987019299, 0.162, 0.964, -0.076, 192.0, 0.0, 0.0, 0.0, 0.0, 0.0, 0.0, 0.0, 0.0, 0.0, 1.729690788657938E9, 0.0, 2024-10-23 19:09:48.657
225.0, 26122.684910617463, 22834.564487286152, 39319.333650986395, 23914.913703788963, 18581.429848841413, 23893.791305278697, 187500.0, -4765.861304505027, 0.162, 0.964, -0.076, 192.0, 0.0, 0.0, 0.0, 0.0, 0.0, 0.0, 0.0, 0.0, 0.0, 1.7296907886628869E9, 0.0, 2024-10-23 19:09:48.662
226.0, 26117.991044281847, 22889.616833879572, 39325.2345115226, 24194.623433902674, 18588.7388692783, 23924.70376786039, 187500.0, -4316.2559647865255, 0.162, 0.964, -0.076, 192.0, 0.0, 0.0, 0.0, 0.0, 0.0, 0.0, 0.0, 0.0, 0.0, 1.729690788666973E9, 0.0, 2024-10-23 19:09:48.666
227.0, 25944.295638119656, 22890.82382808016, 39296.400761175246, 23589.137028352863, 18600.87586651753, 23926.849535328096, 187500.0, -4257.2026559356045, 0.162, 0.964, -0.076, 192.0, 0.0, 0.0, 0.0, 0.0, 0.0, 0.0, 0.0, 0.0, 0.0, 1.729690788670996E9, 0.0, 2024-10-23 19:09:48.670
228.0, 25853.12287248646, 22855.57512707414, 39282.855604035336, 23054.41624574855, 18630.111948265072, 23923.00503528178, 187500.0, -4532.464388902711, 0.162, 0.964, -0.076, 192.0, 0.0, 0.0, 0.0, 0.0, 0.0, 0.0, 0.0, 0.0, 0.0, 1.7296907886769688E9, 0.0, 2024-10-23 19:09:48.676
229.0, 25876.458093697798, 22811.60924573055, 39278.89934526674, 22894.66832812647, 18629.128471509037, 23908.45404964138, 187500.0, -4956.40992598652, 0.164, 0.968, -0.074, 192.0, 5.0, 32.0, 30.0, 64.0, 253.0, 176.0, 0.0, 0.0, 0.0, 1.7296907886800113E9, 0.0, 2024-10-23 19:09:48.680
230.0, 26125.03184378527, 22854.837519507113, 39317.29964224096, 23934.337369720623, 18593.20921816936, 23924.63671262702, 187500.0, -4764.251978904245, 0.164, 0.968, -0.074, 192.0, 0.0, 0.0, 0.0, 0.0, 0.0, 0.0, 0.0, 0.0, 0.0, 1.7296907886839972E9, 0.0, 2024-10-23 19:09:48.683
231.0, 26117.78987858175, 22906.40299396551, 39320.85356960935, 24205.88871310815, 18582.122752919528, 23955.370361253066, 187500.0, -4334.2714708175035, 0.164, 0.968, -0.074, 192.0, 0.0, 0.0, 0.0, 0.0, 0.0, 0.0, 0.0, 0.0, 0.0, 1.729690788687984E9, 0.0, 2024-10-23 19:09:48.687
232.0, 25940.65230377344, 22898.557531661696, 39298.88180480979, 23595.462572033714, 18628.77084359775, 23925.195506238404, 187500.0, -4248.619586064767, 0.164, 0.968, -0.074, 192.0, 0.0, 0.0, 0.0, 0.0, 0.0, 0.0, 0.0, 0.0, 0.0, 1.72969078869096E9, 0.0, 2024-10-23 19:09:48.690
233.0, 25833.945075743806, 22848.579031059628, 39269.4669091066, 23038.479451951916, 18620.59010512711, 23878.77093300473, 187500.0, -4531.257394702125, 0.164, 0.968, -0.074, 192.0, 0.0, 0.0, 0.0, 0.0, 0.0, 0.0, 0.0, 0.0, 0.0, 1.7296907886949768E9, 0.0, 2024-10-23 19:09:48.694
234.0, 25856.632096365942, 22803.517914237727, 39262.62727530328, 22881.57020587566, 18591.35402337957, 23866.72334274332, 187500.0, -4972.011443616324, 0.164, 0.968, -0.074, 192.0, 0.0, 0.0, 0.0, 0.0, 0.0, 0.0, 0.0, 0.0, 0.0, 1.7296907886989677E9, 0.0, 2024-10-23 19:09:48.698
235.0, 26112.336052934654, 22851.864737494558, 39315.46679919562, 23921.418061425455, 18592.896293746984, 23873.09358991308, 187500.0, -4781.261656434734, 0.164, 0.968, -0.074, 192.0, 0.0, 0.0, 0.0, 0.0, 0.0, 0.0, 0.0, 0.0, 0.0, 1.7296907887030077E9, 0.0, 2024-10-23 19:09:48.703
236.0, 26117.07462275918, 22910.11338354509, 39340.70191868567, 24204.257035762912, 18629.799023842697, 23946.004980326295, 187500.0, -4353.583378026889, 0.164, 0.968, -0.074, 192.0, 0.0, 0.0, 0.0, 0.0, 0.0, 0.0, 0.0, 0.0, 0.0, 1.7296907887070124E9, 0.0, 2024-10-23 19:09:48.707
237.0, 25946.66492303192, 22905.419517209473, 39317.07612479641, 23609.38770882937, 18636.45984369038, 23971.329506794158, 187500.0, -4271.775993320464, 0.164, 0.968, -0.074, 192.0, 0.0, 0.0, 0.0, 0.0, 0.0, 0.0, 0.0, 0.0, 0.0, 1.7296907887100372E9, 0.0, 2024-10-23 19:09:48.710
238.0, 25840.02475023565, 22850.322467127142, 39278.094682466355, 23049.141234057097, 18606.240285186803, 23905.54832286219, 187500.0, -4551.955110067739, 0.164, 0.968, -0.074, 192.0, 0.0, 0.0, 0.0, 0.0, 0.0, 0.0, 0.0, 0.0, 0.0, 1.7296907887139888E9, 0.0, 2024-10-23 19:09:48.713
239.0, 25863.96346854728, 22800.902760136458, 39269.064577706406, 22885.81703732217, 18593.81271526965, 23882.458970839856, 187500.0, -4980.058071620235, 0.164, 0.968, -0.074, 192.0, 0.0, 0.0, 0.0, 0.0, 0.0, 0.0, 0.0, 0.0, 0.0, 1.729690788718996E9, 0.0, 2024-10-23 19:09:48.718
240.0, 26122.55080015073, 22848.489624081805, 39322.37348823232, 23925.620189383055, 18589.25295940077, 23909.951616519884, 187500.0, -4791.074072250613, 0.16, 0.9540000000000001, -0.076, 192.0, 5.0, 0.0, 29.0, 208.0, 253.0, 160.0, 0.0, 0.0, 0.0, 1.7296907887240365E9, 0.0, 2024-10-23 19:09:48.724
241.0, 26122.751965850828, 22894.71303161538, 39330.19659879167, 24188.297890221824, 18592.605721069067, 23921.373357936547, 187500.0, -4368.804916000952, 0.16, 0.9540000000000001, -0.076, 192.0, 0.0, 0.0, 0.0, 0.0, 0.0, 0.0, 0.0, 0.0, 0.0, 1.7296907887269828E9, 0.0, 2024-10-23 19:09:48.726
242.0, 25952.78930101267, 22889.840351324125, 39303.93329905669, 23584.376106783882, 18599.423003127933, 23926.35779695008, 187500.0, -4296.385263965758, 0.16, 0.9540000000000001, -0.076, 192.0, 0.0, 0.0, 0.0, 0.0, 0.0, 0.0, 0.0, 0.0, 0.0, 1.7296907887320316E9, 0.0, 2024-10-23 19:09:48.732
243.0, 25862.5553086466, 22850.56833631615, 39282.54267961296, 23039.59703917468, 18592.02457571323, 23887.979851720316, 187500.0, -4592.09884310947, 0.16, 0.9540000000000001, -0.076, 192.0, 0.0, 0.0, 0.0, 0.0, 0.0, 0.0, 0.0, 0.0, 0.0, 1.729690788734991E9, 0.0, 2024-10-23 19:09:48.734
244.0, 25886.806951380608, 22797.482943234798, 39273.28905740846, 22884.297118699207, 18577.786514495197, 23868.39972357747, 187500.0, -5011.685790024494, 0.16, 0.9540000000000001, -0.076, 192.0, 0.0, 0.0, 0.0, 0.0, 0.0, 0.0, 0.0, 0.0, 0.0, 1.729690788739041E9, 0.0, 2024-10-23 19:09:48.739
245.0, 26139.515774192307, 22836.240868120298, 39328.631976679804, 23921.038081769715, 18582.212159897346, 23906.911779273963, 187500.0, -4812.442339949887, 0.16, 0.9540000000000001, -0.076, 192.0, 0.0, 0.0, 0.0, 0.0, 0.0, 0.0, 0.0, 0.0, 0.0, 1.7296907887430484E9, 0.0, 2024-10-23 19:09:48.743
246.0, 26126.976445552882, 22869.47791212534, 39329.57074994693, 24165.320296921767, 18574.947842949372, 23883.15187491797, 187500.0, -4411.027361277028, 0.16, 0.9540000000000001, -0.076, 192.0, 0.0, 0.0, 0.0, 0.0, 0.0, 0.0, 0.0, 0.0, 0.0, 1.7296907887470455E9, 0.0, 2024-10-23 19:09:48.747
247.0, 25948.2742486327, 22851.261240394266, 39297.8759763093, 23552.43546395725, 18575.841912727585, 23884.02359295173, 187500.0, -4347.570758768411, 0.16, 0.9540000000000001, -0.076, 192.0, 0.0, 0.0, 0.0, 0.0, 0.0, 0.0, 0.0, 0.0, 0.0, 1.729690788751033E9, 0.0, 2024-10-23 19:09:48.751
248.0, 25842.617552592463, 22794.17488505541, 39260.257990391015, 22997.30753866524, 18550.33857230408, 23829.66415043642, 187500.0, -4611.142529385392, 0.16, 0.9540000000000001, -0.076, 192.0, 0.0, 0.0, 0.0, 0.0, 0.0, 0.0, 0.0, 0.0, 0.0, 1.7296907887540426E9, 0.0, 2024-10-23 19:09:48.754
249.0, 25859.940154545326, 22735.255686671222, 39247.51749605149, 22837.71608325435, 18535.385255263478, 23802.842057090053, 187500.0, -5020.961763973447, 0.16, 0.9540000000000001, -0.076, 192.0, 0.0, 0.0, 0.0, 0.0, 0.0, 0.0, 0.0, 0.0, 0.0, 1.7296907887590363E9, 0.0, 2024-10-23 19:09:48.759
250.0, 26114.012433768803, 22784.27306226171, 39309.43182819269, 23889.365659876545, 18546.851700169052, 23889.902101743475, 187500.0, -4803.14401425648, 0.156, 0.96, -0.076, 192.0, 4.0, 224.0, 30.0, 0.0, 253.0, 160.0, 0.0, 0.0, 0.0, 1.7296907887630632E9, 0.0, 2024-10-23 19:09:48.763
251.0, 26108.536256377254, 22833.357493085565, 39319.87009285332, 24157.11720670667, 18545.7788164352, 23924.279084715738, 187500.0, -4382.238314418592, 0.156, 0.96, -0.076, 192.0, 0.0, 0.0, 0.0, 0.0, 0.0, 0.0, 0.0, 0.0, 0.0, 1.7296907887670698E9, 0.0, 2024-10-23 19:09:48.767
252.0, 25930.504611790733, 22823.23215284731, 39292.980944273586, 23550.42380695627, 18565.11307538904, 23903.82723853913, 187500.0, -4307.315267004403, 0.156, 0.96, -0.076, 192.0, 0.0, 0.0, 0.0, 0.0, 0.0, 0.0, 0.0, 0.0, 0.0, 1.729690788771038E9, 0.0, 2024-10-23 19:09:48.771
253.0, 25824.53499132812, 22772.292527233665, 39257.84400198985, 22993.708907807937, 18554.786569450687, 23849.557203001645, 187500.0, -4579.380700514401, 0.156, 0.96, -0.076, 192.0, 0.0, 0.0, 0.0, 0.0, 0.0, 0.0, 0.0, 0.0, 0.0, 1.729690788775076E9, 0.0, 2024-10-23 19:09:48.775
254.0, 25845.21035494928, 22724.772718521683, 39250.35616759732, 22842.52170831224, 18550.651496726456, 23813.70500489533, 187500.0, -4996.978342172903, 0.156, 0.96, -0.076, 192.0, 0.0, 0.0, 0.0, 0.0, 0.0, 0.0, 0.0, 0.0, 0.0, 1.7296907887790947E9, 0.0, 2024-10-23 19:09:48.779
255.0, 26112.716032590393, 22787.60347218555, 39337.97500586212, 23912.36560492106, 18621.707692349875, 23923.988512037817, 187500.0, -4778.177115699901, 0.156, 0.96, -0.076, 192.0, 0.0, 0.0, 0.0, 0.0, 0.0, 0.0, 0.0, 0.0, 0.0, 1.729690788782168E9, 0.0, 2024-10-23 19:09:48.782
0.0, 26114.16889597999, 22851.596516561094, 39357.75629970507, 24192.589425157243, 18618.265523703758, 23985.27699533427, 187500.0, -4325.33077303538, 0.156, 0.96, -0.076, 192.0, 0.0, 0.0, 0.0, 0.0, 0.0, 0.0, 0.0, 0.0, 0.0, 1.7296907887860727E9, 0.0, 2024-10-23 19:09:48.786
1.0, 25932.51626879171, 22843.169908901444, 39317.523159685516, 23576.642403202346, 18595.44439261489, 23922.02155852575, 187500.0, -4279.107365501805, 0.156, 0.96, -0.076, 192.0, 0.0, 0.0, 0.0, 0.0, 0.0, 0.0, 0.0, 0.0, 0.0, 1.7296907887910855E9, 0.0, 2024-10-23 19:09:48.791
2.0, 25828.915933241362, 22797.348832768064, 39287.5718221154, 23032.37742571562, 18590.81758151264, 23876.78162774821, 187500.0, -4557.543046181565, 0.156, 0.96, -0.076, 192.0, 0.0, 0.0, 0.0, 0.0, 0.0, 0.0, 0.0, 0.0, 0.0, 1.7296907887952638E9, 0.0, 2024-10-23 19:09:48.795
3.0, 25855.648619609907, 22752.287715946164, 39285.8730895368, 22898.892807828524, 18580.62518604102, 23863.01295316374, 187500.0, -4970.938559882469, 0.156, 0.96, -0.076, 192.0, 0.0, 0.0, 0.0, 0.0, 0.0, 0.0, 0.0, 0.0, 0.0, 1.7296907887991104E9, 0.0, 2024-10-23 19:09:48.799
4.0, 26106.032860998257, 22801.41685025893, 39343.808811164956, 23948.284858260737, 18589.990566967794, 23938.673608144953, 187500.0, -4776.366624399022, 0.154, 0.9560000000000001, -0.074, 192.0, 4.0, 208.0, 29.0, 224.0, 253.0, 176.0, 0.0, 0.0, 0.0, 1.7296907888050833E9, 0.0, 2024-10-23 19:09:48.805
5.0, 26110.279692444765, 22860.067827709656, 39366.31701783145, 24218.517448725397, 18613.5940091126, 23974.79402718473, 187500.0, -4361.026508930506, 0.154, 0.9560000000000001, -0.074, 192.0, 0.0, 0.0, 0.0, 0.0, 0.0, 0.0, 0.0, 0.0, 0.0, 1.729690788809085E9, 0.0, 2024-10-23 19:09:48.809
6.0, 25941.054635173638, 22855.463368351862, 39334.286968026994, 23607.376051828393, 18610.93415152242, 23918.78055557973, 187500.0, -4276.6933771006325, 0.154, 0.9560000000000001, -0.074, 192.0, 0.0, 0.0, 0.0, 0.0, 0.0, 0.0, 0.0, 0.0, 0.0, 1.7296907888121164E9, 0.0, 2024-10-23 19:09:48.812
7.0, 25846.5514596166, 22817.353644055565, 39305.34145895737, 23056.696123682992, 18601.07703221763, 23886.25876739726, 187500.0, -4543.215577985714, 0.154, 0.9560000000000001, -0.074, 192.0, 0.0, 0.0, 0.0, 0.0, 0.0, 0.0, 0.0, 0.0, 0.0, 1.7296907888161907E9, 0.0, 2024-10-23 19:09:48.816
8.0, 25872.79240760713, 22768.98446905428, 39289.44936864965, 22909.174610277965, 18578.68058427341, 23869.29379335568, 187500.0, -4968.859847648126, 0.154, 0.9560000000000001, -0.074, 192.0, 0.0, 0.0, 0.0, 0.0, 0.0, 0.0, 0.0, 0.0, 0.0, 1.729690788819213E9, 0.0, 2024-10-23 19:09:48.819
9.0, 26121.768489094793, 22816.2360568328, 39336.656252939254, 23950.520032706267, 18574.947842949372, 23920.456936413877, 187500.0, -4762.709708536829, 0.154, 0.9560000000000001, -0.074, 192.0, 0.0, 0.0, 0.0, 0.0, 0.0, 0.0, 0.0, 0.0, 0.0, 1.729690788823092E9, 0.0, 2024-10-23 19:09:48.823
10.0, 26115.80057332523, 22868.20386269139, 39341.439526252696, 24201.038384561347, 18574.72432550482, 23945.848518115108, 187500.0, -4356.220883872615, 0.154, 0.9560000000000001, -0.074, 192.0, 0.0, 0.0, 0.0, 0.0, 0.0, 0.0, 0.0, 0.0, 0.0, 1.7296907888290815E9, 0.0, 2024-10-23 19:09:48.829
11.0, 25941.61342878502, 22857.542080586205, 39305.430865935195, 23582.587967227457, 18571.975060936817, 23902.374375149535, 187500.0, -4304.23072626957, 0.154, 0.9560000000000001, -0.074, 192.0, 0.0, 0.0, 0.0, 0.0, 0.0, 0.0, 0.0, 0.0, 0.0, 1.7296907888321273E9, 0.0, 2024-10-23 19:09:48.832
12.0, 25840.561192102577, 22805.216646816334, 39269.91394399571, 23023.012044788844, 18556.597060751566, 23839.834194163584, 187500.0, -4578.508982480644, 0.154, 0.9560000000000001, -0.074, 192.0, 0.0, 0.0, 0.0, 0.0, 0.0, 0.0, 0.0, 0.0, 0.0, 1.7296907888351147E9, 0.0, 2024-10-23 19:09:48.835
13.0, 25871.65246863991, 22757.853300315535, 39267.1199759388, 22881.90548204249, 18550.159758348436, 23824.456193978334, 187500.0, -4993.737339226883, 0.154, 0.9560000000000001, -0.074, 192.0, 0.0, 0.0, 0.0, 0.0, 0.0, 0.0, 0.0, 0.0, 0.0, 1.7296907888391392E9, 0.0, 2024-10-23 19:09:48.839
14.0, 26132.854954344628, 22816.146649854978, 39338.26557854004, 23933.599762153597, 18571.01393592524, 23929.107061518083, 187500.0, -4796.639656619985, 0.156, 0.9560000000000001, -0.07200000000000001, 192.0, 4.0, 224.0, 29.0, 224.0, 253.0, 192.0, 0.0, 0.0, 0.0, 1.7296907888421605E9, 0.0, 2024-10-23 19:09:48.842
15.0, 26123.578980395676, 22857.743246286303, 39342.534761731, 24183.3581546972, 18565.448351555868, 23933.085672031128, 187500.0, -4370.838924746386, 0.156, 0.9560000000000001, -0.07200000000000001, 192.0, 0.0, 0.0, 0.0, 0.0, 0.0, 0.0, 0.0, 0.0, 0.0, 1.7296907888471332E9, 0.0, 2024-10-23 19:09:48.847
16.0, 25940.115861906514, 22840.28653386671, 39304.223871734604, 23561.063237316997, 18560.598023009064, 23890.01386046575, 187500.0, -4298.396920966736, 0.156, 0.9560000000000001, -0.07200000000000001, 192.0, 0.0, 0.0, 0.0, 0.0, 0.0, 0.0, 0.0, 0.0, 0.0, 1.7296907888512485E9, 0.0, 2024-10-23 19:09:48.851
17.0, 25843.086939226025, 22794.666623433426, 39280.64278133426, 23009.377480671108, 18560.57567126461, 23850.786548946686, 187500.0, -4592.836450676496, 0.156, 0.9560000000000001, -0.07200000000000001, 192.0, 0.0, 0.0, 0.0, 0.0, 0.0, 0.0, 0.0, 0.0, 0.0, 1.7296907888552196E9, 0.0, 2024-10-23 19:09:48.855
18.0, 25866.69038137083, 22738.966076250803, 39270.58449632937, 22868.673249324947, 18544.974153634805, 23843.701045954353, 187500.0, -5004.443824820974, 0.156, 0.9560000000000001, -0.07200000000000001, 192.0, 0.0, 0.0, 0.0, 0.0, 0.0, 0.0, 0.0, 0.0, 0.0, 1.7296907888591983E9, 0.0, 2024-10-23 19:09:48.859
19.0, 26111.93372153446, 22783.200178527855, 39323.49107545508, 23898.663985569954, 18539.609734965532, 23883.755372018262, 187500.0, -4804.641581134985, 0.156, 0.9560000000000001, -0.07200000000000001, 192.0, 0.0, 0.0, 0.0, 0.0, 0.0, 0.0, 0.0, 0.0, 0.0, 1.7296907888621867E9, 0.0, 2024-10-23 19:09:48.862
20.0, 26103.01537549679, 22828.127184883022, 39329.57074994693, 24139.615790798165, 18534.91586862992, 23879.91087197195, 187500.0, -4390.642570333787, 0.156, 0.9560000000000001, -0.07200000000000001, 192.0, 0.0, 0.0, 0.0, 0.0, 0.0, 0.0, 0.0, 0.0, 0.0, 1.7296907888662512E9, 0.0, 2024-10-23 19:09:48.866
21.0, 25929.431728056876, 22819.298245823175, 39305.78849384648, 23531.313065446982, 18555.25595608425, 23880.20144464987, 187500.0, -4314.020790340995, 0.156, 0.9560000000000001, -0.07200000000000001, 192.0, 0.0, 0.0, 0.0, 0.0, 0.0, 0.0, 0.0, 0.0, 0.0, 1.7296907888702693E9, 0.0, 2024-10-23 19:09:48.870
22.0, 25833.654503065885, 22777.0758005471, 39285.493109881056, 22996.83815203168, 18559.189863108382, 23881.006107450263, 187500.0, -4577.5255057246095, 0.156, 0.9560000000000001, -0.07200000000000001, 192.0, 0.0, 0.0, 0.0, 0.0, 0.0, 0.0, 0.0, 0.0, 0.0, 1.7296907888761997E9, 0.0, 2024-10-23 19:09:48.876
23.0, 25868.009134293694, 22737.0661779721, 39293.763255329526, 22878.172740718455, 18584.939072720896, 23882.838950495596, 187500.0, -5001.806318975248, 0.156, 0.9560000000000001, -0.07200000000000001, 192.0, 0.0, 0.0, 0.0, 0.0, 0.0, 0.0, 0.0, 0.0, 0.0, 1.729690788879307E9, 0.0, 2024-10-23 19:09:48.879
24.0, 26105.675233086975, 22775.84645460206, 39336.253921539064, 23906.621206596043, 18560.061581142138, 23884.358869118558, 187500.0, -4809.737778870795, 0.154, 0.96, -0.07200000000000001, 192.0, 4.0, 208.0, 30.0, 0.0, 253.0, 192.0, 0.0, 0.0, 0.0, 1.7296907888841727E9, 0.0, 2024-10-23 19:09:48.884
25.0, 26089.581977079153, 22819.41000454545, 39336.85741863935, 24152.49039560442, 18553.19959559436, 23899.178075692427, 187500.0, -4381.634817318299, 0.154, 0.96, -0.07200000000000001, 192.0, 0.0, 0.0, 0.0, 0.0, 0.0, 0.0, 0.0, 0.0, 0.0, 1.7296907888882403E9, 0.0, 2024-10-23 19:09:48.888
26.0, 25920.2675128302, 22818.09125162259, 39321.39001147628, 23563.968964096184, 18606.508506120266, 23957.583183954142, 187500.0, -4306.063569314905, 0.154, 0.96, -0.07200000000000001, 192.0, 0.0, 0.0, 0.0, 0.0, 0.0, 0.0, 0.0, 0.0, 0.0, 1.7296907888912473E9, 0.0, 2024-10-23 19:09:48.891
27.0, 25823.037424449616, 22777.299317991652, 39302.88276706729, 23032.332722226707, 18630.089596520615, 23921.038081769715, 187500.0, -4587.71790119623, 0.154, 0.96, -0.07200000000000001, 192.0, 0.0, 0.0, 0.0, 0.0, 0.0, 0.0, 0.0, 0.0, 0.0, 1.7296907888942175E9, 0.0, 2024-10-23 19:09:48.894
28.0, 25851.44649165231, 22731.813518025105, 39297.78656933148, 22910.850991112115, 18613.281084690225, 23895.378279135024, 187500.0, -5010.523499312818, 0.154, 0.96, -0.07200000000000001, 192.0, 0.0, 0.0, 0.0, 0.0, 0.0, 0.0, 0.0, 0.0, 0.0, 1.729690788898266E9, 0.0, 2024-10-23 19:09:48.898
29.0, 26099.327337661667, 22782.66373666093, 39345.01580536554, 23947.770768138264, 18599.62416882803, 23928.749433606798, 187500.0, -4804.6862846238955, 0.154, 0.96, -0.07200000000000001, 192.0, 0.0, 0.0, 0.0, 0.0, 0.0, 0.0, 0.0, 0.0, 0.0, 1.7296907889022703E9, 0.0, 2024-10-23 19:09:48.902
30.0, 26093.940567247937, 22838.31958035464, 39352.86126766935, 24195.003413558414, 18597.903084504975, 23957.18085255395, 187500.0, -4395.2023262026705, 0.154, 0.96, -0.07200000000000001, 192.0, 0.0, 0.0, 0.0, 0.0, 0.0, 0.0, 0.0, 0.0, 0.0, 1.7296907889102485E9, 0.0, 2024-10-23 19:09:48.910
31.0, 25917.719413962295, 22830.719987239838, 39313.812770105935, 23581.112752093406, 18587.598930311076, 23914.06433749966, 187500.0, -4323.788502667964, 0.154, 0.96, -0.07200000000000001, 192.0, 0.0, 0.0, 0.0, 0.0, 0.0, 0.0, 0.0, 0.0, 0.0, 1.72969078891325E9, 0.0, 2024-10-23 19:09:48.913
32.0, 25823.01507270516, 22794.286643777687, 39286.521290126, 23042.681579909513, 18585.34140412109, 23899.78157279272, 187500.0, -4587.203811073758, 0.154, 0.96, -0.07200000000000001, 192.0, 0.0, 0.0, 0.0, 0.0, 0.0, 0.0, 0.0, 0.0, 0.0, 1.7296907889162457E9, 0.0, 2024-10-23 19:09:48.916
33.0, 25861.817701079573, 22761.295468961653, 39285.0237232475, 22926.564267464193, 18576.37835459451, 23906.084764729116, 187500.0, -5003.974438187413, 0.154, 0.96, -0.07200000000000001, 192.0, 0.0, 0.0, 0.0, 0.0, 0.0, 0.0, 0.0, 0.0, 0.0, 1.729690788919284E9, 0.0, 2024-10-23 19:09:48.919
34.0, 26120.606198383117, 22817.97949290031, 39337.41621225074, 23972.335335294647, 18572.422095825925, 23941.13230003504, 187500.0, -4803.211069489846, 0.158, 0.964, -0.074, 192.0, 4.0, 240.0, 30.0, 32.0, 253.0, 176.0, 0.0, 0.0, 0.0, 1.7296907889232764E9, 0.0, 2024-10-23 19:09:48.923
35.0, 26108.133924977057, 22867.309792913176, 39336.34332851688, 24200.88192235016, 18566.185959122893, 23937.466613944365, 187500.0, -4383.19943943017, 0.158, 0.964, -0.074, 192.0, 0.0, 0.0, 0.0, 0.0, 0.0, 0.0, 0.0, 0.0, 0.0, 1.7296907889262764E9, 0.0, 2024-10-23 19:09:48.926
36.0, 25931.108108891025, 22855.61983056305, 39293.96442102962, 23574.22841480117, 18548.43867402538, 23901.01091873776, 187500.0, -4339.9711656536065, 0.158, 0.964, -0.074, 192.0, 0.0, 0.0, 0.0, 0.0, 0.0, 0.0, 0.0, 0.0, 0.0, 1.7296907889302692E9, 0.0, 2024-10-23 19:09:48.930
37.0, 25834.235648421723, 22805.50721949425, 39262.87314449229, 23025.85071633467, 18546.829348424595, 23857.559127516644, 187500.0, -4602.917087425839, 0.158, 0.964, -0.074, 192.0, 0.0, 0.0, 0.0, 0.0, 0.0, 0.0, 0.0, 0.0, 0.0, 1.729690788935284E9, 0.0, 2024-10-23 19:09:48.935
38.0, 25870.378419205957, 22757.83094857108, 39259.408624101714, 22896.367060705074, 18537.508670986732, 23819.60586543153, 187500.0, -5018.927755228014, 0.158, 0.964, -0.074, 192.0, 0.0, 0.0, 0.0, 0.0, 0.0, 0.0, 0.0, 0.0, 0.0, 1.7296907889392898E9, 0.0, 2024-10-23 19:09:48.939
39.0, 26126.372948452587, 22812.90564690896, 39325.16745628923, 23944.64152391452, 18557.781703207696, 23903.201389694383, 187500.0, -4801.601743889063, 0.158, 0.964, -0.074, 192.0, 0.0, 0.0, 0.0, 0.0, 0.0, 0.0, 0.0, 0.0, 0.0, 1.7296907889433277E9, 0.0, 2024-10-23 19:09:48.943
40.0, 26113.721861090882, 22861.43128412143, 39337.75148841757, 24175.669154604573, 18567.549415534668, 23940.59585816811, 187500.0, -4397.929239026218, 0.158, 0.964, -0.074, 192.0, 0.0, 0.0, 0.0, 0.0, 0.0, 0.0, 0.0, 0.0, 0.0, 1.729690788946322E9, 0.0, 2024-10-23 19:09:48.946
41.0, 25938.03714967217, 22844.019275190745, 39300.379371688294, 23543.47241443067, 18554.875976428506, 23885.319994130135, 187500.0, -4343.815665699919, 0.158, 0.964, -0.074, 192.0, 0.0, 0.0, 0.0, 0.0, 0.0, 0.0, 0.0, 0.0, 0.0, 1.7296907889503298E9, 0.0, 2024-10-23 19:09:48.950
42.0, 25836.537878100622, 22789.346908253065, 39265.89062999375, 22990.02086997281, 18538.29098204267, 23838.33662728508, 187500.0, -4614.517642798143, 0.158, 0.964, -0.074, 192.0, 0.0, 0.0, 0.0, 0.0, 0.0, 0.0, 0.0, 0.0, 0.0, 1.729690788954317E9, 0.0, 2024-10-23 19:09:48.954
43.0, 25874.111160529992, 22741.73769256326, 39267.812880016914, 22867.66742082446, 18543.29777280066, 23809.99461531575, 187500.0, -5019.888880239592, 0.158, 0.964, -0.074, 192.0, 0.0, 0.0, 0.0, 0.0, 0.0, 0.0, 0.0, 0.0, 0.0, 1.7296907889583566E9, 0.0, 2024-10-23 19:09:48.958
44.0, 26127.334073464164, 22795.515989722728, 39333.01291859304, 23918.06529975716, 18554.116017117027, 23902.553189105176, 187500.0, -4818.901994097471, 0.162, 0.964, -0.07, 192.0, 5.0, 16.0, 30.0, 32.0, 253.0, 208.0, 0.0, 0.0, 0.0, 1.7296907889643283E9, 0.0, 2024-10-23 19:09:48.964
45.0, 26112.716032590393, 22840.37594084453, 39332.051793581464, 24148.422378113555, 18529.886726127475, 23916.053642756182, 187500.0, -4416.2800212240245, 0.162, 0.964, -0.07, 192.0, 0.0, 0.0, 0.0, 0.0, 0.0, 0.0, 0.0, 0.0, 0.0, 1.729690788968599E9, 0.0, 2024-10-23 19:09:48.968
46.0, 25935.153774637434, 22828.484812794308, 39298.367714687316, 23529.18964972373, 18536.189918063872, 23881.363735361545, 187500.0, -4357.8749129623075, 0.162, 0.964, -0.07, 192.0, 0.0, 0.0, 0.0, 0.0, 0.0, 0.0, 0.0, 0.0, 0.0, 1.729690788972411E9, 0.0, 2024-10-23 19:09:48.972
47.0, 25835.912029255873, 22780.875597104503, 39278.921697011196, 22998.134553210086, 18545.19767107936, 23862.25299385226, 187500.0, -4633.58368081852, 0.162, 0.964, -0.07, 192.0, 0.0, 0.0, 0.0, 0.0, 0.0, 0.0, 0.0, 0.0, 0.0, 1.729690788975376E9, 0.0, 2024-10-23 19:09:48.975
48.0, 25866.198642992815, 22731.142965691444, 39275.52423185399, 22885.794685577715, 18550.76325544873, 23838.13546158498, 187500.0, -5034.149293202078, 0.162, 0.964, -0.07, 192.0, 0.0, 0.0, 0.0, 0.0, 0.0, 0.0, 0.0, 0.0, 0.0, 1.7296907889783535E9, 0.0, 2024-10-23 19:09:48.978
49.0, 26118.281616959768, 22790.196274542366, 39341.30541578596, 23939.008884311785, 18570.00810742475, 23927.78830859522, 187500.0, -4830.5696047031415, 0.162, 0.964, -0.07, 192.0, 0.0, 0.0, 0.0, 0.0, 0.0, 0.0, 0.0, 0.0, 0.0, 1.7296907889823537E9, 0.0, 2024-10-23 19:09:48.982
50.0, 26105.138791220044, 22840.264182122253, 39353.33065430292, 24175.624451115662, 18578.792342995686, 23950.877660617552, 187500.0, -4417.866995080351, 0.162, 0.964, -0.07, 192.0, 0.0, 0.0, 0.0, 0.0, 0.0, 0.0, 0.0, 0.0, 0.0, 1.7296907889863608E9, 0.0, 2024-10-23 19:09:48.986
51.0, 25927.777698967184, 22829.825917461625, 39328.18494179069, 23561.33145825046, 18589.610587312054, 23901.748526304786, 187500.0, -4341.155808109737, 0.162, 0.964, -0.07, 192.0, 0.0, 0.0, 0.0, 0.0, 0.0, 0.0, 0.0, 0.0, 0.0, 1.7296907889913955E9, 0.0, 2024-10-23 19:09:48.991
52.0, 25829.228857663737, 22793.146704810468, 39309.99062180408, 23029.628161147615, 18596.047889715184, 23893.83600876761, 187500.0, -4617.311610855057, 0.162, 0.964, -0.07, 192.0, 0.0, 0.0, 0.0, 0.0, 0.0, 0.0, 0.0, 0.0, 0.0, 1.7296907889953568E9, 0.0, 2024-10-23 19:09:48.995
53.0, 25861.616535379475, 22749.247878700244, 39305.006182790545, 22927.033654097755, 18586.10136343257, 23900.40742163747, 187500.0, -5042.151217717078, 0.162, 0.964, -0.07, 192.0, 0.0, 0.0, 0.0, 0.0, 0.0, 0.0, 0.0, 0.0, 0.0, 1.7296907889993787E9, 0.0, 2024-10-23 19:09:48.999
54.0, 26109.184456966457, 22803.60732121555, 39352.66010196925, 23977.722105708373, 18577.29477611718, 23958.36549501008, 187500.0, -4797.399615931466, 0.166, 0.964, -0.07200000000000001, 192.0, 5.0, 48.0, 30.0, 32.0, 253.0, 192.0, 0.0, 0.0, 0.0, 1.7296907890023751E9, 0.0, 2024-10-23 19:09:49.002
55.0, 26095.728706804362, 22860.537214343218, 39354.44824152568, 24199.473762449477, 18570.946880691874, 23944.663875658975, 187500.0, -4369.900151479263, 0.166, 0.964, -0.07200000000000001, 192.0, 0.0, 0.0, 0.0, 0.0, 0.0, 0.0, 0.0, 0.0, 0.0, 1.7296907890063748E9, 0.0, 2024-10-23 19:09:49.006
56.0, 25921.27334133069, 22855.463368351862, 39317.70197364116, 23577.9164526363, 18569.784589980198, 23930.470517929854, 187500.0, -4317.418255498202, 0.166, 0.964, -0.07200000000000001, 192.0, 0.0, 0.0, 0.0, 0.0, 0.0, 0.0, 0.0, 0.0, 0.0, 1.7296907890104148E9, 0.0, 2024-10-23 19:09:49.010
57.0, 25826.747814029197, 22814.604379487562, 39287.5718221154, 23040.200536274977, 18562.877900943506, 23889.790343021195, 187500.0, -4615.746988743185, 0.166, 0.964, -0.07200000000000001, 192.0, 0.0, 0.0, 0.0, 0.0, 0.0, 0.0, 0.0, 0.0, 0.0, 1.7296907890145495E9, 0.0, 2024-10-23 19:09:49.014
58.0, 25870.445474439322, 22774.63946040147, 39283.324990668894, 22938.43304376996, 18551.009124637738, 23871.417209078936, 187500.0, -5020.604136062162, 0.166, 0.964, -0.07200000000000001, 192.0, 0.0, 0.0, 0.0, 0.0, 0.0, 0.0, 0.0, 0.0, 0.0, 1.7296907890184188E9, 0.0, 2024-10-23 19:09:49.018
59.0, 26125.300064718733, 22832.888106452003, 39338.757316918054, 23987.400411057522, 18553.62427873901, 23933.26448598677, 187500.0, -4798.897182809971, 0.166, 0.964, -0.07200000000000001, 192.0, 0.0, 0.0, 0.0, 0.0, 0.0, 0.0, 0.0, 0.0, 0.0, 1.729690789023422E9, 0.0, 2024-10-23 19:09:49.023
60.0, 26111.665500600997, 22883.403048920998, 39343.518238487035, 24206.89454160864, 18557.62524099651, 23919.518163146757, 187500.0, -4381.523058596023, 0.166, 0.964, -0.07200000000000001, 192.0, 0.0, 0.0, 0.0, 0.0, 0.0, 0.0, 0.0, 0.0, 0.0, 1.7296907890274353E9, 0.0, 2024-10-23 19:09:49.027
61.0, 25938.03714967217, 22870.550795859195, 39305.766142102024, 23576.08360959096, 18559.636897997487, 23901.92734026043, 187500.0, -4327.789464925464, 0.166, 0.964, -0.07200000000000001, 192.0, 0.0, 0.0, 0.0, 0.0, 0.0, 0.0, 0.0, 0.0, 0.0, 1.7296907890314465E9, 0.0, 2024-10-23 19:09:49.031
62.0, 25838.035444979127, 22820.75110921277, 39273.11024345282, 23030.99161755939, 18552.640801982976, 23877.899214970974, 187500.0, -4600.748968213674, 0.166, 0.964, -0.07200000000000001, 192.0, 0.0, 0.0, 0.0, 0.0, 0.0, 0.0, 0.0, 0.0, 0.0, 1.7296907890344846E9, 0.0, 2024-10-23 19:09:49.034
63.0, 25878.492102443233, 22775.51117843523, 39267.14232768325, 22927.503040731317, 18538.00040936475, 23857.00033390526, 187500.0, -5022.28051689631, 0.166, 0.964, -0.07200000000000001, 192.0, 0.0, 0.0, 0.0, 0.0, 0.0, 0.0, 0.0, 0.0, 0.0, 1.72969078903845E9, 0.0, 2024-10-23 19:09:49.038
64.0, 26130.508021176818, 22826.249638348778, 39321.30060449846, 23967.619117214577, 18531.09372032806, 23902.35202340508, 187500.0, -4822.008886576758, 0.158, 0.97, -0.082, 192.0, 4.0, 240.0, 30.0, 80.0, 253.0, 112.0, 0.0, 0.0, 0.0, 1.7296907890424767E9, 0.0, 2024-10-23 19:09:49.042
65.0, 26118.326320448676, 22870.66255458147, 39332.20825579265, 24181.2570907184, 18535.385255263478, 23921.753337592287, 187500.0, -4398.242163448592, 0.158, 0.97, -0.082, 192.0, 0.0, 0.0, 0.0, 0.0, 0.0, 0.0, 0.0, 0.0, 0.0, 1.7296907890464513E9, 0.0, 2024-10-23 19:09:49.046
66.0, 25943.89330671946, 22853.9434497289, 39305.073238023906, 23546.46754818768, 18549.28804031468, 23884.38122086301, 187500.0, -4346.609633756832, 0.158, 0.97, -0.082, 192.0, 0.0, 0.0, 0.0, 0.0, 0.0, 0.0, 0.0, 0.0, 0.0, 1.729690789051434E9, 0.0, 2024-10-23 19:09:49.051
67.0, 25839.93534325783, 22795.672451933915, 39274.42899637568, 22995.20647468644, 18538.268630298215, 23831.541696970668, 187500.0, -4619.636192278408, 0.158, 0.97, -0.082, 192.0, 0.0, 0.0, 0.0, 0.0, 0.0, 0.0, 0.0, 0.0, 0.0, 1.729690789055482E9, 0.0, 2024-10-23 19:09:49.055
68.0, 25882.06838155608, 22749.583154867072, 39277.669999321704, 22892.00847053629, 18531.51840347271, 23834.24625804976, 187500.0, -5027.3320111432095, 0.158, 0.97, -0.082, 192.0, 0.0, 0.0, 0.0, 0.0, 0.0, 0.0, 0.0, 0.0, 0.0, 1.7296907890584683E9, 0.0, 2024-10-23 19:09:49.058
69.0, 26133.301989233732, 22805.060184605147, 39337.036232595, 23941.10994829058, 18536.14521457496, 23933.30918947568, 187500.0, -4824.892261611493, 0.158, 0.97, -0.082, 192.0, 0.0, 0.0, 0.0, 0.0, 0.0, 0.0, 0.0, 0.0, 0.0, 1.729690789062483E9, 0.0, 2024-10-23 19:09:49.062
70.0, 26116.202904725422, 22853.675228795437, 39347.18392457771, 24159.419436385568, 18541.017894866218, 23926.93894230592, 187500.0, -4429.691067897209, 0.158, 0.97, -0.082, 192.0, 0.0, 0.0, 0.0, 0.0, 0.0, 0.0, 0.0, 0.0, 0.0, 1.7296907890664828E9, 0.0, 2024-10-23 19:09:49.066
71.0, 25942.909829963428, 22842.72287401234, 39325.770953389525, 23531.64834161381, 18557.558185763144, 23869.696124755876, 187500.0, -4365.2062851436485, 0.158, 0.97, -0.082, 192.0, 0.0, 0.0, 0.0, 0.0, 0.0, 0.0, 0.0, 0.0, 0.0, 1.7296907890705037E9, 0.0, 2024-10-23 19:09:49.070
72.0, 25843.042235737114, 22792.27498677671, 39304.20151999015, 22991.093753706667, 18566.230662611804, 23847.254973322746, 187500.0, -4645.899492013395, 0.158, 0.97, -0.082, 192.0, 0.0, 0.0, 0.0, 0.0, 0.0, 0.0, 0.0, 0.0, 0.0, 1.7296907890744927E9, 0.0, 2024-10-23 19:09:49.074
73.0, 25880.056724555103, 22740.97773325178, 39302.43573217818, 22903.564322419683, 18567.460008556845, 23869.651421266964, 187500.0, -5047.448581152986, 0.158, 0.97, -0.082, 192.0, 0.0, 0.0, 0.0, 0.0, 0.0, 0.0, 0.0, 0.0, 0.0, 1.7296907890796015E9, 0.0, 2024-10-23 19:09:49.079
74.0, 26123.578980395676, 22790.375088498007, 39358.60566599437, 23955.348009508612, 18567.191787623382, 23913.72906133283, 187500.0, -4823.19352903289, 0.158, 0.97, -0.082, 192.0, 4.0, 240.0, 30.0, 80.0, 253.0, 112.0, 0.0, 0.0, 0.0, 1.729690789083578E9, 0.0, 2024-10-23 19:09:49.083
75.0, 26105.45171564242, 22837.023179176234, 39368.753357977075, 24168.78481731234, 18574.05377317116, 23897.836971025106, 187500.0, -4420.124521270338, 0.158, 0.97, -0.082, 192.0, 0.0, 0.0, 0.0, 0.0, 0.0, 0.0, 0.0, 0.0, 0.0, 1.7296907890864997E9, 0.0, 2024-10-23 19:09:49.086
76.0, 25926.52600127769, 22820.259370834752, 39335.628072694315, 23539.71732136218, 18571.304508603156, 23882.816598751142, 187500.0, -4385.099337708872, 0.158, 0.97, -0.082, 192.0, 0.0, 0.0, 0.0, 0.0, 0.0, 0.0, 0.0, 0.0, 0.0, 1.7296907890906303E9, 0.0, 2024-10-23 19:09:49.090
77.0, 25827.038386707114, 22774.907681334935, 39308.47070318111, 23019.480469164904, 18569.96340393584, 23901.793229793697, 187500.0, -4646.3465269025, 0.158, 0.97, -0.082, 192.0, 0.0, 0.0, 0.0, 0.0, 0.0, 0.0, 0.0, 0.0, 0.0, 1.7296907890945408E9, 0.0, 2024-10-23 19:09:49.094
78.0, 25867.338581960033, 22732.238201169755, 39306.41434269123, 22935.192040823942, 18569.985755680296, 23877.899214970974, 187500.0, -5060.233778981421, 0.158, 0.97, -0.082, 192.0, 0.0, 0.0, 0.0, 0.0, 0.0, 0.0, 0.0, 0.0, 0.0, 1.7296907890985332E9, 0.0, 2024-10-23 19:09:49.098
79.0, 26115.957035536416, 22787.916396607925, 39362.65133174078, 23993.74830648283, 18579.842874985086, 23961.338277022634, 187500.0, -4842.974822875836, 0.158, 0.97, -0.082, 192.0, 0.0, 0.0, 0.0, 0.0, 0.0, 0.0, 0.0, 0.0, 0.0, 1.729690789102573E9, 0.0, 2024-10-23 19:09:49.102
80.0, 26102.79185805224, 22846.835594992113, 39370.787366722514, 24214.963521357004, 18584.313223876146, 23981.097219121126, 187500.0, -4414.693047367698, 0.158, 0.97, -0.082, 192.0, 0.0, 0.0, 0.0, 0.0, 0.0, 0.0, 0.0, 0.0, 0.0, 1.7296907891085622E9, 0.0, 2024-10-23 19:09:49.108
81.0, 25929.18585886787, 22839.61598153305, 39332.38706974829, 23580.75512418212, 18576.02072668323, 23922.02155852575, 187500.0, -4393.481241879612, 0.158, 0.97, -0.082, 192.0, 0.0, 0.0, 0.0, 0.0, 0.0, 0.0, 0.0, 0.0, 0.0, 1.7296907891115332E9, 0.0, 2024-10-23 19:09:49.111
82.0, 25829.184154174825, 22796.298300778664, 39296.624278619805, 23049.61062069066, 18562.4308660544, 23916.366567178557, 187500.0, -4674.040338282626, 0.158, 0.97, -0.082, 192.0, 0.0, 0.0, 0.0, 0.0, 0.0, 0.0, 0.0, 0.0, 0.0, 1.7296907891155639E9, 0.0, 2024-10-23 19:09:49.115
83.0, 25879.810855366097, 22760.714323605815, 39296.51251989753, 22974.486407576373, 18552.86431942753, 23923.049738770693, 187500.0, -5092.040311341323, 0.158, 0.97, -0.082, 192.0, 0.0, 0.0, 0.0, 0.0, 0.0, 0.0, 0.0, 0.0, 0.0, 1.729690789119562E9, 0.0, 2024-10-23 19:09:49.119
84.0, 26122.953131550927, 22809.79875442967, 39341.17130531923, 24016.412975360512, 18542.984848378284, 23945.625000670552, 187500.0, -4848.853331667582, 0.162, 0.964, -0.082, 192.0, 5.0, 16.0, 30.0, 32.0, 253.0, 112.0, 0.0, 0.0, 0.0, 1.7296907891225913E9, 0.0, 2024-10-23 19:09:49.122
85.0, 26108.58095986616, 22861.319525399154, 39347.25097981107, 24212.66129167811, 18547.835176925084, 23929.285875473724, 187500.0, -4429.020515563549, 0.162, 0.964, -0.082, 192.0, 0.0, 0.0, 0.0, 0.0, 0.0, 0.0, 0.0, 0.0, 0.0, 1.729690789126716E9, 0.0, 2024-10-23 19:09:49.126
86.0, 25932.85154495854, 22846.276801380733, 39308.40364794775, 23572.216757800194, 18541.04024661067, 23890.95263373287, 187500.0, -4394.397663402279, 0.162, 0.964, -0.082, 192.0, 0.0, 0.0, 0.0, 0.0, 0.0, 0.0, 0.0, 0.0, 0.0, 1.72969078913056E9, 0.0, 2024-10-23 19:09:49.130
87.0, 25834.347407144, 22798.131143824, 39281.223926690094, 23027.236524490898, 18541.464929755322, 23877.00514519276, 187500.0, -4683.6515883984075, 0.162, 0.964, -0.082, 192.0, 0.0, 0.0, 0.0, 0.0, 0.0, 0.0, 0.0, 0.0, 0.0, 1.7296907891345868E9, 0.0, 2024-10-23 19:09:49.134
88.0, 25880.369648977477, 22753.628820613485, 39278.40760688873, 22938.43304376996, 18525.282266769682, 23867.52800554371, 187500.0, -5094.409596253586, 0.162, 0.964, -0.082, 192.0, 0.0, 0.0, 0.0, 0.0, 0.0, 0.0, 0.0, 0.0, 0.0, 1.729690789139598E9, 0.0, 2024-10-23 19:09:49.139
89.0, 26123.824849584682, 22806.378937528007, 39324.45220046666, 23975.84455917413, 18509.501935184235, 23898.239302425303, 187500.0, -4867.0252999097465, 0.162, 0.964, -0.082, 192.0, 0.0, 0.0, 0.0, 0.0, 0.0, 0.0, 0.0, 0.0, 0.0, 1.7296907891426134E9, 0.0, 2024-10-23 19:09:49.142
90.0, 26108.02216625478, 22861.319525399154, 39335.82923839441, 24178.038439516837, 18531.361941261523, 23913.63965435501, 187500.0, -4453.585082719932, 0.162, 0.964, -0.082, 192.0, 0.0, 0.0, 0.0, 0.0, 0.0, 0.0, 0.0, 0.0, 0.0, 1.729690789147582E9, 0.0, 2024-10-23 19:09:49.147
91.0, 25937.277190360688, 22859.240813164808, 39310.75058111556, 23543.00302779711, 18549.66801997042, 23880.268499883237, 187500.0, -4421.935012571217, 0.162, 0.964, -0.082, 192.0, 0.0, 0.0, 0.0, 0.0, 0.0, 0.0, 0.0, 0.0, 0.0, 1.729690789150574E9, 0.0, 2024-10-23 19:09:49.150
92.0, 25836.2473054227, 22812.927998653413, 39282.38621740177, 22999.07332647721, 18554.898328172963, 23861.7836072187, 187500.0, -4720.822539427583, 0.162, 0.964, -0.082, 192.0, 0.0, 0.0, 0.0, 0.0, 0.0, 0.0, 0.0, 0.0, 0.0, 1.7296907891546023E9, 0.0, 2024-10-23 19:09:49.154
93.0, 25882.26954725618, 22771.13023652199, 39278.60877258883, 22921.557476706206, 18540.5261564882, 23867.170377632425, 187500.0, -5104.087901602734, 0.162, 0.964, -0.082, 192.0, 0.0, 0.0, 0.0, 0.0, 0.0, 0.0, 0.0, 0.0, 0.0, 1.7296907891586585E9, 0.0, 2024-10-23 19:09:49.158
94.0, 26129.949227565437, 22828.864792450047, 39335.91864537223, 23964.17694856846, 18539.00623786524, 23910.10807873107, 187500.0, -4861.996157407303, 0.164, 0.964, -0.08, 192.0, 5.0, 32.0, 30.0, 32.0, 253.0, 128.0, 0.0, 0.0, 0.0, 1.729690789162606E9, 0.0, 2024-10-23 19:09:49.162
95.0, 26097.718012060883, 22872.0483627377, 39332.78940114849, 24149.897593247606, 18528.14329005996, 23896.92054950244, 187500.0, -4468.806620693997, 0.164, 0.964, -0.08, 192.0, 0.0, 0.0, 0.0, 0.0, 0.0, 0.0, 0.0, 0.0, 0.0, 1.72969078916762E9, 0.0, 2024-10-23 19:09:49.167
96.0, 25922.010948897714, 22861.878319010535, 39300.8264065774, 23516.02447223955, 18526.332798759082, 23863.415284563933, 187500.0, -4459.441239767223, 0.164, 0.964, -0.08, 192.0, 0.0, 0.0, 0.0, 0.0, 0.0, 0.0, 0.0, 0.0, 0.0, 1.7296907891706707E9, 0.0, 2024-10-23 19:09:49.170
97.0, 25827.15014542939, 22819.432356289908, 39279.07815922239, 22990.93729149548, 18527.38333074848, 23862.901194441463, 187500.0, -4733.473626789288, 0.164, 0.964, -0.08, 192.0, 0.0, 0.0, 0.0, 0.0, 0.0, 0.0, 0.0, 0.0, 0.0, 1.7296907891746516E9, 0.0, 2024-10-23 19:09:49.174
98.0, 25876.32398323107, 22780.16034128193, 39286.87891803729, 22927.39128200904, 18535.161737818926, 23866.142197387482, 187500.0, -5122.371628567174, 0.164, 0.964, -0.08, 192.0, 0.0, 0.0, 0.0, 0.0, 0.0, 0.0, 0.0, 0.0, 0.0, 1.7296907891786346E9, 0.0, 2024-10-23 19:09:49.178
99.0, 26139.69458814795, 22839.81714723315, 39347.20627632216, 24020.70451029593, 18535.85464189704, 23909.50458163078, 187500.0, -4884.079680929146, 0.164, 0.964, -0.08, 192.0, 0.0, 0.0, 0.0, 0.0, 0.0, 0.0, 0.0, 0.0, 0.0, 1.7296907891827495E9, 0.0, 2024-10-23 19:09:49.182
100.0, 26106.59165460964, 22888.029860023245, 39354.001206636574, 24243.90903042663, 18551.05382812665, 23912.49971538779, 187500.0, -4414.983620045617, 0.164, 0.964, -0.08, 192.0, 0.0, 0.0, 0.0, 0.0, 0.0, 0.0, 0.0, 0.0, 0.0, 1.7296907891867137E9, 0.0, 2024-10-23 19:09:49.186
101.0, 25876.30163148661, 22850.613039805063, 39305.006182790545, 23367.564185567404, 18532.971266862307, 23878.502712071266, 187500.0, -4461.4752485126555, 0.164, 0.964, -0.08, 192.0, 0.0, 0.0, 0.0, 0.0, 0.0, 0.0, 0.0, 0.0, 0.0, 1.729690789190666E9, 0.0, 2024-10-23 19:09:49.190
102.0, 25809.73813649871, 22800.902760136458, 39287.08008373738, 22929.64880819903, 18528.14329005996, 23848.037284378683, 187500.0, -4772.209199930335, 0.164, 0.964, -0.08, 192.0, 0.0, 0.0, 0.0, 0.0, 0.0, 0.0, 0.0, 0.0, 0.0, 1.7296907891956823E9, 0.0, 2024-10-23 19:09:49.195
103.0, 25889.22093978178, 22767.397495197954, 39317.947842830166, 22944.177442094977, 18560.553319520157, 23874.412342835945, 187500.0, -5167.075117477789, 0.164, 0.964, -0.08, 192.0, 0.0, 0.0, 0.0, 0.0, 0.0, 0.0, 0.0, 0.0, 0.0, 1.729690789198651E9, 0.0, 2024-10-23 19:09:49.198
104.0, 26160.906393636036, 22831.547001784686, 39391.28391638803, 24093.951176875973, 18576.75833425025, 23962.83584390114, 187500.0, -4882.738576261828, 0.158, 0.964, -0.08600000000000001, 192.0, 4.0, 240.0, 30.0, 32.0, 253.0, 80.0, 0.0, 0.0, 0.0, 1.7296907892022583E9, 0.0, 2024-10-23 19:09:49.202
105.0, 26102.389526652045, 22873.970612760855, 39380.085692415916, 24241.56209725882, 18556.798226451665, 23934.337369720623, 187500.0, -4410.133291498815, 0.158, 0.964, -0.08600000000000001, 192.0, 0.0, 0.0, 0.0, 0.0, 0.0, 0.0, 0.0, 0.0, 0.0, 1.729690789206746E9, 0.0, 2024-10-23 19:09:49.206
106.0, 25886.98576533625, 22843.773406001736, 39335.04692733847, 23370.268746646496, 18551.634973482487, 23888.002203464774, 187500.0, -4496.0533971850155, 0.158, 0.964, -0.08600000000000001, 192.0, 0.0, 0.0, 0.0, 0.0, 0.0, 0.0, 0.0, 0.0, 0.0, 1.7296907892106645E9, 0.0, 2024-10-23 19:09:49.210
107.0, 25824.266770394657, 22797.348832768064, 39308.090723525376, 22968.02675342879, 18542.71662744482, 23876.669869025933, 187500.0, -4802.831089834105, 0.158, 0.964, -0.08600000000000001, 192.0, 0.0, 0.0, 0.0, 0.0, 0.0, 0.0, 0.0, 0.0, 0.0, 1.7296907892166884E9, 0.0, 2024-10-23 19:09:49.216
108.0, 25902.02848935467, 22761.563689895116, 39319.91479634223, 22977.906224478036, 18557.96051716334, 23883.10717142906, 187500.0, -5188.018702032412, 0.158, 0.964, -0.08600000000000001, 192.0, 0.0, 0.0, 0.0, 0.0, 0.0, 0.0, 0.0, 0.0, 0.0, 1.729690789219679E9, 0.0, 2024-10-23 19:09:49.219
109.0, 26175.591489743172, 22825.512030781752, 39377.582297036926, 24136.95593320798, 18559.793360208674, 23963.37228576807, 187500.0, -4875.96599769187, 0.158, 0.964, -0.08600000000000001, 192.0, 0.0, 0.0, 0.0, 0.0, 0.0, 0.0, 0.0, 0.0, 0.0, 1.7296907892246914E9, 0.0, 2024-10-23 19:09:49.224
110.0, 26097.583901594153, 22864.49347311181, 39363.590105007905, 24202.267730506388, 18554.495996772766, 23945.490890203822, 187500.0, -4426.673582395742, 0.158, 0.964, -0.08600000000000001, 192.0, 0.0, 0.0, 0.0, 0.0, 0.0, 0.0, 0.0, 0.0, 0.0, 1.7296907892277389E9, 0.0, 2024-10-23 19:09:49.227
111.0, 25903.79427716664, 22829.200068616876, 39319.91479634223, 23354.66722901669, 18557.42407529641, 23878.994450449285, 187500.0, -4532.866720302906, 0.158, 0.964, -0.08600000000000001, 192.0, 0.0, 0.0, 0.0, 0.0, 0.0, 0.0, 0.0, 0.0, 0.0, 1.729690789231824E9, 0.0, 2024-10-23 19:09:49.231
112.0, 25843.3998636484, 22778.618070914516, 39295.35022918585, 22971.73714300837, 18551.52321476021, 23880.7378865168, 187500.0, -4808.955467814859, 0.158, 0.964, -0.08600000000000001, 192.0, 0.0, 0.0, 0.0, 0.0, 0.0, 0.0, 0.0, 0.0, 0.0, 1.7296907892347143E9, 0.0, 2024-10-23 19:09:49.234
113.0, 25910.23157956977, 22741.17889895188, 39298.16654898722, 22960.717732991903, 18537.70983668683, 23883.129523173517, 187500.0, -5204.8942690961685, 0.158, 0.964, -0.08600000000000001, 192.0, 0.0, 0.0, 0.0, 0.0, 0.0, 0.0, 0.0, 0.0, 0.0, 1.7296907892386997E9, 0.0, 2024-10-23 19:09:49.238
114.0, 26156.07841683369, 22798.354661268553, 39351.7883839355, 24032.461527879423, 18542.4260547669, 23929.129413262537, 187500.0, -4949.860864861115, 0.158, 0.964, -0.08600000000000001, 192.0, 0.0, 0.0, 0.0, 0.0, 0.0, 0.0, 0.0, 0.0, 0.0, 1.7296907892427363E9, 0.0, 2024-10-23 19:09:49.242
115.0, 26136.431233457475, 22851.57416481664, 39360.48321252861, 24249.340504329266, 18550.807958937643, 23931.901029574994, 187500.0, -4494.377016350868, 0.158, 0.96, -0.08, 192.0, 4.0, 240.0, 30.0, 0.0, 253.0, 128.0, 0.0, 0.0, 0.0, 1.729690789246817E9, 0.0, 2024-10-23 19:09:49.246
116.0, 25928.537658278663, 22833.737472741304, 39321.278252754004, 23503.395736622304, 18552.7302089608, 23905.324805417637, 187500.0, -4486.956237191705, 0.158, 0.96, -0.08, 192.0, 0.0, 0.0, 0.0, 0.0, 0.0, 0.0, 0.0, 0.0, 0.0, 1.7296907892507713E9, 0.0, 2024-10-23 19:09:49.250
117.0, 25825.026729706136, 22776.628765657995, 39288.979982016084, 22931.05696809971, 18543.43188326739, 23868.57853753311, 187500.0, -4819.684305153407, 0.158, 0.96, -0.08, 192.0, 0.0, 0.0, 0.0, 0.0, 0.0, 0.0, 0.0, 0.0, 0.0, 1.7296907892558272E9, 0.0, 2024-10-23 19:09:49.255
118.0, 25898.27339628618, 22735.054520971124, 39296.959554786634, 22935.97435187988, 18540.168528576916, 23870.67960151191, 187500.0, -5228.7882839188915, 0.158, 0.96, -0.08, 192.0, 0.0, 0.0, 0.0, 0.0, 0.0, 0.0, 0.0, 0.0, 0.0, 1.729690789258794E9, 0.0, 2024-10-23 19:09:49.258
119.0, 26141.169803282002, 22784.004841328246, 39348.50267750057, 24010.825039246683, 18534.4241302519, 23909.370471164046, 187500.0, -4982.047376876757, 0.158, 0.96, -0.08, 192.0, 0.0, 0.0, 0.0, 0.0, 0.0, 0.0, 0.0, 0.0, 0.0, 1.7296907892627792E9, 0.0, 2024-10-23 19:09:49.262
120.0, 26118.102803004123, 22830.429414561917, 39352.90597115827, 24227.927533141083, 18530.780795905684, 23912.030328754227, 187500.0, -4528.0387435005605, 0.158, 0.96, -0.08, 192.0, 0.0, 0.0, 0.0, 0.0, 0.0, 0.0, 0.0, 0.0, 0.0, 1.7296907892667856E9, 0.0, 2024-10-23 19:09:49.266
121.0, 25917.47354477329, 22813.151516097965, 39318.61839516382, 23487.973032948143, 18533.86533664052, 23874.412342835945, 187500.0, -4495.092272173438, 0.158, 0.96, -0.08, 192.0, 0.0, 0.0, 0.0, 0.0, 0.0, 0.0, 0.0, 0.0, 0.0, 1.7296907892708735E9, 0.0, 2024-10-23 19:09:49.270
122.0, 25820.265808137156, 22765.095265519056, 39297.36188618683, 22924.418499996485, 18547.030514124694, 23854.80986294864, 187500.0, -4816.197433018378, 0.158, 0.96, -0.08, 192.0, 0.0, 0.0, 0.0, 0.0, 0.0, 0.0, 0.0, 0.0, 0.0, 1.72969078927481E9, 0.0, 2024-10-23 19:09:49.274
123.0, 25901.290881787645, 22730.383006379965, 39309.20831074814, 22943.506889761316, 18542.694275700364, 23878.39095334899, 187500.0, -5231.358734531252, 0.158, 0.96, -0.08, 192.0, 0.0, 0.0, 0.0, 0.0, 0.0, 0.0, 0.0, 0.0, 0.0, 1.7296907892797916E9, 0.0, 2024-10-23 19:09:49.279
124.0, 26139.113442792113, 22777.209911013833, 39352.99537813609, 24015.675367793487, 18528.120938315504, 23911.002148509284, 187500.0, -4986.718891467916, 0.158, 0.96, -0.08, 192.0, 0.0, 0.0, 0.0, 0.0, 0.0, 0.0, 0.0, 0.0, 0.0, 1.7296907892828245E9, 0.0, 2024-10-23 19:09:49.282
125.0, 26117.02991927027, 22828.820088961136, 39363.94773291919, 24234.521297755397, 18558.96634566383, 23932.437471441925, 187500.0, -4563.779182884596, 0.154, 0.972, -0.096, 192.0, 4.0, 208.0, 30.0, 96.0, 253.0, 0.0, 0.0, 0.0, 0.0, 1.7296907892858393E9, 0.0, 2024-10-23 19:09:49.285
126.0, 25910.07511735858, 22807.13889683949, 39326.01682257853, 23492.309271372473, 18565.53775853369, 23902.374375149535, 187500.0, -4539.214615728213, 0.154, 0.972, -0.096, 192.0, 0.0, 0.0, 0.0, 0.0, 0.0, 0.0, 0.0, 0.0, 0.0, 1.7296907892908242E9, 0.0, 2024-10-23 19:09:49.290
127.0, 25806.38537483041, 22750.924259534393, 39295.37258093031, 22924.150279063022, 18554.898328172963, 23896.96525299135, 187500.0, -4858.330471316633, 0.154, 0.972, -0.096, 192.0, 0.0, 0.0, 0.0, 0.0, 0.0, 0.0, 0.0, 0.0, 0.0, 1.7296907892948265E9, 0.0, 2024-10-23 19:09:49.294
128.0, 25883.29772750112, 22710.93698870385, 39302.59219438937, 22941.83050892717, 18549.779778692697, 23887.06343019765, 187500.0, -5248.6813364841155, 0.154, 0.972, -0.096, 192.0, 0.0, 0.0, 0.0, 0.0, 0.0, 0.0, 0.0, 0.0, 0.0, 1.7296907892988384E9, 0.0, 2024-10-23 19:09:49.298
129.0, 26133.03376830027, 22773.946556323357, 39357.30926481596, 24021.196248673947, 18558.496959030268, 23921.619227125553, 187500.0, -5004.108548654145, 0.154, 0.972, -0.096, 192.0, 0.0, 0.0, 0.0, 0.0, 0.0, 0.0, 0.0, 0.0, 0.0, 1.7296907893027952E9, 0.0, 2024-10-23 19:09:49.302
130.0, 26115.688814602952, 22829.311827339152, 39367.83693645441, 24245.786576960872, 18584.00029945377, 23967.730875936853, 187500.0, -4572.161087055336, 0.154, 0.972, -0.096, 192.0, 0.0, 0.0, 0.0, 0.0, 0.0, 0.0, 0.0, 0.0, 0.0, 1.729690789306862E9, 0.0, 2024-10-23 19:09:49.306
131.0, 25913.89726566044, 22815.69961496587, 39329.28017726901, 23505.78737327902, 18587.844799500086, 23940.372340723556, 187500.0, -4548.892921077361, 0.154, 0.972, -0.096, 192.0, 0.0, 0.0, 0.0, 0.0, 0.0, 0.0, 0.0, 0.0, 0.0, 1.7296907893108602E9, 0.0, 2024-10-23 19:09:49.310
132.0, 25808.844066720496, 22759.686143360872, 39278.16173769972, 22923.144450562533, 18547.38814203598, 23863.907022941952, 187500.0, -4889.980541465347, 0.154, 0.972, -0.096, 192.0, 0.0, 0.0, 0.0, 0.0, 0.0, 0.0, 0.0, 0.0, 0.0, 1.7296907893138492E9, 0.0, 2024-10-23 19:09:49.313
133.0, 25888.148056047925, 22724.2139249103, 39278.58642084437, 22943.238668827853, 18540.86143265503, 23877.452180081866, 187500.0, -5300.783252809436, 0.154, 0.972, -0.096, 192.0, 0.0, 0.0, 0.0, 0.0, 0.0, 0.0, 0.0, 0.0, 0.0, 1.7296907893189054E9, 0.0, 2024-10-23 19:09:49.318
134.0, 26133.07847178918, 22781.926129093903, 39326.48620921209, 24022.55970508572, 18548.639839725478, 23937.623076155553, 187500.0, -5027.3320111432095, 0.154, 0.972, -0.096, 192.0, 0.0, 0.0, 0.0, 0.0, 0.0, 0.0, 0.0, 0.0, 0.0, 1.7296907893228683E9, 0.0, 2024-10-23 19:09:49.322
135.0, 26111.665500600997, 22836.352626842574, 39331.69416567018, 24230.36387328671, 18565.24718585577, 23936.058454043683, 187500.0, -4574.329206267501, 0.16, 0.972, -0.092, 192.0, 5.0, 0.0, 30.0, 96.0, 253.0, 32.0, 0.0, 0.0, 0.0, 1.7296907893268704E9, 0.0, 2024-10-23 19:09:49.326
136.0, 25913.584341238064, 22823.790946458692, 39298.03243852049, 23493.27039638405, 18578.524122062223, 23908.275235685735, 187500.0, -4563.287444506579, 0.16, 0.972, -0.092, 192.0, 0.0, 0.0, 0.0, 0.0, 0.0, 0.0, 0.0, 0.0, 0.0, 1.7296907893309956E9, 0.0, 2024-10-23 19:09:49.330
137.0, 25809.58167428752, 22768.559785909627, 39265.04126370445, 22923.949113362924, 18571.81859872563, 23866.991563676784, 187500.0, -4902.899849760514, 0.16, 0.972, -0.092, 192.0, 0.0, 0.0, 0.0, 0.0, 0.0, 0.0, 0.0, 0.0, 0.0, 1.7296907893350155E9, 0.0, 2024-10-23 19:09:49.335
138.0, 25882.604823423007, 22720.123555674978, 39260.90619098022, 22944.222145583888, 18553.043133383173, 23854.72045597082, 187500.0, -5291.7084445605815, 0.16, 0.972, -0.092, 192.0, 0.0, 0.0, 0.0, 0.0, 0.0, 0.0, 0.0, 0.0, 0.0, 1.729690789339017E9, 0.0, 2024-10-23 19:09:49.339
139.0, 26124.182477495968, 22773.2760039897, 39306.50374966905, 24010.959149713417, 18544.70593270134, 23889.790343021195, 187500.0, -5010.3670371016315, 0.16, 0.972, -0.092, 192.0, 0.0, 0.0, 0.0, 0.0, 0.0, 0.0, 0.0, 0.0, 0.0, 1.729690789341885E9, 0.0, 2024-10-23 19:09:49.341
140.0, 26100.869608029083, 22822.226324346822, 39310.63882239328, 24209.017957331893, 18543.72245594531, 23891.422020366434, 187500.0, -4574.217447545225, 0.16, 0.972, -0.092, 192.0, 0.0, 0.0, 0.0, 0.0, 0.0, 0.0, 0.0, 0.0, 0.0, 1.729690789346016E9, 0.0, 2024-10-23 19:09:49.346
141.0, 25896.328794518566, 22801.729774681306, 39271.63502831877, 23461.083884368407, 18545.443540268367, 23863.325877586114, 187500.0, -4572.1834387997915, 0.16, 0.972, -0.092, 192.0, 0.0, 0.0, 0.0, 0.0, 0.0, 0.0, 0.0, 0.0, 0.0, 1.7296907893510668E9, 0.0, 2024-10-23 19:09:49.351
142.0, 25796.01416540315, 22746.83389029907, 39240.677862248165, 22897.618758394572, 18544.437711767878, 23831.13936557047, 187500.0, -4918.2107947124005, 0.16, 0.972, -0.092, 192.0, 0.0, 0.0, 0.0, 0.0, 0.0, 0.0, 0.0, 0.0, 0.0, 1.7296907893551004E9, 0.0, 2024-10-23 19:09:49.355
143.0, 25880.83903561104, 22712.143982904432, 39252.568990298394, 22933.806232667714, 18548.90806065894, 23837.934295884883, 187500.0, -5330.265203745986, 0.16, 0.972, -0.092, 192.0, 0.0, 0.0, 0.0, 0.0, 0.0, 0.0, 0.0, 0.0, 0.0, 1.7296907893590703E9, 0.0, 2024-10-23 19:09:49.359
144.0, 26128.36225370911, 22768.291564976163, 39305.766142102024, 24011.584998558166, 18547.254031569246, 23878.569767304634, 187500.0, -5067.967482562957, 0.16, 0.972, -0.092, 192.0, 0.0, 0.0, 0.0, 0.0, 0.0, 0.0, 0.0, 0.0, 0.0, 1.7296907893645587E9, 0.0, 2024-10-23 19:09:49.364
145.0, 26101.54016036274, 22816.861905677546, 39311.95757531614, 24212.728346911474, 18553.82544443911, 23907.358814163068, 187500.0, -4642.546730345098, 0.162, 0.964, -0.09, 192.0, 5.0, 16.0, 30.0, 32.0, 253.0, 48.0, 0.0, 0.0, 0.0, 1.7296907893671143E9, 0.0, 2024-10-23 19:09:49.367
146.0, 25897.3122712746, 22796.633576945493, 39272.551449841434, 23476.573643275937, 18558.25108984126, 23902.575540849633, 187500.0, -4640.512721599665, 0.162, 0.964, -0.09, 192.0, 0.0, 0.0, 0.0, 0.0, 0.0, 0.0, 0.0, 0.0, 0.0, 1.7296907893700516E9, 0.0, 2024-10-23 19:09:49.370
147.0, 25790.716801967243, 22734.696893059838, 39232.988862155544, 22907.565284677185, 18541.308467544135, 23812.162734527916, 187500.0, -4979.164001842022, 0.162, 0.964, -0.09, 192.0, 0.0, 0.0, 0.0, 0.0, 0.0, 0.0, 0.0, 0.0, 0.0, 1.7296907893739927E9, 0.0, 2024-10-23 19:09:49.373
148.0, 25875.966355319782, 22695.089601885036, 39249.283283863464, 22950.815910198202, 18554.875976428506, 23847.612601234032, 187500.0, -5356.997890114533, 0.162, 0.964, -0.09, 192.0, 0.0, 0.0, 0.0, 0.0, 0.0, 0.0, 0.0, 0.0, 0.0, 1.7296907893801708E9, 0.0, 2024-10-23 19:09:49.380
149.0, 26123.802497840228, 22754.94757353635, 39314.371563717315, 24025.063100464715, 18568.063505657137, 23930.738738863318, 187500.0, -5098.656427700094, 0.162, 0.964, -0.09, 192.0, 0.0, 0.0, 0.0, 0.0, 0.0, 0.0, 0.0, 0.0, 0.0, 1.7296907893839507E9, 0.0, 2024-10-23 19:09:49.383
150.0, 26110.614968611597, 22811.877466664013, 39335.51631397204, 24224.395957517143, 18594.282101903213, 23939.187698267426, 187500.0, -4683.048091298115, 0.162, 0.964, -0.09, 192.0, 0.0, 0.0, 0.0, 0.0, 0.0, 0.0, 0.0, 0.0, 0.0, 1.7296907893869898E9, 0.0, 2024-10-23 19:09:49.386
151.0, 25907.482315001766, 22791.55973095414, 39296.17724373069, 23488.17419864824, 18579.842874985086, 23904.453087383878, 187500.0, -4665.434916667333, 0.162, 0.964, -0.09, 192.0, 0.0, 0.0, 0.0, 0.0, 0.0, 0.0, 0.0, 0.0, 0.0, 1.729690789391076E9, 0.0, 2024-10-23 19:09:49.391
152.0, 25800.52921778312, 22733.31108490361, 39262.20259215863, 22921.356311006108, 18572.824427226118, 23856.44154029388, 187500.0, -5012.199880146966, 0.162, 0.964, -0.09, 192.0, 0.0, 0.0, 0.0, 0.0, 0.0, 0.0, 0.0, 0.0, 0.0, 1.7296907893949869E9, 0.0, 2024-10-23 19:09:49.394
153.0, 25884.30355600161, 22692.899130928414, 39277.35707489933, 22956.73912247886, 18584.38027910951, 23852.507633269746, 187500.0, -5403.400111603751, 0.162, 0.964, -0.09, 192.0, 0.0, 0.0, 0.0, 0.0, 0.0, 0.0, 0.0, 0.0, 0.0, 1.7296907893980503E9, 0.0, 2024-10-23 19:09:49.398
154.0, 26136.74415787985, 22761.139006750465, 39340.70191868567, 24038.161222715524, 18591.465782101845, 23934.270314487258, 187500.0, -5132.720486249982, 0.162, 0.964, -0.09, 192.0, 0.0, 0.0, 0.0, 0.0, 0.0, 0.0, 0.0, 0.0, 0.0, 1.7296907894019697E9, 0.0, 2024-10-23 19:09:49.401
155.0, 26116.69464310344, 22820.058205134657, 39352.324825802425, 24234.83422217777, 18597.97013973834, 23965.048666602215, 187500.0, -4714.988734124749, 0.16, 0.9560000000000001, -0.078, 192.0, 5.0, 0.0, 29.0, 224.0, 253.0, 144.0, 0.0, 0.0, 0.0, 1.7296907894072165E9, 0.0, 2024-10-23 19:09:49.407
156.0, 25905.582416723064, 22792.722021665817, 39298.144197242764, 23481.06634391145, 18576.490113316788, 23891.690241299897, 187500.0, -4715.88280390296, 0.16, 0.9560000000000001, -0.078, 192.0, 0.0, 0.0, 0.0, 0.0, 0.0, 0.0, 0.0, 0.0, 0.0, 1.7296907894110105E9, 0.0, 2024-10-23 19:09:49.411
157.0, 25800.126886382925, 22735.59096283805, 39253.99950194353, 22914.851953369613, 18550.629144982, 23843.633990720988, 187500.0, -5038.820807793237, 0.16, 0.9560000000000001, -0.078, 192.0, 0.0, 0.0, 0.0, 0.0, 0.0, 0.0, 0.0, 0.0, 0.0, 1.7296907894149835E9, 0.0, 2024-10-23 19:09:49.414
158.0, 25888.88566361495, 22704.76790723418, 39266.896458494244, 22958.34844807964, 18557.804054952154, 23859.883708939997, 187500.0, -5448.662394125748, 0.16, 0.9560000000000001, -0.078, 192.0, 0.0, 0.0, 0.0, 0.0, 0.0, 0.0, 0.0, 0.0, 0.0, 1.7296907894210856E9, 0.0, 2024-10-23 19:09:49.421
159.0, 26138.46524220291, 22769.342096965564, 39331.87297962582, 24037.93770527097, 18579.39584009598, 23948.17309953846, 187500.0, -5180.039129261867, 0.16, 0.9560000000000001, -0.078, 192.0, 0.0, 0.0, 0.0, 0.0, 0.0, 0.0, 0.0, 0.0, 0.0, 1.729690789424057E9, 0.0, 2024-10-23 19:09:49.424
160.0, 26111.68785234545, 22821.46636503534, 39331.49299997008, 24215.388204501654, 18569.15874113545, 23931.856326086086, 187500.0, -4755.13246716648, 0.16, 0.9560000000000001, -0.078, 192.0, 0.0, 0.0, 0.0, 0.0, 0.0, 0.0, 0.0, 0.0, 0.0, 1.7296907894271288E9, 0.0, 2024-10-23 19:09:49.427
161.0, 25909.963358636305, 22801.19333281438, 39285.24724069205, 23456.233555821607, 18553.53487176119, 23852.977019903305, 187500.0, -4742.011993171214, 0.16, 0.9560000000000001, -0.078, 192.0, 0.0, 0.0, 0.0, 0.0, 0.0, 0.0, 0.0, 0.0, 0.0, 1.7296907894302723E9, 0.0, 2024-10-23 19:09:49.430
162.0, 25811.861552221962, 22751.55010837914, 39255.1170891663, 22893.01429903678, 18549.109226359036, 23816.76719388571, 187500.0, -5068.90625583008, 0.16, 0.9560000000000001, -0.078, 192.0, 0.0, 0.0, 0.0, 0.0, 0.0, 0.0, 0.0, 0.0, 0.0, 1.729690789435061E9, 0.0, 2024-10-23 19:09:49.435
163.0, 25901.26853004319, 22722.761061520705, 39267.455252105625, 22941.40582578252, 18555.926508417906, 23856.66505773843, 187500.0, -5471.304711258974, 0.16, 0.9560000000000001, -0.078, 192.0, 0.0, 0.0, 0.0, 0.0, 0.0, 0.0, 0.0, 0.0, 0.0, 1.7296907894389758E9, 0.0, 2024-10-23 19:09:49.438
