%OpenBCI Raw EXG Data
%Number of channels = 8
%Sample Rate = 250 Hz
%Board = OpenBCI_GUI$BoardCytonSerial
Sample Index, EXG Channel 0, EXG Channel 1, EXG Channel 2, EXG Channel 3, EXG Channel 4, EXG Channel 5, EXG Channel 6, EXG Channel 7, Accel Channel 0, Accel Channel 1, Accel Channel 2, Other, Other, Other, Other, Other, Other, Other, Analog Channel 0, Analog Channel 1, Analog Channel 2, Timestamp, Other, Timestamp (Formatted)
0.0, 0.0, 0.0, 0.0, 0.0, 0.0, 0.0, 0.0, 0.0, 0.222, 0.9380000000000001, -0.176, 192.0, 6.0, 240.0, 29.0, 80.0, 250.0, 128.0, 0.0, 0.0, 0.0, 1.729693467553135E9, 0.0, 2024-10-23 19:54:27.553
1.0, 20878.60803349114, 18264.79503688753, 42343.07764090033, 15819.961228366046, 22856.513900341262, 24881.224320080797, -187500.02235174447, -187500.02235174447, 0.222, 0.9380000000000001, -0.176, 192.0, 0.0, 0.0, 0.0, 0.0, 0.0, 0.0, 0.0, 0.0, 0.0, 1.7296934675702248E9, 0.0, 2024-10-23 19:54:27.570
2.0, 20861.50894898283, 15120.195164703748, 42385.545955365415, 15475.319680609666, 22857.2962113972, 24560.23091795813, -187500.02235174447, -187500.02235174447, 0.222, 0.9380000000000001, -0.176, 192.0, 0.0, 0.0, 0.0, 0.0, 0.0, 0.0, 0.0, 0.0, 0.0, 1.7296934675741355E9, 0.0, 2024-10-23 19:54:27.574
3.0, 21380.65056570179, 17026.284876618967, 42383.802519297904, 16820.447661930044, 23021.246256976876, 25756.89861260636, -187500.02235174447, -187500.02235174447, 0.222, 0.9380000000000001, -0.176, 192.0, 0.0, 0.0, 0.0, 0.0, 0.0, 0.0, 0.0, 0.0, 0.0, 1.729693467577064E9, 0.0, 2024-10-23 19:54:27.577
4.0, 21191.91243552118, 20511.055947668072, 42242.74066004046, 17080.174932500715, 22927.54774422023, 25927.598885011543, -187500.02235174447, -187500.02235174447, 0.222, 0.9380000000000001, -0.176, 192.0, 0.0, 0.0, 0.0, 0.0, 0.0, 0.0, 0.0, 0.0, 0.0, 1.7296934675829155E9, 0.0, 2024-10-23 19:54:27.582
5.0, 20884.24067309388, 20213.77774641249, 42258.90097128165, 16223.074939617509, 22828.37305407203, 25214.064146764773, -187500.02235174447, -187500.02235174447, 0.222, 0.9380000000000001, -0.176, 192.0, 0.0, 0.0, 0.0, 0.0, 0.0, 0.0, 0.0, 0.0, 0.0, 1.7296934675861013E9, 0.0, 2024-10-23 19:54:27.586
6.0, 20895.237731365887, 18263.677449664767, 42367.06106270088, 15820.877649888713, 22874.127074972042, 24883.995936393254, -187500.02235174447, -187500.02235174447, 0.222, 0.9380000000000001, -0.176, 192.0, 0.0, 0.0, 0.0, 0.0, 0.0, 0.0, 0.0, 0.0, 0.0, 1.7296934675896451E9, 0.0, 2024-10-23 19:54:27.589
7.0, 20881.670222481516, 15130.991057275662, 42407.361257953795, 15481.377003357054, 22866.90746151298, 24558.15220572379, -187500.02235174447, -187500.02235174447, 0.222, 0.9380000000000001, -0.176, 192.0, 0.0, 0.0, 0.0, 0.0, 0.0, 0.0, 0.0, 0.0, 0.0, 1.729693467593079E9, 0.0, 2024-10-23 19:54:27.593
8.0, 21396.52030426506, 17059.968955513115, 42400.43221717265, 16828.85191784524, 23023.526134911317, 25750.841289858974, -187500.02235174447, -187500.02235174447, 0.23, 0.932, -0.192, 192.0, 7.0, 48.0, 29.0, 32.0, 250.0, 0.0, 0.0, 0.0, 0.0, 1.729693467597058E9, 0.0, 2024-10-23 19:54:27.597
9.0, 21194.125258222255, 20511.3912238349, 42247.970968243004, 17072.843560319372, 22918.33882550464, 25926.70481523333, -187500.02235174447, -187500.02235174447, 0.23, 0.932, -0.192, 192.0, 0.0, 0.0, 0.0, 0.0, 0.0, 0.0, 0.0, 0.0, 0.0, 1.7296934676026113E9, 0.0, 2024-10-23 19:54:27.602
10.0, 20889.046298151767, 20200.61256892831, 42268.13224174169, 16219.990398882675, 22826.47315579333, 25217.036928777332, -187500.02235174447, -187500.02235174447, 0.23, 0.932, -0.192, 192.0, 0.0, 0.0, 0.0, 0.0, 0.0, 0.0, 0.0, 0.0, 0.0, 1.7296934676061568E9, 0.0, 2024-10-23 19:54:27.606
11.0, 20897.741126744884, 18247.76300761259, 42373.453661615094, 15815.714396919537, 22869.075580725144, 24869.802578664134, -187500.02235174447, -187500.02235174447, 0.23, 0.932, -0.192, 192.0, 0.0, 0.0, 0.0, 0.0, 0.0, 0.0, 0.0, 0.0, 0.0, 1.729693467610088E9, 0.0, 2024-10-23 19:54:27.610
12.0, 20880.88791142558, 15116.395368146344, 42403.00266778501, 15477.152523655, 22851.75297877228, 24544.76351079506, -187500.02235174447, -187500.02235174447, 0.23, 0.932, -0.192, 192.0, 0.0, 0.0, 0.0, 0.0, 0.0, 0.0, 0.0, 0.0, 0.0, 1.7296934676131773E9, 0.0, 2024-10-23 19:54:27.613
13.0, 21396.85558043189, 17073.00002253056, 42393.34671418032, 16827.086130033273, 23016.97707378591, 25744.158118266838, -187500.02235174447, -187500.02235174447, 0.23, 0.932, -0.192, 192.0, 0.0, 0.0, 0.0, 0.0, 0.0, 0.0, 0.0, 0.0, 0.0, 1.729693467617148E9, 0.0, 2024-10-23 19:54:27.617
14.0, 21193.678223333147, 20511.502982557176, 42242.584197829274, 17062.89703403676, 22913.309683002197, 25914.12078310499, -187500.02235174447, -187500.02235174447, 0.23, 0.932, -0.192, 192.0, 0.0, 0.0, 0.0, 0.0, 0.0, 0.0, 0.0, 0.0, 0.0, 1.7296934676210828E9, 0.0, 2024-10-23 19:54:27.621
15.0, 20884.866521938628, 20181.03244078546, 42256.93401776958, 16210.893238889366, 22817.97949290031, 25213.21478047547, -187500.02235174447, -187500.02235174447, 0.23, 0.932, -0.192, 192.0, 0.0, 0.0, 0.0, 0.0, 0.0, 0.0, 0.0, 0.0, 0.0, 1.7296934676261463E9, 0.0, 2024-10-23 19:54:27.626
16.0, 20895.036565665792, 18226.484146891136, 42357.583923051825, 15818.46366148754, 22860.76073178777, 24876.910433400924, -187500.02235174447, -187500.02235174447, 0.23, 0.932, -0.192, 192.0, 0.0, 0.0, 0.0, 0.0, 0.0, 0.0, 0.0, 0.0, 0.0, 1.7296934676291287E9, 0.0, 2024-10-23 19:54:27.629
17.0, 20879.390344547075, 15093.954216713217, 42386.3059146769, 15482.852218491105, 22847.394388603498, 24548.0939207189, -187500.02235174447, -187500.02235174447, 0.23, 0.932, -0.192, 192.0, 0.0, 0.0, 0.0, 0.0, 0.0, 0.0, 0.0, 0.0, 0.0, 1.7296934676332989E9, 0.0, 2024-10-23 19:54:27.633
18.0, 21390.597091984404, 17079.37026970032, 42371.12908019174, 16833.635191158675, 23002.381384656597, 25765.034647588094, -187500.02235174447, -187500.02235174447, 0.23, 0.932, -0.202, 192.0, 7.0, 48.0, 29.0, 32.0, 249.0, 176.0, 0.0, 0.0, 0.0, 1.729693467637092E9, 0.0, 2024-10-23 19:54:27.637
19.0, 21180.691859804614, 20521.67302628434, 42216.27619460538, 17054.917461266217, 22897.551703161207, 25899.636852697953, -187500.02235174447, -187500.02235174447, 0.23, 0.932, -0.202, 192.0, 0.0, 0.0, 0.0, 0.0, 0.0, 0.0, 0.0, 0.0, 0.0, 1.7296934676411383E9, 0.0, 2024-10-23 19:54:27.641
20.0, 20872.75187644385, 20182.842932086343, 42231.81065700181, 16201.527857962592, 22806.423641016918, 25194.953405255488, -187500.02235174447, -187500.02235174447, 0.23, 0.932, -0.202, 192.0, 0.0, 0.0, 0.0, 0.0, 0.0, 0.0, 0.0, 0.0, 0.0, 1.7296934676451404E9, 0.0, 2024-10-23 19:54:27.645
21.0, 20883.391306804577, 18212.067271717464, 42335.45569604108, 15808.31596950483, 22852.222365405843, 24864.371104761496, -187500.02235174447, -187500.02235174447, 0.23, 0.932, -0.202, 192.0, 0.0, 0.0, 0.0, 0.0, 0.0, 0.0, 0.0, 0.0, 0.0, 1.7296934676491237E9, 0.0, 2024-10-23 19:54:27.649
22.0, 20872.88598691058, 15064.181693098748, 42370.63734181373, 15479.946491711915, 22842.544060056694, 24555.29118243351, -187500.02235174447, -187500.02235174447, 0.23, 0.932, -0.202, 192.0, 0.0, 0.0, 0.0, 0.0, 0.0, 0.0, 0.0, 0.0, 0.0, 1.7296934676541228E9, 0.0, 2024-10-23 19:54:27.654
23.0, 21387.534902994026, 17087.729822126606, 42361.80840275388, 16833.56813592531, 23003.923655024013, 25763.24650803167, -187500.02235174447, -187500.02235174447, 0.23, 0.932, -0.202, 192.0, 0.0, 0.0, 0.0, 0.0, 0.0, 0.0, 0.0, 0.0, 0.0, 1.7296934676575441E9, 0.0, 2024-10-23 19:54:27.657
24.0, 21174.388667868217, 20538.213317181267, 42211.895252692135, 17042.80281577144, 22900.546836918216, 25895.27826252917, -187500.02235174447, -187500.02235174447, 0.23, 0.932, -0.202, 192.0, 0.0, 0.0, 0.0, 0.0, 0.0, 0.0, 0.0, 0.0, 0.0, 1.7296934676612093E9, 0.0, 2024-10-23 19:54:27.661
25.0, 20871.50017875435, 20187.89442633324, 42235.00695645892, 16187.714479889213, 22812.212742830845, 25187.644384818603, -187500.02235174447, -187500.02235174447, 0.23, 0.932, -0.202, 192.0, 0.0, 0.0, 0.0, 0.0, 0.0, 0.0, 0.0, 0.0, 0.0, 1.7296934676656086E9, 0.0, 2024-10-23 19:54:27.665
26.0, 20879.12212361361, 18207.66397805977, 42338.719050731546, 15792.245065241465, 22858.257336408777, 24852.412921477906, -187500.02235174447, -187500.02235174447, 0.23, 0.932, -0.202, 192.0, 0.0, 0.0, 0.0, 0.0, 0.0, 0.0, 0.0, 0.0, 0.0, 1.7296934676694677E9, 0.0, 2024-10-23 19:54:27.669
27.0, 20872.170731088012, 15060.627765730354, 42381.924972763656, 15468.457695061887, 22856.648010807992, 24559.515662135564, -187500.02235174447, -187500.02235174447, 0.23, 0.932, -0.202, 192.0, 0.0, 0.0, 0.0, 0.0, 0.0, 0.0, 0.0, 0.0, 0.0, 1.7296934676819215E9, 0.0, 2024-10-23 19:54:27.681
28.0, 21382.304594791483, 17116.63062770732, 42374.57124883786, 16832.71876963601, 23024.55431515626, 25782.02197337413, -187500.02235174447, -187500.02235174447, 0.224, 0.928, -0.212, 192.0, 7.0, 0.0, 29.0, 0.0, 249.0, 96.0, 0.0, 0.0, 0.0, 1.7296934676819532E9, 0.0, 2024-10-23 19:54:27.681
29.0, 21163.32455436284, 20562.040276770625, 42219.89717720714, 17038.71244653612, 22911.16391553449, 25902.922559132883, -187500.02235174447, -187500.02235174447, 0.224, 0.928, -0.212, 192.0, 0.0, 0.0, 0.0, 0.0, 0.0, 0.0, 0.0, 0.0, 0.0, 1.7296934676835449E9, 0.0, 2024-10-23 19:54:27.683
30.0, 20865.107579840136, 20206.93811260916, 42246.33929089776, 16192.296587502551, 22827.188411615898, 25201.56952161426, -187500.02235174447, -187500.02235174447, 0.224, 0.928, -0.212, 192.0, 0.0, 0.0, 0.0, 0.0, 0.0, 0.0, 0.0, 0.0, 0.0, 1.729693467685171E9, 0.0, 2024-10-23 19:54:27.685
31.0, 20874.875292167104, 18224.785414312533, 42352.26420787146, 15804.426765969607, 22875.848159295103, 24875.435218266874, -187500.02235174447, -187500.02235174447, 0.224, 0.928, -0.212, 192.0, 0.0, 0.0, 0.0, 0.0, 0.0, 0.0, 0.0, 0.0, 0.0, 1.7296934676884413E9, 0.0, 2024-10-23 19:54:27.688
32.0, 20865.018172862314, 15070.976623413162, 42386.48472863254, 15478.2030556444, 22868.13680745802, 24571.026810530046, -187500.02235174447, -187500.02235174447, 0.224, 0.928, -0.212, 192.0, 0.0, 0.0, 0.0, 0.0, 0.0, 0.0, 0.0, 0.0, 0.0, 1.7296934676932895E9, 0.0, 2024-10-23 19:54:27.693
33.0, 21379.04124010101, 17151.25347986859, 42378.147527950714, 16844.207566286037, 23031.75157687087, 25791.25324383417, -187500.02235174447, -187500.02235174447, 0.224, 0.928, -0.212, 192.0, 0.0, 0.0, 0.0, 0.0, 0.0, 0.0, 0.0, 0.0, 0.0, 1.7296934677063415E9, 0.0, 2024-10-23 19:54:27.706
34.0, 21164.397438096697, 20584.570835181577, 42235.252825647935, 17040.388827370265, 22934.186212323453, 25911.349166792534, -187500.02235174447, -187500.02235174447, 0.224, 0.928, -0.212, 192.0, 0.0, 0.0, 0.0, 0.0, 0.0, 0.0, 0.0, 0.0, 0.0, 1.7296934677063744E9, 0.0, 2024-10-23 19:54:27.706
35.0, 20868.885024653082, 20204.412365485714, 42263.17015447261, 16183.087668786964, 22843.013446690256, 25197.7473733124, -187500.02235174447, -187500.02235174447, 0.224, 0.928, -0.212, 192.0, 0.0, 0.0, 0.0, 0.0, 0.0, 0.0, 0.0, 0.0, 0.0, 1.7296934677076223E9, 0.0, 2024-10-23 19:54:27.707
36.0, 20884.263024838332, 18215.822364785956, 42372.33607439233, 15793.630873397695, 22882.888958798525, 24875.882253155978, -187500.02235174447, -187500.02235174447, 0.224, 0.928, -0.212, 192.0, 0.0, 0.0, 0.0, 0.0, 0.0, 0.0, 0.0, 0.0, 0.0, 1.7296934677102222E9, 0.0, 2024-10-23 19:54:27.710
37.0, 20883.480713782395, 15076.430449060255, 42408.32238296537, 15470.044668918214, 22871.400162148497, 24565.595336627404, -187500.02235174447, -187500.02235174447, 0.224, 0.928, -0.212, 192.0, 0.0, 0.0, 0.0, 0.0, 0.0, 0.0, 0.0, 0.0, 0.0, 1.7296934677132144E9, 0.0, 2024-10-23 19:54:27.713
38.0, 21402.46586829017, 17187.329195419454, 42400.499272406014, 16841.055970317837, 23031.99744605988, 25781.641993718385, -187500.02235174447, -187500.02235174447, 0.218, 0.922, -0.214, 192.0, 6.0, 208.0, 28.0, 208.0, 249.0, 80.0, 0.0, 0.0, 0.0, 1.7296934677208261E9, 0.0, 2024-10-23 19:54:27.720
39.0, 21184.96104299558, 20600.37351851148, 42246.20518043103, 17027.693036519653, 22912.795592879724, 25890.94202410484, -187500.02235174447, -187500.02235174447, 0.218, 0.922, -0.214, 192.0, 0.0, 0.0, 0.0, 0.0, 0.0, 0.0, 0.0, 0.0, 0.0, 1.7296934677212715E9, 0.0, 2024-10-23 19:54:27.721
40.0, 20890.208588863443, 20204.814696885907, 42268.89220105317, 16172.180017492774, 22820.929923168413, 25186.996184229396, -187500.02235174447, -187500.02235174447, 0.218, 0.922, -0.214, 192.0, 0.0, 0.0, 0.0, 0.0, 0.0, 0.0, 0.0, 0.0, 0.0, 1.7296934677263603E9, 0.0, 2024-10-23 19:54:27.726
41.0, 20900.356280846154, 18208.04395771551, 42368.58098132384, 15780.778620335892, 22858.212632919865, 24858.805520392125, -187500.02235174447, -187500.02235174447, 0.218, 0.922, -0.214, 192.0, 0.0, 0.0, 0.0, 0.0, 0.0, 0.0, 0.0, 0.0, 0.0, 1.7296934677292173E9, 0.0, 2024-10-23 19:54:27.729
42.0, 20898.344623845176, 15066.416867544278, 42400.54397589493, 15468.323584595155, 22851.75297877228, 24559.515662135564, -187500.02235174447, -187500.02235174447, 0.218, 0.922, -0.214, 192.0, 0.0, 0.0, 0.0, 0.0, 0.0, 0.0, 0.0, 0.0, 0.0, 1.7296934677341964E9, 0.0, 2024-10-23 19:54:27.734
43.0, 21403.829324701946, 17199.46619265869, 42381.992027997025, 16846.800368642853, 23013.60196037316, 25774.712952937243, -187500.02235174447, -187500.02235174447, 0.218, 0.922, -0.214, 192.0, 0.0, 0.0, 0.0, 0.0, 0.0, 0.0, 0.0, 0.0, 0.0, 1.7296934677372284E9, 0.0, 2024-10-23 19:54:27.737
44.0, 21177.58496732533, 20599.345338266532, 42227.139142410655, 17029.168251653704, 22904.905427087, 25891.009079338204, -187500.02235174447, -187500.02235174447, 0.218, 0.922, -0.214, 192.0, 0.0, 0.0, 0.0, 0.0, 0.0, 0.0, 0.0, 0.0, 0.0, 1.7296934677412508E9, 0.0, 2024-10-23 19:54:27.741
45.0, 20878.853902680148, 20179.557225651413, 42245.15464844163, 16173.230549482174, 22814.671434720927, 25192.673527321047, -187500.02235174447, -187500.02235174447, 0.218, 0.922, -0.214, 192.0, 0.0, 0.0, 0.0, 0.0, 0.0, 0.0, 0.0, 0.0, 0.0, 1.7296934677442284E9, 0.0, 2024-10-23 19:54:27.744
46.0, 20887.682841739996, 18166.201492095173, 42344.50815254547, 15780.912730802624, 22856.603307319085, 24856.883270368966, -187500.02235174447, -187500.02235174447, 0.218, 0.922, -0.214, 192.0, 0.0, 0.0, 0.0, 0.0, 0.0, 0.0, 0.0, 0.0, 0.0, 1.7296934677492404E9, 0.0, 2024-10-23 19:54:27.749
47.0, 20885.179446361, 15014.627875641332, 42376.538202349926, 15469.508227051287, 22845.89682172499, 24567.00349652809, -187500.02235174447, -187500.02235174447, 0.218, 0.922, -0.214, 192.0, 0.0, 0.0, 0.0, 0.0, 0.0, 0.0, 0.0, 0.0, 0.0, 1.7296934677532542E9, 0.0, 2024-10-23 19:54:27.753
48.0, 21394.106315863886, 17178.4555528707, 42364.311798132876, 16849.348467510757, 23012.0820417502, 25786.402915287366, -187500.02235174447, -187500.02235174447, 0.226, 0.928, -0.22, 192.0, 7.0, 16.0, 29.0, 0.0, 249.0, 32.0, 0.0, 0.0, 0.0, 1.7296934677572913E9, 0.0, 2024-10-23 19:54:27.757
49.0, 21162.832815984824, 20566.26475647268, 42210.80001721383, 17017.098309647838, 22902.402031708007, 25884.482369957255, -187500.02235174447, -187500.02235174447, 0.226, 0.928, -0.22, 192.0, 0.0, 0.0, 0.0, 0.0, 0.0, 0.0, 0.0, 0.0, 0.0, 1.729693467761264E9, 0.0, 2024-10-23 19:54:27.761
50.0, 20870.360239787133, 20145.359056634792, 42238.40442161613, 16162.747581332635, 22819.65587373446, 25187.93495749652, -187500.02235174447, -187500.02235174447, 0.226, 0.928, -0.22, 192.0, 0.0, 0.0, 0.0, 0.0, 0.0, 0.0, 0.0, 0.0, 0.0, 1.7296934677662687E9, 0.0, 2024-10-23 19:54:27.766
51.0, 20876.909300912535, 18133.45618646815, 42338.51788503145, 15774.989518521968, 22864.448769622897, 24858.73846515876, -187500.02235174447, -187500.02235174447, 0.226, 0.928, -0.22, 192.0, 0.0, 0.0, 0.0, 0.0, 0.0, 0.0, 0.0, 0.0, 0.0, 1.7296934677692661E9, 0.0, 2024-10-23 19:54:27.769
52.0, 20875.85876892314, 14996.858238799363, 42373.811289526384, 15469.999965429302, 22859.28551665372, 24574.80425534299, -187500.02235174447, -187500.02235174447, 0.226, 0.928, -0.22, 192.0, 0.0, 0.0, 0.0, 0.0, 0.0, 0.0, 0.0, 0.0, 0.0, 1.7296934677723277E9, 0.0, 2024-10-23 19:54:27.772
53.0, 21387.065516360464, 17204.49533516113, 42360.735519020025, 16856.478673992002, 23023.146155255577, 25796.997642159182, -187500.02235174447, -187500.02235174447, 0.226, 0.928, -0.22, 192.0, 0.0, 0.0, 0.0, 0.0, 0.0, 0.0, 0.0, 0.0, 0.0, 1.7296934677782624E9, 0.0, 2024-10-23 19:54:27.778
54.0, 21149.645286756193, 20591.432820729355, 42201.16641535359, 17010.88452468926, 22908.63816841104, 25878.201529765312, -187500.02235174447, -187500.02235174447, 0.226, 0.928, -0.22, 192.0, 0.0, 0.0, 0.0, 0.0, 0.0, 0.0, 0.0, 0.0, 0.0, 1.7296934677812967E9, 0.0, 2024-10-23 19:54:27.781
55.0, 20856.300992524742, 20164.335687677347, 42228.41319184461, 16157.71843883019, 22828.484812794308, 25183.933995239022, -187500.02235174447, -187500.02235174447, 0.226, 0.928, -0.22, 192.0, 0.0, 0.0, 0.0, 0.0, 0.0, 0.0, 0.0, 0.0, 0.0, 1.7296934677853053E9, 0.0, 2024-10-23 19:54:27.785
56.0, 20865.644021707063, 18152.812797166443, 42330.91829191665, 15772.26260569842, 22870.774313303747, 24863.499386727737, -187500.02235174447, -187500.02235174447, 0.226, 0.928, -0.22, 192.0, 0.0, 0.0, 0.0, 0.0, 0.0, 0.0, 0.0, 0.0, 0.0, 1.7296934677923057E9, 0.0, 2024-10-23 19:54:27.792
57.0, 20869.197949075457, 15017.77947160953, 42364.8482399998, 15470.558759040685, 22862.43711262192, 24579.96750831217, -187500.02235174447, -187500.02235174447, 0.226, 0.928, -0.22, 192.0, 0.0, 0.0, 0.0, 0.0, 0.0, 0.0, 0.0, 0.0, 0.0, 1.7296934677953103E9, 0.0, 2024-10-23 19:54:27.795
58.0, 21373.877987131833, 17242.582707712972, 42349.60435028128, 16856.053990847347, 23026.878896579612, 25807.122982397435, -187500.02235174447, -187500.02235174447, 0.228, 0.932, -0.222, 192.0, 7.0, 32.0, 29.0, 32.0, 249.0, 16.0, 0.0, 0.0, 0.0, 1.7296934677993464E9, 0.0, 2024-10-23 19:54:27.799
59.0, 21147.968905922047, 20629.028454903182, 42209.07893289077, 17014.684321246663, 22921.602180195117, 25893.467771228286, -187500.02235174447, -187500.02235174447, 0.228, 0.932, -0.222, 192.0, 0.0, 0.0, 0.0, 0.0, 0.0, 0.0, 0.0, 0.0, 0.0, 1.7296934678023095E9, 0.0, 2024-10-23 19:54:27.802
60.0, 20861.97833561639, 20181.56888265239, 42245.51227635292, 16168.447276168738, 22839.772443744238, 25197.85913203468, -187500.02235174447, -187500.02235174447, 0.228, 0.932, -0.222, 192.0, 0.0, 0.0, 0.0, 0.0, 0.0, 0.0, 0.0, 0.0, 0.0, 1.7296934678063412E9, 0.0, 2024-10-23 19:54:27.806
61.0, 20872.46130376593, 18152.768093677532, 42349.80551598138, 15786.970053550012, 22877.211615706878, 24863.83466289457, -187500.02235174447, -187500.02235174447, 0.228, 0.932, -0.222, 192.0, 0.0, 0.0, 0.0, 0.0, 0.0, 0.0, 0.0, 0.0, 0.0, 1.7296934678093083E9, 0.0, 2024-10-23 19:54:27.809
62.0, 20883.056030637745, 15016.170146008748, 42388.38462691124, 15489.82596276116, 22869.746133058805, 24577.173540255255, -187500.02235174447, -187500.02235174447, 0.228, 0.932, -0.222, 192.0, 0.0, 0.0, 0.0, 0.0, 0.0, 0.0, 0.0, 0.0, 0.0, 1.7296934678133564E9, 0.0, 2024-10-23 19:54:27.813
63.0, 21394.061612374975, 17265.85087369095, 42373.453661615094, 16878.897473680674, 23024.934294812, 25802.317357339547, -187500.02235174447, -187500.02235174447, 0.228, 0.932, -0.222, 192.0, 0.0, 0.0, 0.0, 0.0, 0.0, 0.0, 0.0, 0.0, 0.0, 1.7296934678173363E9, 0.0, 2024-10-23 19:54:27.817
64.0, 21163.57042355185, 20629.117861881, 42225.820389487795, 17029.727045265085, 22914.20375278041, 25893.020736339182, -187500.02235174447, -187500.02235174447, 0.228, 0.932, -0.222, 192.0, 0.0, 0.0, 0.0, 0.0, 0.0, 0.0, 0.0, 0.0, 0.0, 1.7296934678217535E9, 0.0, 2024-10-23 19:54:27.821
65.0, 20877.84807417966, 20158.256013185503, 42257.045776491854, 16182.215950753207, 22831.94933318488, 25203.0000332594, -187500.02235174447, -187500.02235174447, 0.228, 0.932, -0.222, 192.0, 0.0, 0.0, 0.0, 0.0, 0.0, 0.0, 0.0, 0.0, 0.0, 1.729693467825382E9, 0.0, 2024-10-23 19:54:27.825
66.0, 20884.195969604967, 18107.371700688804, 42350.67723401514, 15790.814553596325, 22864.515824856262, 24861.241860537753, -187500.02235174447, -187500.02235174447, 0.228, 0.932, -0.222, 192.0, 0.0, 0.0, 0.0, 0.0, 0.0, 0.0, 0.0, 0.0, 0.0, 1.7296934678284009E9, 0.0, 2024-10-23 19:54:27.828
67.0, 20894.589530776684, 14958.189720891682, 42385.18832745413, 15491.055308706202, 22860.09017945411, 24579.878101334347, -187500.02235174447, -187500.02235174447, 0.228, 0.932, -0.222, 192.0, 0.0, 0.0, 0.0, 0.0, 0.0, 0.0, 0.0, 0.0, 0.0, 1.729693467832393E9, 0.0, 2024-10-23 19:54:27.832
68.0, 21403.42699330175, 17233.150271552833, 42368.69274004611, 16874.650642234166, 23017.669977864025, 25792.81786594604, -187500.02235174447, -187500.02235174447, 0.226, 0.928, -0.224, 192.0, 7.0, 16.0, 29.0, 0.0, 249.0, 0.0, 0.0, 0.0, 0.0, 1.729693467837345E9, 0.0, 2024-10-23 19:54:27.837
69.0, 21163.682182274126, 20578.513512434187, 42215.69504924954, 17003.709614719108, 22901.172685762966, 25854.396921920412, -187500.02235174447, -187500.02235174447, 0.226, 0.928, -0.224, 192.0, 0.0, 0.0, 0.0, 0.0, 0.0, 0.0, 0.0, 0.0, 0.0, 1.7296934678423653E9, 0.0, 2024-10-23 19:54:27.842
70.0, 20879.546806758262, 20093.72652694303, 42249.73675605497, 16151.77287480508, 22828.149536627476, 25172.869881733644, -187500.02235174447, -187500.02235174447, 0.226, 0.928, -0.224, 192.0, 0.0, 0.0, 0.0, 0.0, 0.0, 0.0, 0.0, 0.0, 0.0, 1.7296934678463776E9, 0.0, 2024-10-23 19:54:27.846
71.0, 20888.778077218303, 18043.84804294682, 42348.10678340278, 15766.540559117862, 22863.353534144586, 24853.999895334233, -187500.02235174447, -187500.02235174447, 0.226, 0.928, -0.224, 192.0, 0.0, 0.0, 0.0, 0.0, 0.0, 0.0, 0.0, 0.0, 0.0, 1.72969346784937E9, 0.0, 2024-10-23 19:54:27.849
72.0, 20898.456382567452, 14900.52222019699, 42382.77433905296, 15474.067982920169, 22856.603307319085, 24580.72746762365, -187500.02235174447, -187500.02235174447, 0.226, 0.928, -0.224, 192.0, 0.0, 0.0, 0.0, 0.0, 0.0, 0.0, 0.0, 0.0, 0.0, 1.729693467854408E9, 0.0, 2024-10-23 19:54:27.854
73.0, 21406.220961358664, 17203.06482351599, 42369.49740284651, 16866.24638631897, 23017.446460419473, 25795.231854347214, -187500.02235174447, -187500.02235174447, 0.226, 0.928, -0.224, 192.0, 0.0, 0.0, 0.0, 0.0, 0.0, 0.0, 0.0, 0.0, 0.0, 1.7296934678584087E9, 0.0, 2024-10-23 19:54:27.858
74.0, 21167.72784802054, 20537.408654380877, 42221.327688852274, 16992.779611680464, 22905.933607331946, 25857.570869633066, -187500.02235174447, -187500.02235174447, 0.226, 0.928, -0.224, 192.0, 0.0, 0.0, 0.0, 0.0, 0.0, 0.0, 0.0, 0.0, 0.0, 1.7296934678624072E9, 0.0, 2024-10-23 19:54:27.862
75.0, 20878.60803349114, 20041.222279217516, 42250.16143919962, 16142.161624689297, 22825.579086015117, 25174.702724778977, -187500.02235174447, -187500.02235174447, 0.226, 0.928, -0.224, 192.0, 0.0, 0.0, 0.0, 0.0, 0.0, 0.0, 0.0, 0.0, 0.0, 1.729693467865419E9, 0.0, 2024-10-23 19:54:27.865
76.0, 20882.385478304088, 17994.785963867424, 42346.36334733526, 15758.829207280782, 22866.23690917932, 24854.312819756607, -187500.02235174447, -187500.02235174447, 0.226, 0.928, -0.224, 192.0, 0.0, 0.0, 0.0, 0.0, 0.0, 0.0, 0.0, 0.0, 0.0, 1.729693467869376E9, 0.0, 2024-10-23 19:54:27.869
77.0, 20893.248426109367, 14862.256033689504, 42381.16501345218, 15477.308985866188, 22868.96382200287, 24591.50100845111, -187500.02235174447, -187500.02235174447, 0.226, 0.928, -0.224, 192.0, 0.0, 0.0, 0.0, 0.0, 0.0, 0.0, 0.0, 0.0, 0.0, 1.7296934678734143E9, 0.0, 2024-10-23 19:54:27.873
78.0, 21387.825475671947, 17193.27475944457, 42357.20394339609, 16874.829456189807, 23021.64858837707, 25817.78476450262, -187500.02235174447, -187500.02235174447, 0.224, 0.928, -0.222, 192.0, 7.0, 0.0, 29.0, 0.0, 249.0, 16.0, 0.0, 0.0, 0.0, 1.7296934678795004E9, 0.0, 2024-10-23 19:54:27.879
79.0, 21137.687103472603, 20524.95873271927, 42201.8593194317, 16991.930245391162, 22901.1056305296, 25863.896413313916, -187500.02235174447, -187500.02235174447, 0.224, 0.928, -0.222, 192.0, 0.0, 0.0, 0.0, 0.0, 0.0, 0.0, 0.0, 0.0, 0.0, 1.7296934678824413E9, 0.0, 2024-10-23 19:54:27.882
80.0, 20850.243669777356, 20023.653808075644, 42230.22368314549, 16141.37931363336, 22825.13205112601, 25167.281945619816, -187500.02235174447, -187500.02235174447, 0.224, 0.928, -0.222, 192.0, 0.0, 0.0, 0.0, 0.0, 0.0, 0.0, 0.0, 0.0, 0.0, 1.7296934678854897E9, 0.0, 2024-10-23 19:54:27.885
81.0, 20858.55851871473, 17971.920129289643, 42328.34784130428, 15759.633870081172, 22866.974516746344, 24841.460566694805, -187500.02235174447, -187500.02235174447, 0.224, 0.928, -0.222, 192.0, 0.0, 0.0, 0.0, 0.0, 0.0, 0.0, 0.0, 0.0, 0.0, 1.7296934678894377E9, 0.0, 2024-10-23 19:54:27.889
82.0, 20873.93651889998, 14848.397952127214, 42364.98235046653, 15479.96884345637, 22869.589670847618, 24580.839226345925, -187500.02235174447, -187500.02235174447, 0.224, 0.928, -0.222, 192.0, 0.0, 0.0, 0.0, 0.0, 0.0, 0.0, 0.0, 0.0, 0.0, 1.729693467893454E9, 0.0, 2024-10-23 19:54:27.893
83.0, 21376.8954726333, 17221.63912315835, 42346.85508571328, 16878.450438791566, 23037.160699029053, 25828.535953585622, -187500.02235174447, -187500.02235174447, 0.224, 0.928, -0.222, 192.0, 0.0, 0.0, 0.0, 0.0, 0.0, 0.0, 0.0, 0.0, 0.0, 1.7296934678974457E9, 0.0, 2024-10-23 19:54:27.897
84.0, 21130.579248735816, 20551.602012109997, 42196.40549378461, 16992.421983769178, 22910.828639367657, 25866.623326137465, -187500.02235174447, -187500.02235174447, 0.224, 0.928, -0.222, 192.0, 0.0, 0.0, 0.0, 0.0, 0.0, 0.0, 0.0, 0.0, 0.0, 1.7296934679014843E9, 0.0, 2024-10-23 19:54:27.901
85.0, 20851.629477933584, 20043.01041877394, 42235.61045355922, 16145.179110190764, 22833.156327385466, 25176.133236424117, -187500.02235174447, -187500.02235174447, 0.224, 0.928, -0.222, 192.0, 0.0, 0.0, 0.0, 0.0, 0.0, 0.0, 0.0, 0.0, 0.0, 1.72969346790546E9, 0.0, 2024-10-23 19:54:27.905
86.0, 20862.134797827577, 17990.13680102072, 42335.41099255216, 15757.935137502569, 22869.589670847618, 24848.076683053576, -187500.02235174447, -187500.02235174447, 0.224, 0.928, -0.222, 192.0, 0.0, 0.0, 0.0, 0.0, 0.0, 0.0, 0.0, 0.0, 0.0, 1.7296934679094956E9, 0.0, 2024-10-23 19:54:27.909
87.0, 20877.84807417966, 14862.390144156236, 42366.122289433755, 15467.697735750406, 22863.06296146667, 24576.81591234397, -187500.02235174447, -187500.02235174447, 0.224, 0.928, -0.222, 192.0, 0.0, 0.0, 0.0, 0.0, 0.0, 0.0, 0.0, 0.0, 0.0, 1.7296934679124577E9, 0.0, 2024-10-23 19:54:27.912
88.0, 21379.354164523385, 17265.694411479762, 42347.1456583912, 16867.967470642026, 23021.000387787866, 25805.290139352102, -187500.02235174447, -187500.02235174447, 0.228, 0.928, -0.218, 192.0, 7.0, 32.0, 29.0, 0.0, 249.0, 48.0, 0.0, 0.0, 0.0, 1.7296934679164934E9, 0.0, 2024-10-23 19:54:27.916
89.0, 21140.346961062787, 20593.243312030234, 42201.38993279814, 16972.21600678158, 22903.363156719584, 25852.564078875075, -187500.02235174447, -187500.02235174447, 0.228, 0.928, -0.218, 192.0, 0.0, 0.0, 0.0, 0.0, 0.0, 0.0, 0.0, 0.0, 0.0, 1.7296934679224868E9, 0.0, 2024-10-23 19:54:27.922
90.0, 20861.41954200501, 20054.789788101887, 42232.05652619083, 16112.009121419087, 22813.978530642813, 25152.26157334585, -187500.02235174447, -187500.02235174447, 0.228, 0.928, -0.218, 192.0, 0.0, 0.0, 0.0, 0.0, 0.0, 0.0, 0.0, 0.0, 0.0, 1.7296934679254556E9, 0.0, 2024-10-23 19:54:27.925
91.0, 20873.93651889998, 17983.096001517297, 42332.41585879515, 15729.459015066508, 22851.350647372084, 24828.07187176608, -187500.02235174447, -187500.02235174447, 0.228, 0.928, -0.218, 192.0, 0.0, 0.0, 0.0, 0.0, 0.0, 0.0, 0.0, 0.0, 0.0, 1.7296934679304652E9, 0.0, 2024-10-23 19:54:27.930
92.0, 20894.94715868797, 14860.646708088721, 42370.77145228046, 15463.96499442637, 22854.52459508474, 24583.43202870274, -187500.02235174447, -187500.02235174447, 0.228, 0.928, -0.218, 192.0, 0.0, 0.0, 0.0, 0.0, 0.0, 0.0, 0.0, 0.0, 0.0, 1.7296934679345329E9, 0.0, 2024-10-23 19:54:27.934
93.0, 21394.70981296418, 17285.18513264479, 42346.832733968826, 16871.610804988242, 23008.461059148438, 25799.143409626893, -187500.02235174447, -187500.02235174447, 0.228, 0.928, -0.218, 192.0, 0.0, 0.0, 0.0, 0.0, 0.0, 0.0, 0.0, 0.0, 0.0, 1.7296934679374816E9, 0.0, 2024-10-23 19:54:27.937
94.0, 21144.392626809196, 20581.173370024368, 42194.63970597264, 16961.062486298382, 22885.705278599893, 25823.886790738918, -187500.02235174447, -187500.02235174447, 0.228, 0.928, -0.218, 192.0, 0.0, 0.0, 0.0, 0.0, 0.0, 0.0, 0.0, 0.0, 0.0, 1.7296934679406588E9, 0.0, 2024-10-23 19:54:27.940
95.0, 20862.2242048054, 20026.403072643647, 42227.40736334412, 16109.885705695833, 22811.22926607481, 25149.042922144286, -187500.02235174447, -187500.02235174447, 0.228, 0.928, -0.218, 192.0, 0.0, 0.0, 0.0, 0.0, 0.0, 0.0, 0.0, 0.0, 0.0, 1.7296934679445183E9, 0.0, 2024-10-23 19:54:27.944
96.0, 20870.874329909602, 17948.36139063375, 42325.84444592529, 15731.627134278671, 22852.445882850396, 24828.518906655183, -187500.02235174447, -187500.02235174447, 0.228, 0.928, -0.218, 192.0, 0.0, 0.0, 0.0, 0.0, 0.0, 0.0, 0.0, 0.0, 0.0, 1.7296934679485064E9, 0.0, 2024-10-23 19:54:27.948
97.0, 20900.244522123878, 14844.620507314266, 42371.10672844729, 15472.68217476394, 22868.13680745802, 24595.926653853257, -187500.02235174447, -187500.02235174447, 0.228, 0.928, -0.218, 192.0, 0.0, 0.0, 0.0, 0.0, 0.0, 0.0, 0.0, 0.0, 0.0, 1.7296934679535596E9, 0.0, 2024-10-23 19:54:27.953
98.0, 21402.644682245813, 17295.84691474997, 42351.81717298236, 16885.11125863925, 23021.17920174351, 25823.55151457209, -187500.02235174447, -187500.02235174447, 0.228, 0.928, -0.218, 192.0, 0.0, 0.0, 0.0, 0.0, 0.0, 0.0, 0.0, 0.0, 0.0, 1.729693467957556E9, 0.0, 2024-10-23 19:54:27.957
99.0, 21144.61614425375, 20562.509663404187, 42195.39966528412, 16959.810788608884, 22889.9521100464, 25816.35425285748, -187500.02235174447, -187500.02235174447, 0.23, 0.928, -0.224, 192.0, 7.0, 48.0, 29.0, 0.0, 249.0, 0.0, 0.0, 0.0, 0.0, 1.729693467961524E9, 0.0, 2024-10-23 19:54:27.961
100.0, 20867.40980951903, 20002.8219822433, 42235.811619259315, 16116.14419414332, 22817.957141155857, 25154.675561747023, -187500.02235174447, -187500.02235174447, 0.23, 0.928, -0.224, 192.0, 0.0, 0.0, 0.0, 0.0, 0.0, 0.0, 0.0, 0.0, 0.0, 1.7296934679646132E9, 0.0, 2024-10-23 19:54:27.964
101.0, 20874.092981111167, 17941.87938474171, 42338.13790537571, 15746.893375741647, 22865.0969702121, 24856.547994202137, -187500.02235174447, -187500.02235174447, 0.23, 0.928, -0.224, 192.0, 0.0, 0.0, 0.0, 0.0, 0.0, 0.0, 0.0, 0.0, 0.0, 1.729693467968613E9, 0.0, 2024-10-23 19:54:27.968
102.0, 20903.731394258906, 14865.362926168791, 42378.751025051, 15491.055308706202, 22867.421551635452, 24613.69629069523, -187500.02235174447, -187500.02235174447, 0.23, 0.928, -0.224, 192.0, 0.0, 0.0, 0.0, 0.0, 0.0, 0.0, 0.0, 0.0, 0.0, 1.729693467972734E9, 0.0, 2024-10-23 19:54:27.972
103.0, 21402.890551434823, 17325.2394587087, 42361.294312631406, 16901.293921624892, 23026.99065530189, 25834.794442033108, -187500.02235174447, -187500.02235174447, 0.23, 0.928, -0.224, 192.0, 0.0, 0.0, 0.0, 0.0, 0.0, 0.0, 0.0, 0.0, 0.0, 1.7296934679766128E9, 0.0, 2024-10-23 19:54:27.976
104.0, 21144.03499889791, 20555.96060227878, 42212.454046303515, 16977.46866672858, 22904.078412542156, 25842.88577352593, -187500.02235174447, -187500.02235174447, 0.23, 0.928, -0.224, 192.0, 0.0, 0.0, 0.0, 0.0, 0.0, 0.0, 0.0, 0.0, 0.0, 1.7296934679816425E9, 0.0, 2024-10-23 19:54:27.981
105.0, 20862.403018761044, 19976.29046157485, 42250.764936299915, 16125.7554442591, 22831.926981440425, 25157.089550148197, -187500.02235174447, -187500.02235174447, 0.23, 0.928, -0.224, 192.0, 0.0, 0.0, 0.0, 0.0, 0.0, 0.0, 0.0, 0.0, 0.0, 1.72969346798562E9, 0.0, 2024-10-23 19:54:27.985
106.0, 20865.062876351225, 17909.15643085914, 42348.33030084733, 15748.949736231536, 22873.14359821601, 24840.521793427684, -187500.02235174447, -187500.02235174447, 0.23, 0.928, -0.224, 192.0, 0.0, 0.0, 0.0, 0.0, 0.0, 0.0, 0.0, 0.0, 0.0, 1.7296934679896207E9, 0.0, 2024-10-23 19:54:27.989
107.0, 20890.36505107463, 14838.339667122325, 42383.310780919885, 15499.370157643576, 22873.545929616204, 24616.82553491897, -187500.02235174447, -187500.02235174447, 0.23, 0.928, -0.224, 192.0, 0.0, 0.0, 0.0, 0.0, 0.0, 0.0, 0.0, 0.0, 0.0, 1.729693467992617E9, 0.0, 2024-10-23 19:54:27.992
108.0, 21386.484371004626, 17326.982894776214, 42358.366234107765, 16915.934314243117, 23034.210268760955, 25833.78861353262, -187500.02235174447, -187500.02235174447, 0.23, 0.928, -0.224, 192.0, 0.0, 0.0, 0.0, 0.0, 0.0, 0.0, 0.0, 0.0, 0.0, 1.7296934679976E9, 0.0, 2024-10-23 19:54:27.997
109.0, 21122.89024864319, 20546.885794029928, 42201.702857220516, 16981.60373945281, 22908.034671310746, 25840.49413686921, -187500.02235174447, -187500.02235174447, 0.226, 0.928, -0.226, 192.0, 7.0, 16.0, 29.0, 0.0, 248.0, 240.0, 0.0, 0.0, 0.0, 1.7296934680017283E9, 0.0, 2024-10-23 19:54:28.001
110.0, 20848.45553022093, 19966.455694014516, 42238.605587316226, 16132.103339684409, 22836.844365220593, 25171.841701488698, -187500.02235174447, -187500.02235174447, 0.226, 0.928, -0.226, 192.0, 0.0, 0.0, 0.0, 0.0, 0.0, 0.0, 0.0, 0.0, 0.0, 1.7296934680066197E9, 0.0, 2024-10-23 19:54:28.006
111.0, 20856.65862043603, 17901.087451110776, 42331.70060297258, 15753.241271166955, 22876.18343546193, 24852.792901133646, -187500.02235174447, -187500.02235174447, 0.226, 0.928, -0.226, 192.0, 0.0, 0.0, 0.0, 0.0, 0.0, 0.0, 0.0, 0.0, 0.0, 1.729693468009606E9, 0.0, 2024-10-23 19:54:28.009
112.0, 20884.88887368308, 14842.921774735663, 42359.10384167479, 15496.553837842208, 22873.3000604272, 24608.48833423714, -187500.02235174447, -187500.02235174447, 0.226, 0.928, -0.226, 192.0, 0.0, 0.0, 0.0, 0.0, 0.0, 0.0, 0.0, 0.0, 0.0, 1.7296934680136209E9, 0.0, 2024-10-23 19:54:28.013
113.0, 21383.243368058607, 17359.079999814036, 42336.841504197306, 16902.143287914194, 23032.332722226707, 25830.234686164225, -187500.02235174447, -187500.02235174447, 0.226, 0.928, -0.226, 192.0, 0.0, 0.0, 0.0, 0.0, 0.0, 0.0, 0.0, 0.0, 0.0, 1.7296934680176454E9, 0.0, 2024-10-23 19:54:28.017
114.0, 21124.99131262199, 20567.002364039705, 42186.39191226863, 16960.861320598284, 22902.849066597115, 25840.047101980104, -187500.02235174447, -187500.02235174447, 0.226, 0.928, -0.226, 192.0, 0.0, 0.0, 0.0, 0.0, 0.0, 0.0, 0.0, 0.0, 0.0, 1.7296934680207229E9, 0.0, 2024-10-23 19:54:28.020
115.0, 20850.847166877647, 19971.261319072404, 42218.55607253982, 16110.198630118208, 22816.61603648854, 25153.669733246534, -187500.02235174447, -187500.02235174447, 0.226, 0.928, -0.226, 192.0, 0.0, 0.0, 0.0, 0.0, 0.0, 0.0, 0.0, 0.0, 0.0, 1.729693468024619E9, 0.0, 2024-10-23 19:54:28.024
116.0, 20862.425370505498, 17911.659826238138, 42319.72006794454, 15736.745683758938, 22858.212632919865, 24843.360464973506, -187500.02235174447, -187500.02235174447, 0.226, 0.928, -0.226, 192.0, 0.0, 0.0, 0.0, 0.0, 0.0, 0.0, 0.0, 0.0, 0.0, 1.729693468028633E9, 0.0, 2024-10-23 19:54:28.028
117.0, 20899.79748723477, 14864.446504646125, 42357.65097828519, 15490.87649475056, 22859.889013754015, 24612.891627894835, -187500.02235174447, -187500.02235174447, 0.226, 0.928, -0.226, 192.0, 0.0, 0.0, 0.0, 0.0, 0.0, 0.0, 0.0, 0.0, 0.0, 1.7296934680326073E9, 0.0, 2024-10-23 19:54:28.032
118.0, 21394.553350752994, 17402.755308479704, 42333.332280317816, 16896.890627967194, 23011.813820816737, 25821.562209315565, -187500.02235174447, -187500.02235174447, 0.226, 0.928, -0.226, 192.0, 0.0, 0.0, 0.0, 0.0, 0.0, 0.0, 0.0, 0.0, 0.0, 1.7296934680376365E9, 0.0, 2024-10-23 19:54:28.037
119.0, 21129.46166151305, 20588.527093950164, 42181.563935466285, 16933.771006318453, 22877.032801751233, 25798.517560782144, -187500.02235174447, -187500.02235174447, 0.228, 0.926, -0.232, 192.0, 7.0, 32.0, 28.0, 240.0, 248.0, 192.0, 0.0, 0.0, 0.0, 1.7296934680416443E9, 0.0, 2024-10-23 19:54:28.041
120.0, 20863.31944028371, 19981.163141866105, 42226.33447961027, 16083.823571660945, 22812.145687597476, 25117.81753514022, -187500.02235174447, -187500.02235174447, 0.228, 0.926, -0.232, 192.0, 0.0, 0.0, 0.0, 0.0, 0.0, 0.0, 0.0, 0.0, 0.0, 1.7296934680466957E9, 0.0, 2024-10-23 19:54:28.046
121.0, 20874.763533444828, 17909.134079114687, 42330.0912773718, 15716.159727115599, 22858.413798619964, 24824.20501997531, -187500.02235174447, -187500.02235174447, 0.228, 0.926, -0.232, 192.0, 0.0, 0.0, 0.0, 0.0, 0.0, 0.0, 0.0, 0.0, 0.0, 1.7296934680576937E9, 0.0, 2024-10-23 19:54:28.057
122.0, 20914.28141764181, 14864.334745923847, 42374.45949011559, 15485.422669103466, 22864.91815625646, 24614.8585814069, -187500.02235174447, -187500.02235174447, 0.228, 0.926, -0.232, 192.0, 0.0, 0.0, 0.0, 0.0, 0.0, 0.0, 0.0, 0.0, 0.0, 1.729693468057845E9, 0.0, 2024-10-23 19:54:28.057
123.0, 21408.702004993203, 17439.568631597595, 42354.74525150601, 16904.19964840408, 23023.257913977854, 25835.286180411123, -187500.02235174447, -187500.02235174447, 0.228, 0.926, -0.232, 192.0, 0.0, 0.0, 0.0, 0.0, 0.0, 0.0, 0.0, 0.0, 0.0, 1.729693468057871E9, 0.0, 2024-10-23 19:54:28.057
124.0, 21144.52673727593, 20622.79231820015, 42210.04005790235, 16948.7019716146, 22896.210598493886, 25828.334787885524, -187500.02235174447, -187500.02235174447, 0.228, 0.926, -0.232, 192.0, 0.0, 0.0, 0.0, 0.0, 0.0, 0.0, 0.0, 0.0, 0.0, 1.7296934680612907E9, 0.0, 2024-10-23 19:54:28.061
125.0, 20879.926786414002, 20003.201961899038, 42257.93984627007, 16109.148098128808, 22828.641275005495, 25152.619201257134, -187500.02235174447, -187500.02235174447, 0.228, 0.926, -0.232, 192.0, 0.0, 0.0, 0.0, 0.0, 0.0, 0.0, 0.0, 0.0, 0.0, 1.729693468064902E9, 0.0, 2024-10-23 19:54:28.064
126.0, 20880.46322828093, 17911.39160530467, 42352.46537357156, 15734.73402675796, 22867.15333070199, 24822.461583907796, -187500.02235174447, -187500.02235174447, 0.228, 0.926, -0.232, 192.0, 0.0, 0.0, 0.0, 0.0, 0.0, 0.0, 0.0, 0.0, 0.0, 1.7296934680696833E9, 0.0, 2024-10-23 19:54:28.069
127.0, 20922.260990412356, 14866.882844791753, 42397.25826946, 15508.959056014903, 22884.073601254655, 24636.584477017463, -187500.02235174447, -187500.02235174447, 0.228, 0.926, -0.232, 192.0, 0.0, 0.0, 0.0, 0.0, 0.0, 0.0, 0.0, 0.0, 0.0, 1.7296934680736809E9, 0.0, 2024-10-23 19:54:28.073
128.0, 21416.793336486022, 17478.75123962775, 42378.25928667299, 16935.268573196958, 23042.03337932031, 25863.717599358275, -187500.02235174447, -187500.02235174447, 0.228, 0.926, -0.232, 192.0, 0.0, 0.0, 0.0, 0.0, 0.0, 0.0, 0.0, 0.0, 0.0, 1.7296934680769284E9, 0.0, 2024-10-23 19:54:28.076
129.0, 21143.140929119698, 20655.336458127076, 42227.67558427758, 16964.236434011036, 22905.19599976492, 25835.576753089044, -187500.02235174447, -187500.02235174447, 0.224, 0.93, -0.23, 192.0, 7.0, 0.0, 29.0, 16.0, 248.0, 208.0, 0.0, 0.0, 0.0, 1.729693468081042E9, 0.0, 2024-10-23 19:54:28.081
130.0, 20869.287356053275, 20008.18640091257, 42267.46168940803, 16119.988694189633, 22837.403158831974, 25162.11869265064, -187500.02235174447, -187500.02235174447, 0.224, 0.93, -0.23, 192.0, 0.0, 0.0, 0.0, 0.0, 0.0, 0.0, 0.0, 0.0, 0.0, 1.7296934680847087E9, 0.0, 2024-10-23 19:54:28.084
131.0, 20874.428257278, 17902.674424967103, 42368.73744353503, 15752.369553133198, 22882.732496587338, 24850.334209243563, -187500.02235174447, -187500.02235174447, 0.224, 0.93, -0.23, 192.0, 0.0, 0.0, 0.0, 0.0, 0.0, 0.0, 0.0, 0.0, 0.0, 1.7296934680903263E9, 0.0, 2024-10-23 19:54:28.090
132.0, 20920.964589233947, 14851.258975417493, 42413.19506325663, 15532.69660862644, 22893.573092648163, 24649.704951012725, -187500.02235174447, -187500.02235174447, 0.224, 0.93, -0.23, 192.0, 0.0, 0.0, 0.0, 0.0, 0.0, 0.0, 0.0, 0.0, 0.0, 1.7296934680927007E9, 0.0, 2024-10-23 19:54:28.092
133.0, 21404.499877035603, 17482.70749839634, 42385.03186524294, 16949.417227437167, 23046.816652633748, 25856.296820199113, -187500.02235174447, -187500.02235174447, 0.224, 0.93, -0.23, 192.0, 0.0, 0.0, 0.0, 0.0, 0.0, 0.0, 0.0, 0.0, 0.0, 1.7296934680988343E9, 0.0, 2024-10-23 19:54:28.098
134.0, 21128.075853356822, 20647.2227748898, 42230.4695523345, 16963.320012488366, 22913.242627768832, 25824.624398305943, -187500.02235174447, -187500.02235174447, 0.224, 0.93, -0.23, 192.0, 0.0, 0.0, 0.0, 0.0, 0.0, 0.0, 0.0, 0.0, 0.0, 1.7296934681026528E9, 0.0, 2024-10-23 19:54:28.102
135.0, 20863.31944028371, 19987.891016947153, 42269.160421986635, 16117.753519744101, 22843.304019368177, 25157.961268181953, -187500.02235174447, -187500.02235174447, 0.224, 0.93, -0.23, 192.0, 0.0, 0.0, 0.0, 0.0, 0.0, 0.0, 0.0, 0.0, 0.0, 1.7296934681073003E9, 0.0, 2024-10-23 19:54:28.107
136.0, 20862.358315272133, 17864.14001752615, 42351.72776600454, 15737.036256436857, 22874.641165094516, 24837.146680014932, -187500.02235174447, -187500.02235174447, 0.224, 0.93, -0.23, 192.0, 0.0, 0.0, 0.0, 0.0, 0.0, 0.0, 0.0, 0.0, 0.0, 1.7296934681089125E9, 0.0, 2024-10-23 19:54:28.108
137.0, 20903.776097747817, 14805.706120217577, 42380.98619949653, 15509.361387415098, 22878.552720374195, 24638.149099129332, -187500.02235174447, -187500.02235174447, 0.224, 0.93, -0.23, 192.0, 0.0, 0.0, 0.0, 0.0, 0.0, 0.0, 0.0, 0.0, 0.0, 1.7296934681127472E9, 0.0, 2024-10-23 19:54:28.112
138.0, 21392.76521119657, 17479.35473672804, 42352.46537357156, 16924.20445969158, 23034.32202748323, 25837.029616478638, -187500.02235174447, -187500.02235174447, 0.224, 0.93, -0.23, 192.0, 0.0, 0.0, 0.0, 0.0, 0.0, 0.0, 0.0, 0.0, 0.0, 1.72969346811675E9, 0.0, 2024-10-23 19:54:28.116
139.0, 21114.26247528344, 20642.238335876267, 42193.90209840561, 16924.53973585841, 22898.37871770605, 25792.035554890106, -187500.02235174447, -187500.02235174447, 0.22, 0.93, -0.226, 192.0, 6.0, 224.0, 29.0, 16.0, 248.0, 240.0, 0.0, 0.0, 0.0, 1.7296934681210485E9, 0.0, 2024-10-23 19:54:28.121
140.0, 20849.059027321226, 19966.790970181344, 42229.48607557846, 16080.291996037007, 22827.300170338174, 25148.819404699734, -187500.02235174447, -187500.02235174447, 0.22, 0.93, -0.226, 192.0, 0.0, 0.0, 0.0, 0.0, 0.0, 0.0, 0.0, 0.0, 0.0, 1.729693468125749E9, 0.0, 2024-10-23 19:54:28.125
141.0, 20854.40109424604, 17837.8096625578, 42315.853216153766, 15710.571791001772, 22861.721856799348, 24844.47805219627, -187500.02235174447, -187500.02235174447, 0.22, 0.93, -0.226, 192.0, 0.0, 0.0, 0.0, 0.0, 0.0, 0.0, 0.0, 0.0, 0.0, 1.7296934681297524E9, 0.0, 2024-10-23 19:54:28.129
142.0, 20901.540923302284, 14786.036585096906, 42345.42457406814, 15491.792916273227, 22864.024086478246, 24640.92071544179, -187500.02235174447, -187500.02235174447, 0.22, 0.93, -0.226, 192.0, 0.0, 0.0, 0.0, 0.0, 0.0, 0.0, 0.0, 0.0, 0.0, 1.7296934681327698E9, 0.0, 2024-10-23 19:54:28.132
143.0, 21386.104391348887, 17491.98347234529, 42309.70648642856, 16905.831325749317, 23009.9809777714, 25833.520392599155, -187500.02235174447, -187500.02235174447, 0.22, 0.93, -0.226, 192.0, 0.0, 0.0, 0.0, 0.0, 0.0, 0.0, 0.0, 0.0, 0.0, 1.7296934681367636E9, 0.0, 2024-10-23 19:54:28.136
144.0, 21112.36257700474, 20645.144062655458, 42160.73210963394, 16906.30071238288, 22878.172740718455, 25783.25131931917, -187500.02235174447, -187500.02235174447, 0.22, 0.93, -0.226, 192.0, 0.0, 0.0, 0.0, 0.0, 0.0, 0.0, 0.0, 0.0, 0.0, 1.7296934681407852E9, 0.0, 2024-10-23 19:54:28.140
145.0, 20857.664448936517, 19959.303135788818, 42210.04005790235, 16072.535940711015, 22812.995053886778, 25129.485145745894, -187500.02235174447, -187500.02235174447, 0.22, 0.93, -0.226, 192.0, 0.0, 0.0, 0.0, 0.0, 0.0, 0.0, 0.0, 0.0, 0.0, 1.729693468144794E9, 0.0, 2024-10-23 19:54:28.144
146.0, 20868.23682406388, 17834.613363100692, 42312.165178318646, 15710.951770657513, 22852.982324717323, 24824.58499963105, -187500.02235174447, -187500.02235174447, 0.22, 0.93, -0.226, 192.0, 0.0, 0.0, 0.0, 0.0, 0.0, 0.0, 0.0, 0.0, 0.0, 1.7296934681487935E9, 0.0, 2024-10-23 19:54:28.148
147.0, 20919.75759503336, 14800.341701548303, 42354.25351312799, 15504.466355379387, 22863.42058937795, 24642.64179976485, -187500.02235174447, -187500.02235174447, 0.22, 0.93, -0.226, 192.0, 0.0, 0.0, 0.0, 0.0, 0.0, 0.0, 0.0, 0.0, 0.0, 1.7296934681538148E9, 0.0, 2024-10-23 19:54:28.153
148.0, 21407.159734625788, 17540.79968223568, 42335.992137908004, 16927.043131237406, 23019.905152309555, 25846.015017749673, -187500.02235174447, -187500.02235174447, 0.22, 0.93, -0.226, 192.0, 0.0, 0.0, 0.0, 0.0, 0.0, 0.0, 0.0, 0.0, 0.0, 1.729693468157801E9, 0.0, 2024-10-23 19:54:28.157
149.0, 21133.842603426292, 20684.03609800769, 42198.81948218578, 16924.562087602866, 22891.114400758077, 25794.71776422474, -187500.02235174447, -187500.02235174447, 0.218, 0.932, -0.224, 192.0, 6.0, 208.0, 29.0, 32.0, 249.0, 0.0, 0.0, 0.0, 0.0, 1.7296934681609373E9, 0.0, 2024-10-23 19:54:28.160
150.0, 20877.02105963481, 19985.901711690633, 42250.94375025556, 16091.154943842286, 22824.32738832562, 25140.035169128798, -187500.02235174447, -187500.02235174447, 0.218, 0.932, -0.224, 192.0, 0.0, 0.0, 0.0, 0.0, 0.0, 0.0, 0.0, 0.0, 0.0, 1.7296934681647868E9, 0.0, 2024-10-23 19:54:28.164
151.0, 20879.0774201247, 17848.78436908536, 42345.357518834775, 15723.625209763672, 22854.61400206256, 24819.86878155098, -187500.02235174447, -187500.02235174447, 0.218, 0.932, -0.224, 192.0, 0.0, 0.0, 0.0, 0.0, 0.0, 0.0, 0.0, 0.0, 0.0, 1.7296934681688054E9, 0.0, 2024-10-23 19:54:28.168
152.0, 20940.075330743235, 14825.710931505077, 42396.319496192875, 15531.98135280387, 22883.13482798753, 24656.25401213813, -187500.02235174447, -187500.02235174447, 0.218, 0.932, -0.224, 192.0, 0.0, 0.0, 0.0, 0.0, 0.0, 0.0, 0.0, 0.0, 0.0, 1.7296934681728334E9, 0.0, 2024-10-23 19:54:28.172
153.0, 21426.76221451309, 17590.666424115472, 42376.62760932775, 16956.5027304295, 23040.267591508342, 25856.185061476837, -187500.02235174447, -187500.02235174447, 0.218, 0.932, -0.224, 192.0, 0.0, 0.0, 0.0, 0.0, 0.0, 0.0, 0.0, 0.0, 0.0, 1.7296934681768165E9, 0.0, 2024-10-23 19:54:28.176
154.0, 21144.392626809196, 20719.128336802525, 42232.12358142419, 16943.82929132334, 22907.609988166096, 25801.91502593935, -187500.02235174447, -187500.02235174447, 0.218, 0.932, -0.224, 192.0, 0.0, 0.0, 0.0, 0.0, 0.0, 0.0, 0.0, 0.0, 0.0, 1.7296934681811376E9, 0.0, 2024-10-23 19:54:28.181
155.0, 20889.269815596323, 20011.53916258087, 42284.046683793866, 16114.400758075806, 22845.315676369155, 25159.861166460654, -187500.02235174447, -187500.02235174447, 0.218, 0.932, -0.224, 192.0, 0.0, 0.0, 0.0, 0.0, 0.0, 0.0, 0.0, 0.0, 0.0, 1.7296934681891508E9, 0.0, 2024-10-23 19:54:28.189
156.0, 20891.99672841987, 17865.63758440466, 42382.059083230386, 15755.387038634664, 22892.321394958664, 24859.029037836677, -187500.02235174447, -187500.02235174447, 0.218, 0.932, -0.224, 192.0, 0.0, 0.0, 0.0, 0.0, 0.0, 0.0, 0.0, 0.0, 0.0, 1.729693468190572E9, 0.0, 2024-10-23 19:54:28.190
157.0, 20948.412531425063, 14835.433940343135, 42422.15811278321, 15566.783018920783, 22906.44769745442, 24675.87884376989, -187500.02235174447, -187500.02235174447, 0.218, 0.932, -0.224, 192.0, 0.0, 0.0, 0.0, 0.0, 0.0, 0.0, 0.0, 0.0, 0.0, 1.7296934681928298E9, 0.0, 2024-10-23 19:54:28.192
158.0, 21432.730130282656, 17637.44862526043, 42400.43221717265, 16995.350062292822, 23064.295716797795, 25896.149980562925, -187500.02235174447, -187500.02235174447, 0.218, 0.932, -0.224, 192.0, 0.0, 0.0, 0.0, 0.0, 0.0, 0.0, 0.0, 0.0, 0.0, 1.729693468199833E9, 0.0, 2024-10-23 19:54:28.199
159.0, 21141.084568629813, 20757.461578543374, 42251.681357822585, 16964.571710177865, 22923.569133707184, 25830.368796630955, -187500.02235174447, -187500.02235174447, 0.218, 0.934, -0.224, 192.0, 6.0, 208.0, 29.0, 48.0, 249.0, 0.0, 0.0, 0.0, 0.0, 1.729693468202848E9, 0.0, 2024-10-23 19:54:28.202
160.0, 20880.70909746994, 20023.76556679792, 42298.575317689814, 16122.357979101895, 22858.52555734224, 25178.36841086965, -187500.02235174447, -187500.02235174447, 0.218, 0.934, -0.224, 192.0, 0.0, 0.0, 0.0, 0.0, 0.0, 0.0, 0.0, 0.0, 0.0, 1.7296934682058818E9, 0.0, 2024-10-23 19:54:28.205
161.0, 20878.69744046896, 17849.20905223001, 42387.19998445511, 15745.909898985614, 22896.925854316458, 24870.651944953435, -187500.02235174447, -187500.02235174447, 0.218, 0.934, -0.224, 192.0, 0.0, 0.0, 0.0, 0.0, 0.0, 0.0, 0.0, 0.0, 0.0, 1.7296934682110057E9, 0.0, 2024-10-23 19:54:28.211
162.0, 20938.801281309283, 14812.992788910007, 42425.53322619596, 15546.331172744176, 22916.282465014752, 24699.057602770044, -187500.02235174447, -187500.02235174447, 0.218, 0.934, -0.224, 192.0, 0.0, 0.0, 0.0, 0.0, 0.0, 0.0, 0.0, 0.0, 0.0, 1.7296934682138736E9, 0.0, 2024-10-23 19:54:28.213
163.0, 21412.993539928622, 17633.805290914213, 42386.64119084373, 16953.440541439122, 23057.47843473893, 25884.571776935074, -187500.02235174447, -187500.02235174447, 0.218, 0.934, -0.224, 192.0, 0.0, 0.0, 0.0, 0.0, 0.0, 0.0, 0.0, 0.0, 0.0, 1.7296934682178802E9, 0.0, 2024-10-23 19:54:28.217
164.0, 21119.582190463807, 20746.889203416016, 42226.088610421255, 16904.467869337543, 22918.11530806009, 25796.39414505889, -187500.02235174447, -187500.02235174447, 0.218, 0.934, -0.224, 192.0, 0.0, 0.0, 0.0, 0.0, 0.0, 0.0, 0.0, 0.0, 0.0, 1.7296934682209969E9, 0.0, 2024-10-23 19:54:28.220
165.0, 20861.08426583818, 19995.177685639585, 42259.16919221511, 16059.974260327133, 22849.80837700467, 25140.750424951366, -187500.02235174447, -187500.02235174447, 0.218, 0.934, -0.224, 192.0, 0.0, 0.0, 0.0, 0.0, 0.0, 0.0, 0.0, 0.0, 0.0, 1.7296934682248843E9, 0.0, 2024-10-23 19:54:28.224
166.0, 20857.619745447606, 17808.595932554716, 42333.77931520693, 15687.571845957262, 22878.932700029934, 24838.666598637894, -187500.02235174447, -187500.02235174447, 0.218, 0.934, -0.224, 192.0, 0.0, 0.0, 0.0, 0.0, 0.0, 0.0, 0.0, 0.0, 0.0, 1.72969346822897E9, 0.0, 2024-10-23 19:54:28.228
167.0, 20918.461193854953, 14776.090058814296, 42357.516867818464, 15502.365291400587, 22885.951147788903, 24674.828311780493, -187500.02235174447, -187500.02235174447, 0.218, 0.934, -0.224, 192.0, 0.0, 0.0, 0.0, 0.0, 0.0, 0.0, 0.0, 0.0, 0.0, 1.7296934682328997E9, 0.0, 2024-10-23 19:54:28.232
168.0, 21394.910978664277, 17621.02009308578, 42314.42270450863, 16920.650532323187, 23032.489184437894, 25850.932401529837, -187500.02235174447, -187500.02235174447, 0.218, 0.934, -0.224, 192.0, 0.0, 0.0, 0.0, 0.0, 0.0, 0.0, 0.0, 0.0, 0.0, 1.7296934682378943E9, 0.0, 2024-10-23 19:54:28.237
169.0, 21101.56668443283, 20709.58414192011, 42159.65922590008, 16875.634118990198, 22897.305833972197, 25766.5322144666, -187500.02235174447, -187500.02235174447, 0.218, 0.926, -0.228, 192.0, 6.0, 208.0, 28.0, 240.0, 248.0, 224.0, 0.0, 0.0, 0.0, 1.7296934682431424E9, 0.0, 2024-10-23 19:54:28.243
170.0, 20848.947268598946, 19938.448958212015, 42209.391857313145, 16044.50685316406, 22839.258353621764, 25124.63481719909, -187500.02235174447, -187500.02235174447, 0.218, 0.926, -0.228, 192.0, 0.0, 0.0, 0.0, 0.0, 0.0, 0.0, 0.0, 0.0, 0.0, 1.7296934682449577E9, 0.0, 2024-10-23 19:54:28.244
171.0, 20851.18244304448, 17746.681600413514, 42300.94460260208, 15684.86728487817, 22868.941470258414, 24824.20501997531, -187500.02235174447, -187500.02235174447, 0.218, 0.926, -0.228, 192.0, 0.0, 0.0, 0.0, 0.0, 0.0, 0.0, 0.0, 0.0, 0.0, 1.7296934682489305E9, 0.0, 2024-10-23 19:54:28.248
172.0, 20920.00346422237, 14732.124177470707, 42339.45665829857, 15508.780242059262, 22876.853987795592, 24656.9692679607, -187500.02235174447, -187500.02235174447, 0.218, 0.926, -0.228, 192.0, 0.0, 0.0, 0.0, 0.0, 0.0, 0.0, 0.0, 0.0, 0.0, 1.7296934682529109E9, 0.0, 2024-10-23 19:54:28.252
173.0, 21401.7506124676, 17606.178534767456, 42317.127265587726, 16939.604811621288, 23046.973114844932, 25853.659314353386, -187500.02235174447, -187500.02235174447, 0.218, 0.926, -0.228, 192.0, 0.0, 0.0, 0.0, 0.0, 0.0, 0.0, 0.0, 0.0, 0.0, 1.7296934682569163E9, 0.0, 2024-10-23 19:54:28.256
174.0, 21118.17403056312, 20675.318917670123, 42182.614467455685, 16898.879933223718, 22913.890828358035, 25790.87326417843, -187500.02235174447, -187500.02235174447, 0.218, 0.926, -0.228, 192.0, 0.0, 0.0, 0.0, 0.0, 0.0, 0.0, 0.0, 0.0, 0.0, 1.7296934682609246E9, 0.0, 2024-10-23 19:54:28.260
175.0, 20876.909300912535, 19898.64050133711, 42244.327633896784, 16076.268682035052, 22853.250545650786, 25165.247936874384, -187500.02235174447, -187500.02235174447, 0.218, 0.926, -0.228, 192.0, 0.0, 0.0, 0.0, 0.0, 0.0, 0.0, 0.0, 0.0, 0.0, 1.7296934682649417E9, 0.0, 2024-10-23 19:54:28.264
176.0, 20883.480713782395, 17720.21713497843, 42344.57520777884, 15717.880811438657, 22888.29808095671, 24854.648095923436, -187500.02235174447, -187500.02235174447, 0.218, 0.926, -0.228, 192.0, 0.0, 0.0, 0.0, 0.0, 0.0, 0.0, 0.0, 0.0, 0.0, 1.7296934682699652E9, 0.0, 2024-10-23 19:54:28.269
177.0, 20950.357133192676, 14732.079473981796, 42387.71407457758, 15548.745161145349, 22900.30096772921, 24696.598910879962, -187500.02235174447, -187500.02235174447, 0.218, 0.926, -0.228, 192.0, 0.0, 0.0, 0.0, 0.0, 0.0, 0.0, 0.0, 0.0, 0.0, 1.7296934682730143E9, 0.0, 2024-10-23 19:54:28.273
178.0, 21426.069310434978, 17635.526375237274, 42366.05523420039, 16973.73592540454, 23053.455120736973, 25878.067419298583, -187500.02235174447, -187500.02235174447, 0.218, 0.926, -0.228, 192.0, 0.0, 0.0, 0.0, 0.0, 0.0, 0.0, 0.0, 0.0, 0.0, 1.729693468276968E9, 0.0, 2024-10-23 19:54:28.276
179.0, 21132.74736794798, 20676.86118803754, 42229.88840697866, 16913.67678805313, 22922.00451159531, 25784.279499564112, -187500.02235174447, -187500.02235174447, 0.218, 0.934, -0.226, 192.0, 6.0, 208.0, 29.0, 48.0, 248.0, 240.0, 0.0, 0.0, 0.0, 1.729693468280951E9, 0.0, 2024-10-23 19:54:28.280
180.0, 20881.98314690389, 19889.386879132617, 42283.89022158268, 16080.873141392845, 22862.884147511024, 25138.69406446148, -187500.02235174447, -187500.02235174447, 0.218, 0.934, -0.226, 192.0, 0.0, 0.0, 0.0, 0.0, 0.0, 0.0, 0.0, 0.0, 0.0, 1.7296934682849455E9, 0.0, 2024-10-23 19:54:28.284
181.0, 20876.66343172353, 17718.116070999633, 42372.693702303615, 15716.584410260251, 22896.30000547171, 24827.37896768796, -187500.02235174447, -187500.02235174447, 0.218, 0.934, -0.226, 192.0, 0.0, 0.0, 0.0, 0.0, 0.0, 0.0, 0.0, 0.0, 0.0, 1.7296934682889788E9, 0.0, 2024-10-23 19:54:28.288
182.0, 20951.38531343762, 14783.041451339896, 42418.09009529235, 15561.619765951607, 22925.804308152714, 24689.871035798915, -187500.02235174447, -187500.02235174447, 0.218, 0.934, -0.226, 192.0, 0.0, 0.0, 0.0, 0.0, 0.0, 0.0, 0.0, 0.0, 0.0, 1.7296934682929869E9, 0.0, 2024-10-23 19:54:28.292
183.0, 21416.033377174543, 17698.98297774589, 42377.67814131715, 16982.654271442207, 23063.580460975227, 25861.21420397928, -187500.02235174447, -187500.02235174447, 0.218, 0.934, -0.226, 192.0, 0.0, 0.0, 0.0, 0.0, 0.0, 0.0, 0.0, 0.0, 0.0, 1.7296934682979891E9, 0.0, 2024-10-23 19:54:28.297
184.0, 21115.31300727284, 20684.03609800769, 42227.764991255404, 16912.760366530463, 22923.837354640647, 25771.427246502313, -187500.02235174447, -187500.02235174447, 0.218, 0.934, -0.226, 192.0, 0.0, 0.0, 0.0, 0.0, 0.0, 0.0, 0.0, 0.0, 0.0, 1.7296934683009777E9, 0.0, 2024-10-23 19:54:28.300
185.0, 20872.260138065834, 19891.376184389137, 42282.32559947081, 16087.869237407356, 22873.612984849573, 25150.875765189623, -187500.02235174447, -187500.02235174447, 0.218, 0.934, -0.226, 192.0, 0.0, 0.0, 0.0, 0.0, 0.0, 0.0, 0.0, 0.0, 0.0, 1.7296934683041053E9, 0.0, 2024-10-23 19:54:28.304
186.0, 20870.09201885367, 17746.458082968962, 42365.87642024475, 15718.864288194693, 22908.191133521934, 24833.972732302278, -187500.02235174447, -187500.02235174447, 0.218, 0.934, -0.226, 192.0, 0.0, 0.0, 0.0, 0.0, 0.0, 0.0, 0.0, 0.0, 0.0, 1.7296934683090036E9, 0.0, 2024-10-23 19:54:28.309
187.0, 20946.177356979533, 14864.379449412758, 42398.264097960484, 15562.17855956299, 22921.64688368403, 24705.51725691763, -187500.02235174447, -187500.02235174447, 0.218, 0.934, -0.226, 192.0, 0.0, 0.0, 0.0, 0.0, 0.0, 0.0, 0.0, 0.0, 0.0, 1.7296934683130736E9, 0.0, 2024-10-23 19:54:28.313
188.0, 21421.420147588273, 17789.70870848998, 42360.71316727557, 16979.145047562724, 23066.28502205432, 25885.465846713287, -187500.02235174447, -187500.02235174447, 0.218, 0.934, -0.226, 192.0, 0.0, 0.0, 0.0, 0.0, 0.0, 0.0, 0.0, 0.0, 0.0, 1.7296934683170097E9, 0.0, 2024-10-23 19:54:28.317
189.0, 21120.543315475385, 20706.05256629617, 42204.18390085505, 16890.185104630604, 22919.76933714978, 25768.834444145497, -187500.02235174447, -187500.02235174447, 0.22, 0.934, -0.22, 192.0, 6.0, 224.0, 29.0, 48.0, 249.0, 32.0, 0.0, 0.0, 0.0, 1.7296934683210423E9, 0.0, 2024-10-23 19:54:28.321
190.0, 20864.347620528653, 19883.061335451763, 42236.102191937236, 16046.965545054145, 22849.584859560116, 25119.896247374567, -187500.02235174447, -187500.02235174447, 0.22, 0.934, -0.22, 192.0, 0.0, 0.0, 0.0, 0.0, 0.0, 0.0, 0.0, 0.0, 0.0, 1.729693468325194E9, 0.0, 2024-10-23 19:54:28.325
191.0, 20857.50798672533, 17750.816673137746, 42311.09229458479, 15679.033479575335, 22876.18343546193, 24809.631682590447, -187500.02235174447, -187500.02235174447, 0.22, 0.934, -0.22, 192.0, 0.0, 0.0, 0.0, 0.0, 0.0, 0.0, 0.0, 0.0, 0.0, 1.7296934683291028E9, 0.0, 2024-10-23 19:54:28.329
192.0, 20937.996618508892, 14907.987702845063, 42342.27297809994, 15533.747140615838, 22889.840351324125, 24683.657250840337, -187500.02235174447, -187500.02235174447, 0.22, 0.934, -0.22, 192.0, 0.0, 0.0, 0.0, 0.0, 0.0, 0.0, 0.0, 0.0, 0.0, 1.7296934683320873E9, 0.0, 2024-10-23 19:54:28.332
193.0, 21401.705908978693, 17824.353912395705, 42298.2847450119, 16943.136387245224, 23029.65051289207, 25850.194793962815, -187500.02235174447, -187500.02235174447, 0.22, 0.934, -0.22, 192.0, 0.0, 0.0, 0.0, 0.0, 0.0, 0.0, 0.0, 0.0, 0.0, 1.729693468337048E9, 0.0, 2024-10-23 19:54:28.337
194.0, 21096.962225075036, 20688.260577709745, 42146.96343504947, 16843.648772674653, 22884.587691377128, 25729.56242913752, -187500.02235174447, -187500.02235174447, 0.22, 0.934, -0.22, 192.0, 0.0, 0.0, 0.0, 0.0, 0.0, 0.0, 0.0, 0.0, 0.0, 1.7296934683410254E9, 0.0, 2024-10-23 19:54:28.341
195.0, 20857.1727105585, 19873.919471969544, 42205.54735726683, 16023.093881975876, 22833.156327385466, 25101.746630876856, -187500.02235174447, -187500.02235174447, 0.22, 0.934, -0.22, 192.0, 0.0, 0.0, 0.0, 0.0, 0.0, 0.0, 0.0, 0.0, 0.0, 1.7296934683450632E9, 0.0, 2024-10-23 19:54:28.345
196.0, 20849.12608255459, 17724.84394608068, 42293.92615484312, 15650.602060628184, 22867.421551635452, 24775.545272296105, -187500.02235174447, -187500.02235174447, 0.22, 0.934, -0.22, 192.0, 0.0, 0.0, 0.0, 0.0, 0.0, 0.0, 0.0, 0.0, 0.0, 1.729693468349062E9, 0.0, 2024-10-23 19:54:28.349
197.0, 20928.966513748946, 14892.117964281793, 42330.9406436611, 15513.652922350519, 22881.547854131208, 24647.98386668967, -187500.02235174447, -187500.02235174447, 0.22, 0.934, -0.22, 192.0, 0.0, 0.0, 0.0, 0.0, 0.0, 0.0, 0.0, 0.0, 0.0, 1.7296934683530712E9, 0.0, 2024-10-23 19:54:28.353
198.0, 21396.72146996516, 17844.87281380568, 42306.353724760265, 16942.35407618929, 23039.46292870795, 25869.55140466111, -187500.02235174447, -187500.02235174447, 0.22, 0.934, -0.22, 192.0, 0.0, 0.0, 0.0, 0.0, 0.0, 0.0, 0.0, 0.0, 0.0, 1.729693468357083E9, 0.0, 2024-10-23 19:54:28.357
199.0, 21087.17216100361, 20680.929205528406, 42165.269513758365, 16845.03458083088, 22894.28834847073, 25754.66343816083, -187500.02235174447, -187500.02235174447, 0.226, 0.936, -0.22, 192.0, 7.0, 16.0, 29.0, 64.0, 249.0, 32.0, 0.0, 0.0, 0.0, 1.7296934683600955E9, 0.0, 2024-10-23 19:54:28.360
200.0, 20848.008495331826, 19842.716436709936, 42230.89423547915, 16025.329056421408, 22844.063978679656, 25116.722299661913, -187500.02235174447, -187500.02235174447, 0.226, 0.936, -0.22, 192.0, 0.0, 0.0, 0.0, 0.0, 0.0, 0.0, 0.0, 0.0, 0.0, 1.7296934683651288E9, 0.0, 2024-10-23 19:54:28.365
201.0, 20838.441948704953, 17687.851809007145, 42320.61413772275, 15662.33672646722, 22874.060019738678, 24803.57435984306, -187500.02235174447, -187500.02235174447, 0.226, 0.936, -0.22, 192.0, 0.0, 0.0, 0.0, 0.0, 0.0, 0.0, 0.0, 0.0, 0.0, 1.7296934683691156E9, 0.0, 2024-10-23 19:54:28.369
202.0, 20921.67984505652, 14873.99069952854, 42360.15437366419, 15535.2670592388, 22895.741211860324, 24698.632919625394, -187500.02235174447, -187500.02235174447, 0.226, 0.936, -0.22, 192.0, 0.0, 0.0, 0.0, 0.0, 0.0, 0.0, 0.0, 0.0, 0.0, 1.7296934683730855E9, 0.0, 2024-10-23 19:54:28.373
203.0, 21384.830341914934, 17853.947622054533, 42327.92315815963, 16956.5027304295, 23049.65532417957, 25875.78754136414, -187500.02235174447, -187500.02235174447, 0.226, 0.936, -0.22, 192.0, 0.0, 0.0, 0.0, 0.0, 0.0, 0.0, 0.0, 0.0, 0.0, 1.7296934683771276E9, 0.0, 2024-10-23 19:54:28.377
204.0, 21079.416105677617, 20689.266406210234, 42189.72232219247, 16849.549633210856, 22918.830563882657, 25759.893746363374, -187500.02235174447, -187500.02235174447, 0.226, 0.936, -0.22, 192.0, 0.0, 0.0, 0.0, 0.0, 0.0, 0.0, 0.0, 0.0, 0.0, 1.729693468383108E9, 0.0, 2024-10-23 19:54:28.383
205.0, 20840.74417838385, 19840.8835936646, 42247.412174631616, 16027.854803544857, 22861.721856799348, 25129.462794001436, -187500.02235174447, -187500.02235174447, 0.226, 0.936, -0.22, 192.0, 0.0, 0.0, 0.0, 0.0, 0.0, 0.0, 0.0, 0.0, 0.0, 1.7296934683861375E9, 0.0, 2024-10-23 19:54:28.386
206.0, 20835.446814947943, 17681.906244982034, 42332.706431473074, 15662.783761356326, 22892.276691469753, 24806.994176744724, -187500.02235174447, -187500.02235174447, 0.226, 0.936, -0.22, 192.0, 0.0, 0.0, 0.0, 0.0, 0.0, 0.0, 0.0, 0.0, 0.0, 1.7296934683891556E9, 0.0, 2024-10-23 19:54:28.389
207.0, 20927.558353848264, 14885.054813033918, 42371.46435635857, 15545.92884134398, 22912.840296368635, 24712.915684332336, -187500.02235174447, -187500.02235174447, 0.226, 0.936, -0.22, 192.0, 0.0, 0.0, 0.0, 0.0, 0.0, 0.0, 0.0, 0.0, 0.0, 1.7296934683931413E9, 0.0, 2024-10-23 19:54:28.393
208.0, 21389.412449528274, 17886.268244536906, 42333.51109427346, 16966.136332289738, 23057.210213805465, 25899.659204442407, -187500.02235174447, -187500.02235174447, 0.226, 0.936, -0.22, 192.0, 0.0, 0.0, 0.0, 0.0, 0.0, 0.0, 0.0, 0.0, 0.0, 1.7296934683971794E9, 0.0, 2024-10-23 19:54:28.397
209.0, 21080.041954522367, 20695.659005124453, 42190.21406057049, 16853.23767104598, 22921.043386583733, 25764.878185376907, -187500.02235174447, -187500.02235174447, 0.224, 0.93, -0.22, 192.0, 7.0, 0.0, 29.0, 16.0, 249.0, 32.0, 0.0, 0.0, 0.0, 1.7296934684011288E9, 0.0, 2024-10-23 19:54:28.401
210.0, 20843.2699255073, 19831.11588133763, 42248.61916883221, 16034.94030653719, 22871.936604015424, 25139.766948195334, -187500.02235174447, -187500.02235174447, 0.224, 0.93, -0.22, 192.0, 0.0, 0.0, 0.0, 0.0, 0.0, 0.0, 0.0, 0.0, 0.0, 1.72969346840515E9, 0.0, 2024-10-23 19:54:28.405
211.0, 20839.514832438806, 17662.50493079483, 42332.147637861686, 15665.488322435418, 22895.003604293302, 24816.404261160405, -187500.02235174447, -187500.02235174447, 0.224, 0.93, -0.22, 192.0, 0.0, 0.0, 0.0, 0.0, 0.0, 0.0, 0.0, 0.0, 0.0, 1.7296934684092276E9, 0.0, 2024-10-23 19:54:28.409
212.0, 20936.409644652565, 14862.6583650897, 42370.033844713435, 15546.64409716655, 22915.321340003175, 24710.680509886803, -187500.02235174447, -187500.02235174447, 0.224, 0.93, -0.22, 192.0, 0.0, 0.0, 0.0, 0.0, 0.0, 0.0, 0.0, 0.0, 0.0, 1.729693468414206E9, 0.0, 2024-10-23 19:54:28.414
213.0, 21397.52613276555, 17890.984462616976, 42332.72878321753, 16962.157721776694, 23057.679600439027, 25895.814704396096, -187500.02235174447, -187500.02235174447, 0.224, 0.93, -0.22, 192.0, 0.0, 0.0, 0.0, 0.0, 0.0, 0.0, 0.0, 0.0, 0.0, 1.729693468417146E9, 0.0, 2024-10-23 19:54:28.417
214.0, 21089.11676277122, 20700.375223204523, 42186.86129890219, 16837.18911852707, 22912.34855799062, 25754.372865482914, -187500.02235174447, -187500.02235174447, 0.224, 0.93, -0.22, 192.0, 0.0, 0.0, 0.0, 0.0, 0.0, 0.0, 0.0, 0.0, 0.0, 1.7296934684201405E9, 0.0, 2024-10-23 19:54:28.420
215.0, 20854.46814947941, 19818.844773631667, 42242.472439107, 16017.327131906408, 22856.759769530272, 25123.6289886986, -187500.02235174447, -187500.02235174447, 0.224, 0.93, -0.22, 192.0, 0.0, 0.0, 0.0, 0.0, 0.0, 0.0, 0.0, 0.0, 0.0, 1.7296934684251876E9, 0.0, 2024-10-23 19:54:28.425
216.0, 20846.086245308667, 17627.747968166826, 42319.58595747781, 15649.260955960866, 22880.184397719433, 24811.710394824793, -187500.02235174447, -187500.02235174447, 0.224, 0.93, -0.22, 192.0, 0.0, 0.0, 0.0, 0.0, 0.0, 0.0, 0.0, 0.0, 0.0, 1.7296934684291804E9, 0.0, 2024-10-23 19:54:28.429
217.0, 20948.43488316952, 14833.534042064435, 42357.40510909619, 15541.12321628609, 22902.73730787484, 24727.71253916175, -187500.02235174447, -187500.02235174447, 0.224, 0.93, -0.22, 192.0, 0.0, 0.0, 0.0, 0.0, 0.0, 0.0, 0.0, 0.0, 0.0, 1.7296934684331853E9, 0.0, 2024-10-23 19:54:28.433
218.0, 21402.84584794591, 17887.54229397086, 42314.35564927526, 16946.22092798006, 23037.473623451428, 25884.37061123498, -187500.02235174447, -187500.02235174447, 0.224, 0.93, -0.22, 192.0, 0.0, 0.0, 0.0, 0.0, 0.0, 0.0, 0.0, 0.0, 0.0, 1.7296934684371786E9, 0.0, 2024-10-23 19:54:28.437
219.0, 21088.55796915984, 20685.176036974914, 42167.77290913736, 16804.108536733216, 22890.82382808016, 25725.203838968737, -187500.02235174447, -187500.02235174447, 0.222, 0.928, -0.226, 192.0, 6.0, 240.0, 29.0, 0.0, 248.0, 240.0, 0.0, 0.0, 0.0, 1.7296934684422085E9, 0.0, 2024-10-23 19:54:28.442
220.0, 20849.215489532413, 19786.591206382658, 42220.45597081852, 15977.49632328705, 22835.99499893129, 25090.190778993463, -187500.02235174447, -187500.02235174447, 0.222, 0.928, -0.226, 192.0, 0.0, 0.0, 0.0, 0.0, 0.0, 0.0, 0.0, 0.0, 0.0, 1.7296934684451995E9, 0.0, 2024-10-23 19:54:28.445
221.0, 20837.659637649016, 17585.81609556867, 42299.73760840149, 15608.357263607653, 22865.074618467646, 24772.661897261372, -187500.02235174447, -187500.02235174447, 0.222, 0.928, -0.226, 192.0, 0.0, 0.0, 0.0, 0.0, 0.0, 0.0, 0.0, 0.0, 0.0, 1.7296934684482367E9, 0.0, 2024-10-23 19:54:28.448
222.0, 20942.489319144406, 14809.371806308247, 42342.38473682222, 15514.032902006258, 22892.85783682559, 24718.593027423984, -187500.02235174447, -187500.02235174447, 0.222, 0.928, -0.226, 192.0, 0.0, 0.0, 0.0, 0.0, 0.0, 0.0, 0.0, 0.0, 0.0, 1.7296934684532695E9, 0.0, 2024-10-23 19:54:28.453
223.0, 21392.698155963204, 17897.77939293139, 42302.41981773613, 16929.658285338675, 23032.533887926806, 25885.84582636903, -187500.02235174447, -187500.02235174447, 0.222, 0.928, -0.226, 192.0, 0.0, 0.0, 0.0, 0.0, 0.0, 0.0, 0.0, 0.0, 0.0, 1.72969346845721E9, 0.0, 2024-10-23 19:54:28.457
224.0, 21073.93992828607, 20692.932092300904, 42154.96535956447, 16788.730536547966, 22883.80538032119, 25721.672263344797, -187500.02235174447, -187500.02235174447, 0.222, 0.928, -0.226, 192.0, 0.0, 0.0, 0.0, 0.0, 0.0, 0.0, 0.0, 0.0, 0.0, 1.7296934684612348E9, 0.0, 2024-10-23 19:54:28.461
225.0, 20839.872460350092, 19786.412392427017, 42213.370467826186, 15973.137733118265, 22835.86088846456, 25098.90795933103, -187500.02235174447, -187500.02235174447, 0.222, 0.928, -0.226, 192.0, 0.0, 0.0, 0.0, 0.0, 0.0, 0.0, 0.0, 0.0, 0.0, 1.729693468465311E9, 0.0, 2024-10-23 19:54:28.465
226.0, 20824.65092237603, 17569.342859905108, 42294.03791356539, 15607.686711273995, 22864.22525217834, 24794.007813216187, -187500.02235174447, -187500.02235174447, 0.222, 0.928, -0.226, 192.0, 0.0, 0.0, 0.0, 0.0, 0.0, 0.0, 0.0, 0.0, 0.0, 1.729693468469272E9, 0.0, 2024-10-23 19:54:28.469
227.0, 20932.699255072985, 14797.324216046836, 42340.21661761005, 15523.621800377585, 22896.031784538245, 24734.50746947616, -187500.02235174447, -187500.02235174447, 0.222, 0.928, -0.226, 192.0, 0.0, 0.0, 0.0, 0.0, 0.0, 0.0, 0.0, 0.0, 0.0, 1.729693468472323E9, 0.0, 2024-10-23 19:54:28.472
228.0, 21377.36485926686, 17903.121459856207, 42297.61419267824, 16935.78266331943, 23035.730187383913, 25883.521244945678, -187500.02235174447, -187500.02235174447, 0.222, 0.928, -0.226, 192.0, 0.0, 0.0, 0.0, 0.0, 0.0, 0.0, 0.0, 0.0, 0.0, 1.7296934684766152E9, 0.0, 2024-10-23 19:54:28.476
229.0, 21060.238308934964, 20686.76301083124, 42158.38517646613, 16794.832562784264, 22893.729554859347, 25733.541039650565, -187500.02235174447, -187500.02235174447, 0.222, 0.928, -0.226, 192.0, 0.0, 0.0, 0.0, 0.0, 0.0, 0.0, 0.0, 0.0, 0.0, 1.7296934684812412E9, 0.0, 2024-10-23 19:54:28.481
230.0, 20834.910373081017, 19771.05674398622, 42226.513293565906, 15989.633320526282, 22848.66843803745, 25118.06340432923, -187500.02235174447, -187500.02235174447, 0.226, 0.934, -0.232, 192.0, 7.0, 16.0, 29.0, 48.0, 248.0, 192.0, 0.0, 0.0, 0.0, 1.729693468485288E9, 0.0, 2024-10-23 19:54:28.485
231.0, 20831.2670387348, 17557.71995278835, 42318.69188769959, 15637.638048844106, 22890.53325540224, 24817.56655187208, -187500.02235174447, -187500.02235174447, 0.226, 0.934, -0.232, 192.0, 0.0, 0.0, 0.0, 0.0, 0.0, 0.0, 0.0, 0.0, 0.0, 1.7296934684892857E9, 0.0, 2024-10-23 19:54:28.489
232.0, 20938.309542931267, 14800.296998059393, 42355.348748606295, 15555.674201926495, 22913.37673823556, 24734.529821220618, -187500.02235174447, -187500.02235174447, 0.226, 0.934, -0.232, 192.0, 0.0, 0.0, 0.0, 0.0, 0.0, 0.0, 0.0, 0.0, 0.0, 1.729693468493322E9, 0.0, 2024-10-23 19:54:28.493
233.0, 21379.868254645855, 17928.87066946872, 42312.5898614633, 16962.515349687976, 23049.565917201748, 25882.87304435647, -187500.02235174447, -187500.02235174447, 0.226, 0.934, -0.232, 192.0, 0.0, 0.0, 0.0, 0.0, 0.0, 0.0, 0.0, 0.0, 0.0, 1.7296934684972596E9, 0.0, 2024-10-23 19:54:28.497
234.0, 21059.903032768136, 20679.56574911663, 42171.25978127239, 16811.864592059206, 22901.776182863257, 25740.939467065273, -187500.02235174447, -187500.02235174447, 0.226, 0.934, -0.232, 192.0, 0.0, 0.0, 0.0, 0.0, 0.0, 0.0, 0.0, 0.0, 0.0, 1.729693468500306E9, 0.0, 2024-10-23 19:54:28.500
235.0, 20838.486652193864, 19751.253098398818, 42242.49479085145, 16008.006454468545, 22860.38075213203, 25130.938009135487, -187500.02235174447, -187500.02235174447, 0.226, 0.934, -0.232, 192.0, 0.0, 0.0, 0.0, 0.0, 0.0, 0.0, 0.0, 0.0, 0.0, 1.7296934685043013E9, 0.0, 2024-10-23 19:54:28.504
236.0, 20831.803480601728, 17531.00961816426, 42332.28174832842, 15646.645801859595, 22894.57892114865, 24820.42757516236, -187500.02235174447, -187500.02235174447, 0.226, 0.934, -0.232, 192.0, 0.0, 0.0, 0.0, 0.0, 0.0, 0.0, 0.0, 0.0, 0.0, 1.7296934685092947E9, 0.0, 2024-10-23 19:54:28.509
237.0, 20946.244412212898, 14804.476774272534, 42371.10672844729, 15575.500199258353, 22919.948151105422, 24763.967068668255, -187500.02235174447, -187500.02235174447, 0.226, 0.934, -0.232, 192.0, 0.0, 0.0, 0.0, 0.0, 0.0, 0.0, 0.0, 0.0, 0.0, 1.7296934685135436E9, 0.0, 2024-10-23 19:54:28.513
238.0, 21386.350260537896, 17940.314762629838, 42328.57135874884, 16972.864207370785, 23055.444425993493, 25896.865236385496, -187500.02235174447, -187500.02235174447, 0.226, 0.934, -0.232, 192.0, 0.0, 0.0, 0.0, 0.0, 0.0, 0.0, 0.0, 0.0, 0.0, 1.7296934685183365E9, 0.0, 2024-10-23 19:54:28.518
239.0, 21067.256756693932, 20656.56580407212, 42183.39677851162, 16804.957903022518, 22903.38550846404, 25718.319501676502, -187500.02235174447, -187500.02235174447, 0.226, 0.934, -0.232, 192.0, 0.0, 0.0, 0.0, 0.0, 0.0, 0.0, 0.0, 0.0, 0.0, 1.729693468521288E9, 0.0, 2024-10-23 19:54:28.521
240.0, 20844.700437152438, 19710.61762697907, 42240.281968150375, 15998.484611330583, 22854.636353807015, 25098.840904097666, -187500.02235174447, -187500.02235174447, 0.224, 0.934, -0.228, 192.0, 7.0, 0.0, 29.0, 48.0, 248.0, 224.0, 0.0, 0.0, 0.0, 1.729693468525308E9, 0.0, 2024-10-23 19:54:28.525
241.0, 20836.832623104172, 17488.206027532342, 42319.09421909979, 15637.213365699456, 22887.269900711766, 24789.604519558492, -187500.02235174447, -187500.02235174447, 0.224, 0.934, -0.228, 192.0, 0.0, 0.0, 0.0, 0.0, 0.0, 0.0, 0.0, 0.0, 0.0, 1.7296934685293183E9, 0.0, 2024-10-23 19:54:28.529
242.0, 20948.412531425063, 14776.425334981124, 42347.05625141338, 15567.565329976718, 22902.29027298573, 24744.85632715897, -187500.02235174447, -187500.02235174447, 0.224, 0.934, -0.228, 192.0, 0.0, 0.0, 0.0, 0.0, 0.0, 0.0, 0.0, 0.0, 0.0, 1.7296934685323524E9, 0.0, 2024-10-23 19:54:28.532
243.0, 21384.584472725925, 17936.31380037234, 42301.101064813265, 16962.113018287782, 23035.551373428272, 25874.915823330382, -187500.02235174447, -187500.02235174447, 0.224, 0.934, -0.228, 192.0, 0.0, 0.0, 0.0, 0.0, 0.0, 0.0, 0.0, 0.0, 0.0, 1.729693468537368E9, 0.0, 2024-10-23 19:54:28.537
244.0, 21071.25771895143, 20644.205289388334, 42169.6504556716, 16805.248475700435, 22903.005528808302, 25732.557562894533, -187500.02235174447, -187500.02235174447, 0.224, 0.934, -0.228, 192.0, 0.0, 0.0, 0.0, 0.0, 0.0, 0.0, 0.0, 0.0, 0.0, 1.7296934685413227E9, 0.0, 2024-10-23 19:54:28.541
245.0, 20847.986143587368, 19694.971405860353, 42231.22951164598, 16001.770317765513, 22854.032856706723, 25120.477392730405, -187500.02235174447, -187500.02235174447, 0.224, 0.934, -0.228, 192.0, 0.0, 0.0, 0.0, 0.0, 0.0, 0.0, 0.0, 0.0, 0.0, 1.729693468545361E9, 0.0, 2024-10-23 19:54:28.545
246.0, 20831.2670387348, 17469.855245334536, 42308.432436994604, 15632.675961575027, 22879.513845385773, 24797.584092329038, -187500.02235174447, -187500.02235174447, 0.224, 0.934, -0.228, 192.0, 0.0, 0.0, 0.0, 0.0, 0.0, 0.0, 0.0, 0.0, 0.0, 1.72969346854936E9, 0.0, 2024-10-23 19:54:28.549
247.0, 20944.590383123206, 14783.35437576227, 42342.78706822242, 15567.475922998898, 22906.87238059907, 24750.95835339527, -187500.02235174447, -187500.02235174447, 0.224, 0.934, -0.228, 192.0, 0.0, 0.0, 0.0, 0.0, 0.0, 0.0, 0.0, 0.0, 0.0, 1.7296934685524092E9, 0.0, 2024-10-23 19:54:28.552
248.0, 21380.248234301598, 17964.052315241377, 42302.84450088078, 16957.396800207713, 23047.75542590087, 25891.769038649683, -187500.02235174447, -187500.02235174447, 0.224, 0.934, -0.228, 192.0, 0.0, 0.0, 0.0, 0.0, 0.0, 0.0, 0.0, 0.0, 0.0, 1.729693468556382E9, 0.0, 2024-10-23 19:54:28.556
249.0, 21058.427817634085, 20651.491958080765, 42164.80012712481, 16779.65572829911, 22899.0045665508, 25717.559542365023, -187500.02235174447, -187500.02235174447, 0.224, 0.934, -0.228, 192.0, 0.0, 0.0, 0.0, 0.0, 0.0, 0.0, 0.0, 0.0, 0.0, 1.7296934685603616E9, 0.0, 2024-10-23 19:54:28.560
250.0, 20831.02116954579, 19689.249359279795, 42223.853435975725, 15969.53910226096, 22847.304981625675, 25101.523113432304, -187500.02235174447, -187500.02235174447, 0.228, 0.936, -0.228, 192.0, 7.0, 32.0, 29.0, 64.0, 248.0, 224.0, 0.0, 0.0, 0.0, 1.729693468565385E9, 0.0, 2024-10-23 19:54:28.565
251.0, 20817.230143216868, 17460.288698707664, 42302.82214913632, 15602.881086216103, 22874.171778460954, 24782.519016566162, -187500.02235174447, -187500.02235174447, 0.228, 0.936, -0.228, 192.0, 0.0, 0.0, 0.0, 0.0, 0.0, 0.0, 0.0, 0.0, 0.0, 1.7296934685693696E9, 0.0, 2024-10-23 19:54:28.569
252.0, 20939.740054576407, 14793.010329366964, 42341.71418448856, 15556.165940304512, 22908.280540499753, 24751.36068479546, -187500.02235174447, -187500.02235174447, 0.228, 0.936, -0.228, 192.0, 0.0, 0.0, 0.0, 0.0, 0.0, 0.0, 0.0, 0.0, 0.0, 1.7296934685734146E9, 0.0, 2024-10-23 19:54:28.573
253.0, 21374.66029818777, 17993.42250745565, 42300.65402992416, 16957.10622752979, 23047.911888112056, 25899.16746606439, -187500.02235174447, -187500.02235174447, 0.228, 0.936, -0.228, 192.0, 0.0, 0.0, 0.0, 0.0, 0.0, 0.0, 0.0, 0.0, 0.0, 1.7296934685774746E9, 0.0, 2024-10-23 19:54:28.577
254.0, 21047.140186684155, 20656.498748838752, 42157.13347877663, 16770.402106094614, 22896.59057814963, 25704.90845500332, -187500.02235174447, -187500.02235174447, 0.228, 0.936, -0.228, 192.0, 0.0, 0.0, 0.0, 0.0, 0.0, 0.0, 0.0, 0.0, 0.0, 1.729693468580417E9, 0.0, 2024-10-23 19:54:28.580
255.0, 20823.913314809004, 19683.46025746587, 42218.37725858417, 15965.247567325541, 22847.707313025872, 25081.25008121134, -187500.02235174447, -187500.02235174447, 0.228, 0.936, -0.228, 192.0, 0.0, 0.0, 0.0, 0.0, 0.0, 0.0, 0.0, 0.0, 0.0, 1.7296934685844474E9, 0.0, 2024-10-23 19:54:28.584
0.0, 20819.51002115131, 17461.87567256399, 42308.49949222797, 15612.380577609609, 22885.727630344347, 24781.021449687654, -187500.02235174447, -187500.02235174447, 0.228, 0.936, -0.228, 192.0, 0.0, 0.0, 0.0, 0.0, 0.0, 0.0, 0.0, 0.0, 0.0, 1.7296934685884345E9, 0.0, 2024-10-23 19:54:28.588
1.0, 20945.998543023892, 14815.138556377717, 42350.76664099296, 15579.367051049121, 22921.713938917394, 24770.002039671188, -187500.02235174447, -187500.02235174447, 0.228, 0.936, -0.228, 192.0, 0.0, 0.0, 0.0, 0.0, 0.0, 0.0, 0.0, 0.0, 0.0, 1.7296934685924752E9, 0.0, 2024-10-23 19:54:28.592
2.0, 21369.675859174236, 18023.105624092295, 42302.48687296949, 16969.64555616922, 23049.878841624122, 25900.530922476166, -187500.02235174447, -187500.02235174447, 0.228, 0.936, -0.228, 192.0, 0.0, 0.0, 0.0, 0.0, 0.0, 0.0, 0.0, 0.0, 0.0, 1.7296934685974731E9, 0.0, 2024-10-23 19:54:28.597
3.0, 21039.473538335984, 20663.47249310881, 42162.29673174581, 16775.78887650834, 22898.57988340615, 25703.142667191347, -187500.02235174447, -187500.02235174447, 0.228, 0.936, -0.228, 192.0, 0.0, 0.0, 0.0, 0.0, 0.0, 0.0, 0.0, 0.0, 0.0, 1.7296934686014E9, 0.0, 2024-10-23 19:54:28.601
4.0, 20823.39922468653, 19685.538969700214, 42233.35292736923, 15977.988061665066, 22856.29038289671, 25098.706793630936, -187500.02235174447, -187500.02235174447, 0.228, 0.936, -0.226, 192.0, 7.0, 32.0, 29.0, 64.0, 248.0, 240.0, 0.0, 0.0, 0.0, 1.7296934686054232E9, 0.0, 2024-10-23 19:54:28.605
5.0, 20813.78797457075, 17457.070047506102, 42322.53638774591, 15623.154118437067, 22898.043441539223, 24807.463563378285, -187500.02235174447, -187500.02235174447, 0.228, 0.936, -0.226, 192.0, 0.0, 0.0, 0.0, 0.0, 0.0, 0.0, 0.0, 0.0, 0.0, 1.7296934686094413E9, 0.0, 2024-10-23 19:54:28.609
6.0, 20942.19874646649, 14840.530138078946, 42359.08148993034, 15585.55848426324, 22927.14541282003, 24779.27801362014, -187500.02235174447, -187500.02235174447, 0.228, 0.936, -0.226, 192.0, 0.0, 0.0, 0.0, 0.0, 0.0, 0.0, 0.0, 0.0, 0.0, 1.7296934686126604E9, 0.0, 2024-10-23 19:54:28.612
7.0, 21370.1452458078, 18065.551586812926, 42311.20405330707, 16976.59694869482, 23058.50661498387, 25910.74566969224, -187500.02235174447, -187500.02235174447, 0.228, 0.936, -0.226, 192.0, 0.0, 0.0, 0.0, 0.0, 0.0, 0.0, 0.0, 0.0, 0.0, 1.72969346861643E9, 0.0, 2024-10-23 19:54:28.616
8.0, 21038.288895879854, 20665.66296406543, 42167.45998471499, 16769.88801597214, 22900.949168318413, 25697.822952010985, -187500.02235174447, -187500.02235174447, 0.228, 0.936, -0.226, 192.0, 0.0, 0.0, 0.0, 0.0, 0.0, 0.0, 0.0, 0.0, 0.0, 1.729693468620454E9, 0.0, 2024-10-23 19:54:28.620
9.0, 20827.93662881096, 19683.124981299043, 42236.39276461515, 15969.87437842779, 22864.560528345173, 25092.8729883281, -187500.02235174447, -187500.02235174447, 0.228, 0.936, -0.226, 192.0, 0.0, 0.0, 0.0, 0.0, 0.0, 0.0, 0.0, 0.0, 0.0, 1.7296934686255648E9, 0.0, 2024-10-23 19:54:28.625
10.0, 20813.899733293027, 17465.183730743378, 42315.07090509783, 15605.406833339553, 22892.76842984777, 24794.991289972222, -187500.02235174447, -187500.02235174447, 0.228, 0.936, -0.226, 192.0, 0.0, 0.0, 0.0, 0.0, 0.0, 0.0, 0.0, 0.0, 0.0, 1.729693468629469E9, 0.0, 2024-10-23 19:54:28.629
11.0, 20944.120996489644, 14880.830333331864, 42347.592693280305, 15570.404001522542, 22914.96371209189, 24763.56473726806, -187500.02235174447, -187500.02235174447, 0.228, 0.936, -0.226, 192.0, 0.0, 0.0, 0.0, 0.0, 0.0, 0.0, 0.0, 0.0, 0.0, 1.7296934686346688E9, 0.0, 2024-10-23 19:54:28.634
12.0, 21369.005306840576, 18115.440680437172, 42297.41302697814, 16959.028477552947, 23043.396835732085, 25890.226768282268, -187500.02235174447, -187500.02235174447, 0.228, 0.936, -0.226, 192.0, 0.0, 0.0, 0.0, 0.0, 0.0, 0.0, 0.0, 0.0, 0.0, 1.7296934686385956E9, 0.0, 2024-10-23 19:54:28.638
13.0, 21036.858384234714, 20679.85632179455, 42156.77585086535, 16741.948335403005, 22895.204769993397, 25690.782152507563, -187500.02235174447, -187500.02235174447, 0.228, 0.936, -0.226, 192.0, 0.0, 0.0, 0.0, 0.0, 0.0, 0.0, 0.0, 0.0, 0.0, 1.729693468641527E9, 0.0, 2024-10-23 19:54:28.641
14.0, 20825.746157854337, 19682.543835943205, 42226.75916275492, 15938.671343168182, 22853.697580539894, 25094.102334273142, -187500.02235174447, -187500.02235174447, 0.222, 0.932, -0.222, 192.0, 6.0, 240.0, 29.0, 32.0, 249.0, 16.0, 0.0, 0.0, 0.0, 1.729693468644586E9, 0.0, 2024-10-23 19:54:28.644
15.0, 20810.0105297578, 17464.110847009524, 42302.24100378049, 15570.98514687838, 22873.970612760855, 24780.39560084291, -187500.02235174447, -187500.02235174447, 0.222, 0.932, -0.222, 192.0, 0.0, 0.0, 0.0, 0.0, 0.0, 0.0, 0.0, 0.0, 0.0, 1.7296934686486092E9, 0.0, 2024-10-23 19:54:28.648
16.0, 20946.736150590918, 14906.221915033093, 42339.94839667659, 15548.834568123171, 22909.085203300143, 24764.23528960172, -187500.02235174447, -187500.02235174447, 0.222, 0.932, -0.222, 192.0, 0.0, 0.0, 0.0, 0.0, 0.0, 0.0, 0.0, 0.0, 0.0, 1.7296934686534915E9, 0.0, 2024-10-23 19:54:28.653
17.0, 21373.52035922055, 18150.197643065174, 42294.261431009945, 16944.276326212446, 23042.502765953872, 25887.611614180998, -187500.02235174447, -187500.02235174447, 0.222, 0.932, -0.222, 192.0, 0.0, 0.0, 0.0, 0.0, 0.0, 0.0, 0.0, 0.0, 0.0, 1.7296934686574926E9, 0.0, 2024-10-23 19:54:28.657
18.0, 21042.222802903987, 20679.453990394355, 42161.6038276677, 16728.69375094101, 22897.32818571665, 25687.876425728373, -187500.02235174447, -187500.02235174447, 0.222, 0.932, -0.222, 192.0, 0.0, 0.0, 0.0, 0.0, 0.0, 0.0, 0.0, 0.0, 0.0, 1.729693468661713E9, 0.0, 2024-10-23 19:54:28.661
19.0, 20832.585791657664, 19667.23289099132, 42233.10705818022, 15930.82588086437, 22855.03868520721, 25087.48621791437, -187500.02235174447, -187500.02235174447, 0.222, 0.932, -0.222, 192.0, 0.0, 0.0, 0.0, 0.0, 0.0, 0.0, 0.0, 0.0, 0.0, 1.7296934686657336E9, 0.0, 2024-10-23 19:54:28.665
20.0, 20818.25832346181, 17448.017591001702, 42316.1884923206, 15570.649870711552, 22883.984194276836, 24776.70756300778, -187500.02235174447, -187500.02235174447, 0.222, 0.932, -0.222, 192.0, 0.0, 0.0, 0.0, 0.0, 0.0, 0.0, 0.0, 0.0, 0.0, 1.7296934686686327E9, 0.0, 2024-10-23 19:54:28.668
21.0, 20961.376543209142, 14909.462917979112, 42359.126193419244, 15560.07749558419, 22919.925799360968, 24771.0972751495, -187500.02235174447, -187500.02235174447, 0.222, 0.932, -0.222, 192.0, 0.0, 0.0, 0.0, 0.0, 0.0, 0.0, 0.0, 0.0, 0.0, 1.7296934686725645E9, 0.0, 2024-10-23 19:54:28.672
22.0, 21382.95279538069, 18170.582434008415, 42309.52767247292, 16956.435675196135, 23048.51538521235, 25894.942986362337, -187500.02235174447, -187500.02235174447, 0.222, 0.932, -0.222, 192.0, 0.0, 0.0, 0.0, 0.0, 0.0, 0.0, 0.0, 0.0, 0.0, 1.7296934686765141E9, 0.0, 2024-10-23 19:54:28.676
23.0, 21044.92736398308, 20684.86311255254, 42169.49399346042, 16734.438149266025, 22897.39524095002, 25683.383725092855, -187500.02235174447, -187500.02235174447, 0.222, 0.932, -0.222, 192.0, 0.0, 0.0, 0.0, 0.0, 0.0, 0.0, 0.0, 0.0, 0.0, 1.7296934686806574E9, 0.0, 2024-10-23 19:54:28.680
24.0, 20834.93272482547, 19665.869434579545, 42239.92434023909, 15942.29232576994, 22859.263164909265, 25090.257834226828, -187500.02235174447, -187500.02235174447, 0.22, 0.928, -0.222, 192.0, 6.0, 224.0, 29.0, 0.0, 249.0, 16.0, 0.0, 0.0, 0.0, 1.7296934686857257E9, 0.0, 2024-10-23 19:54:28.685
25.0, 20816.26901820529, 17438.227526930277, 42318.22250106603, 15581.423411539008, 22889.438019923928, 24769.510301293172, -187500.02235174447, -187500.02235174447, 0.22, 0.928, -0.222, 192.0, 0.0, 0.0, 0.0, 0.0, 0.0, 0.0, 0.0, 0.0, 0.0, 1.7296934686899035E9, 0.0, 2024-10-23 19:54:28.689
26.0, 20963.656421143583, 14907.965351100607, 42362.25543764298, 15584.195027851467, 22931.034616355257, 24782.921347966356, -187500.02235174447, -187500.02235174447, 0.22, 0.928, -0.222, 192.0, 0.0, 0.0, 0.0, 0.0, 0.0, 0.0, 0.0, 0.0, 0.0, 1.7296934686935875E9, 0.0, 2024-10-23 19:54:28.693
27.0, 21385.56794948196, 18192.39773659679, 42311.7851986629, 16990.99147212404, 23059.579498717725, 25924.17906810988, -187500.02235174447, -187500.02235174447, 0.22, 0.928, -0.222, 192.0, 0.0, 0.0, 0.0, 0.0, 0.0, 0.0, 0.0, 0.0, 0.0, 1.7296934686965904E9, 0.0, 2024-10-23 19:54:28.696
28.0, 21044.145052927142, 20693.133258001002, 42172.04209232832, 16761.997850179418, 22905.888903843035, 25701.063954957004, -187500.02235174447, -187500.02235174447, 0.22, 0.928, -0.222, 192.0, 0.0, 0.0, 0.0, 0.0, 0.0, 0.0, 0.0, 0.0, 0.0, 1.7296934687008593E9, 0.0, 2024-10-23 19:54:28.700
29.0, 20836.586753915162, 19652.704257095367, 42243.634729818674, 15969.49439877205, 22866.23690917932, 25104.20532276694, -187500.02235174447, -187500.02235174447, 0.22, 0.928, -0.222, 192.0, 0.0, 0.0, 0.0, 0.0, 0.0, 0.0, 0.0, 0.0, 0.0, 1.7296934687047322E9, 0.0, 2024-10-23 19:54:28.704
30.0, 20819.577076384674, 17411.651302772916, 42324.50334125797, 15608.290208374288, 22897.99873805031, 24791.794990515114, -187500.02235174447, -187500.02235174447, 0.22, 0.928, -0.222, 192.0, 0.0, 0.0, 0.0, 0.0, 0.0, 0.0, 0.0, 0.0, 0.0, 1.729693468708636E9, 0.0, 2024-10-23 19:54:28.708
31.0, 20968.082066545736, 14887.357042712814, 42362.9483417211, 15617.23090615641, 22932.86745940059, 24803.14967669841, -187500.02235174447, -187500.02235174447, 0.22, 0.928, -0.222, 192.0, 0.0, 0.0, 0.0, 0.0, 0.0, 0.0, 0.0, 0.0, 0.0, 1.7296934687137375E9, 0.0, 2024-10-23 19:54:28.713
32.0, 21385.255025059585, 18201.94193147921, 42308.23127129451, 17020.22755387158, 23058.797187661792, 25933.5220972922, -187500.02235174447, -187500.02235174447, 0.22, 0.928, -0.222, 192.0, 0.0, 0.0, 0.0, 0.0, 0.0, 0.0, 0.0, 0.0, 0.0, 1.729693468717674E9, 0.0, 2024-10-23 19:54:28.717
33.0, 21044.703846538527, 20701.96219706085, 42167.571743437264, 16782.717917289487, 22903.29610148622, 25699.722850289687, -187500.02235174447, -187500.02235174447, 0.22, 0.928, -0.222, 192.0, 0.0, 0.0, 0.0, 0.0, 0.0, 0.0, 0.0, 0.0, 0.0, 1.7296934687234497E9, 0.0, 2024-10-23 19:54:28.723
34.0, 20836.273829492788, 19650.69260009439, 42235.36458437021, 15983.620701267804, 22861.00660097678, 25088.514398159314, -187500.02235174447, -187500.02235174447, 0.218, 0.928, -0.224, 192.0, 6.0, 208.0, 29.0, 0.0, 249.0, 0.0, 0.0, 0.0, 0.0, 1.729693468724603E9, 0.0, 2024-10-23 19:54:28.724
35.0, 20823.734500853363, 17395.625101998463, 42323.206940079566, 15627.535060350307, 22904.078412542156, 24799.43928711883, -187500.02235174447, -187500.02235174447, 0.218, 0.928, -0.224, 192.0, 0.0, 0.0, 0.0, 0.0, 0.0, 0.0, 0.0, 0.0, 0.0, 1.7296934687285953E9, 0.0, 2024-10-23 19:54:28.728
36.0, 20973.848816615202, 14869.453295404113, 42360.98138820903, 15633.413569142052, 22938.231878069866, 24831.268171223186, -187500.02235174447, -187500.02235174447, 0.218, 0.928, -0.224, 192.0, 0.0, 0.0, 0.0, 0.0, 0.0, 0.0, 0.0, 0.0, 0.0, 1.7296934687326455E9, 0.0, 2024-10-23 19:54:28.732
37.0, 21388.563083238972, 18203.640664057813, 42306.778407904916, 17022.105100405824, 23063.17812957503, 25942.731016007783, -187500.02235174447, -187500.02235174447, 0.218, 0.928, -0.224, 192.0, 0.0, 0.0, 0.0, 0.0, 0.0, 0.0, 0.0, 0.0, 0.0, 1.729693468736609E9, 0.0, 2024-10-23 19:54:28.736
38.0, 21038.043026690844, 20670.692106567873, 42162.76611837937, 16764.210672880494, 22898.110496772588, 25692.4138298528, -187500.02235174447, -187500.02235174447, 0.218, 0.928, -0.224, 192.0, 0.0, 0.0, 0.0, 0.0, 0.0, 0.0, 0.0, 0.0, 0.0, 1.729693468741647E9, 0.0, 2024-10-23 19:54:28.741
39.0, 20831.64701839054, 19599.194180869363, 42232.794133757845, 15961.9171574017, 22863.822920778148, 25083.641717868057, -187500.02235174447, -187500.02235174447, 0.218, 0.928, -0.224, 192.0, 0.0, 0.0, 0.0, 0.0, 0.0, 0.0, 0.0, 0.0, 0.0, 1.7296934687469487E9, 0.0, 2024-10-23 19:54:28.746
40.0, 20815.64316936054, 17326.22293546473, 42309.57237596183, 15589.425336054008, 22883.58186287664, 24770.85140596049, -187500.02235174447, -187500.02235174447, 0.218, 0.928, -0.224, 192.0, 0.0, 0.0, 0.0, 0.0, 0.0, 0.0, 0.0, 0.0, 0.0, 1.7296934687497275E9, 0.0, 2024-10-23 19:54:28.749
41.0, 20964.796360110806, 14817.485489545525, 42341.28950134391, 15592.241655855378, 22907.87820909956, 24775.500568807194, -187500.02235174447, -187500.02235174447, 0.218, 0.928, -0.224, 192.0, 0.0, 0.0, 0.0, 0.0, 0.0, 0.0, 0.0, 0.0, 0.0, 1.7296934687542703E9, 0.0, 2024-10-23 19:54:28.754
42.0, 21377.789542411512, 18178.182027123217, 42291.02042806392, 16976.21696903908, 23043.70976015446, 25896.373498007477, -187500.02235174447, -187500.02235174447, 0.218, 0.928, -0.224, 192.0, 0.0, 0.0, 0.0, 0.0, 0.0, 0.0, 0.0, 0.0, 0.0, 1.7296934687566764E9, 0.0, 2024-10-23 19:54:28.756
43.0, 21035.763148756403, 20644.160585899423, 42157.44640319901, 16716.17677404604, 22891.270862969264, 25684.009573937605, -187500.02235174447, -187500.02235174447, 0.218, 0.928, -0.224, 192.0, 0.0, 0.0, 0.0, 0.0, 0.0, 0.0, 0.0, 0.0, 0.0, 1.729693468761172E9, 0.0, 2024-10-23 19:54:28.761
44.0, 20834.038655047258, 19573.176750323386, 42229.35196511173, 15912.117470755276, 22850.65774329397, 25077.96437477641, -187500.02235174447, -187500.02235174447, 0.22, 0.932, -0.224, 192.0, 6.0, 224.0, 29.0, 32.0, 249.0, 0.0, 0.0, 0.0, 0.0, 1.7296934687646768E9, 0.0, 2024-10-23 19:54:28.764
45.0, 20813.5644571262, 17300.98781597469, 42310.01941085093, 15539.2680214963, 22878.23979595182, 24763.743551223703, -187500.02235174447, -187500.02235174447, 0.22, 0.932, -0.224, 192.0, 0.0, 0.0, 0.0, 0.0, 0.0, 0.0, 0.0, 0.0, 0.0, 1.7296934687697947E9, 0.0, 2024-10-23 19:54:28.769
46.0, 20972.172435781056, 14820.07829190234, 42350.47606831504, 15562.066800840712, 22913.041462068733, 24786.0505921901, -187500.02235174447, -187500.02235174447, 0.22, 0.932, -0.224, 192.0, 0.0, 0.0, 0.0, 0.0, 0.0, 0.0, 0.0, 0.0, 0.0, 1.7296934687738073E9, 0.0, 2024-10-23 19:54:28.773
47.0, 21382.773981425045, 18203.283036146528, 42299.357628745754, 16954.535776917433, 23044.112091554653, 25905.582416723064, -187500.02235174447, -187500.02235174447, 0.22, 0.932, -0.224, 192.0, 0.0, 0.0, 0.0, 0.0, 0.0, 0.0, 0.0, 0.0, 0.0, 1.7296934687777238E9, 0.0, 2024-10-23 19:54:28.777
48.0, 21039.40648310262, 20649.3238388686, 42170.83509812774, 16690.7404888559, 22899.071621784165, 25663.110692871895, -187500.02235174447, -187500.02235174447, 0.22, 0.932, -0.224, 192.0, 0.0, 0.0, 0.0, 0.0, 0.0, 0.0, 0.0, 0.0, 0.0, 1.7296934687807384E9, 0.0, 2024-10-23 19:54:28.780
49.0, 20835.625628903585, 19559.855110628025, 42241.28779665087, 15899.198162460109, 22858.65966780897, 25067.43670313796, -187500.02235174447, -187500.02235174447, 0.22, 0.932, -0.224, 192.0, 0.0, 0.0, 0.0, 0.0, 0.0, 0.0, 0.0, 0.0, 0.0, 1.7296934687847097E9, 0.0, 2024-10-23 19:54:28.784
50.0, 20811.172820469477, 17285.296891367067, 42316.769637676436, 15533.814195849205, 22881.1008192421, 24744.029312614122, -187500.02235174447, -187500.02235174447, 0.22, 0.932, -0.224, 192.0, 0.0, 0.0, 0.0, 0.0, 0.0, 0.0, 0.0, 0.0, 0.0, 1.7296934687886848E9, 0.0, 2024-10-23 19:54:28.788
51.0, 20973.96057533748, 14844.396989869714, 42360.310835875374, 15579.478809771397, 22930.229953554866, 24783.726010766746, -187500.02235174447, -187500.02235174447, 0.22, 0.932, -0.224, 192.0, 0.0, 0.0, 0.0, 0.0, 0.0, 0.0, 0.0, 0.0, 0.0, 1.729693468792696E9, 0.0, 2024-10-23 19:54:28.792
52.0, 21373.006269098078, 18229.121652736863, 42300.98930609099, 16975.97109985007, 23053.052789336776, 25916.579474995076, -187500.02235174447, -187500.02235174447, 0.22, 0.932, -0.224, 192.0, 0.0, 0.0, 0.0, 0.0, 0.0, 0.0, 0.0, 0.0, 0.0, 1.729693468797715E9, 0.0, 2024-10-23 19:54:28.797
53.0, 21025.771918984883, 20643.80295798814, 42170.11984230517, 16716.69086416851, 22899.853932840102, 25671.93963193174, -187500.02235174447, -187500.02235174447, 0.22, 0.932, -0.224, 192.0, 0.0, 0.0, 0.0, 0.0, 0.0, 0.0, 0.0, 0.0, 0.0, 1.7296934688018043E9, 0.0, 2024-10-23 19:54:28.801
54.0, 20825.41088168751, 19548.25455525572, 42241.84659026225, 15935.363284988796, 22864.515824856262, 25071.035333995263, -187500.02235174447, -187500.02235174447, 0.218, 0.93, -0.222, 192.0, 6.0, 208.0, 29.0, 16.0, 249.0, 16.0, 0.0, 0.0, 0.0, 1.7296934688066485E9, 0.0, 2024-10-23 19:54:28.806
55.0, 20805.92016052248, 17279.261920364133, 42321.53055924542, 15581.602225494651, 22894.087182770632, 24763.85530994598, -187500.02235174447, -187500.02235174447, 0.218, 0.93, -0.222, 192.0, 0.0, 0.0, 0.0, 0.0, 0.0, 0.0, 0.0, 0.0, 0.0, 1.729693468808781E9, 0.0, 2024-10-23 19:54:28.808
56.0, 20973.647650915107, 14855.148178952717, 42367.508097589984, 15639.090912233702, 22946.703189218428, 24822.10395599651, -187500.02235174447, -187500.02235174447, 0.218, 0.93, -0.222, 192.0, 0.0, 0.0, 0.0, 0.0, 0.0, 0.0, 0.0, 0.0, 0.0, 1.7296934688127844E9, 0.0, 2024-10-23 19:54:28.812
57.0, 21377.208397055674, 18252.948612326218, 42317.61900396574, 17038.645391302754, 23077.013859392868, 25964.121635451513, -187500.02235174447, -187500.02235174447, 0.218, 0.93, -0.222, 192.0, 0.0, 0.0, 0.0, 0.0, 0.0, 0.0, 0.0, 0.0, 0.0, 1.7296934688168576E9, 0.0, 2024-10-23 19:54:28.816
58.0, 21027.470651563486, 20637.008027673724, 42180.33458952124, 16763.4060100801, 22913.53320044675, 25705.400193381334, -187500.02235174447, -187500.02235174447, 0.218, 0.93, -0.222, 192.0, 0.0, 0.0, 0.0, 0.0, 0.0, 0.0, 0.0, 0.0, 0.0, 1.7296934688207E9, 0.0, 2024-10-23 19:54:28.820
59.0, 20833.613971902607, 19526.77452883417, 42251.86017177822, 15981.117305888809, 22873.56828136066, 25115.22473278341, -187500.02235174447, -187500.02235174447, 0.218, 0.93, -0.222, 192.0, 0.0, 0.0, 0.0, 0.0, 0.0, 0.0, 0.0, 0.0, 0.0, 1.7296934688247528E9, 0.0, 2024-10-23 19:54:28.824
60.0, 20815.59846587163, 17237.531213466074, 42326.89497791469, 15621.053054458269, 22894.53421765974, 24793.53842658263, -187500.02235174447, -187500.02235174447, 0.218, 0.93, -0.222, 192.0, 0.0, 0.0, 0.0, 0.0, 0.0, 0.0, 0.0, 0.0, 0.0, 1.7296934688297143E9, 0.0, 2024-10-23 19:54:28.829
61.0, 20980.375525996154, 14817.507841289978, 42355.23698988402, 15673.177322528045, 22925.021997096777, 24839.314799227097, -187500.02235174447, -187500.02235174447, 0.218, 0.93, -0.222, 192.0, 0.0, 0.0, 0.0, 0.0, 0.0, 0.0, 0.0, 0.0, 0.0, 1.7296934688337743E9, 0.0, 2024-10-23 19:54:28.833
62.0, 21370.592280696903, 18213.453079873692, 42287.62296290672, 17050.313001908424, 23044.447367721485, 25948.45306258834, -187500.02235174447, -187500.02235174447, 0.218, 0.93, -0.222, 192.0, 0.0, 0.0, 0.0, 0.0, 0.0, 0.0, 0.0, 0.0, 0.0, 1.7296934688367403E9, 0.0, 2024-10-23 19:54:28.836
63.0, 21019.088747392743, 20557.994611024216, 42151.65730138509, 16759.248585611414, 22893.52838915925, 25685.216568138192, -187500.02235174447, -187500.02235174447, 0.218, 0.93, -0.222, 192.0, 0.0, 0.0, 0.0, 0.0, 0.0, 0.0, 0.0, 0.0, 0.0, 1.7296934688407753E9, 0.0, 2024-10-23 19:54:28.840
64.0, 20828.383663700064, 19435.75822541216, 42228.39084010015, 15973.96474766311, 22859.106702698078, 25094.169389506507, -187500.02235174447, -187500.02235174447, 0.216, 0.934, -0.22, 192.0, 6.0, 192.0, 29.0, 48.0, 249.0, 32.0, 0.0, 0.0, 0.0, 1.729693468844794E9, 0.0, 2024-10-23 19:54:28.844
65.0, 20802.969730254383, 17127.784148190516, 42299.625849679214, 15594.387423323087, 22882.464275653874, 24754.624039485938, -187500.02235174447, -187500.02235174447, 0.216, 0.934, -0.22, 192.0, 0.0, 0.0, 0.0, 0.0, 0.0, 0.0, 0.0, 0.0, 0.0, 1.729693468848766E9, 0.0, 2024-10-23 19:54:28.848
66.0, 20976.128694549643, 14732.124177470707, 42342.04946065539, 15653.507787407374, 22932.018093111288, 24832.54222065714, -187500.02235174447, -187500.02235174447, 0.216, 0.934, -0.22, 192.0, 0.0, 0.0, 0.0, 0.0, 0.0, 0.0, 0.0, 0.0, 0.0, 1.7296934688527727E9, 0.0, 2024-10-23 19:54:28.852
67.0, 21369.720562663148, 18155.562061734447, 42288.62879140721, 17024.161460895713, 23058.573670217236, 25956.23146965879, -187500.02235174447, -187500.02235174447, 0.216, 0.934, -0.22, 192.0, 0.0, 0.0, 0.0, 0.0, 0.0, 0.0, 0.0, 0.0, 0.0, 1.7296934688578863E9, 0.0, 2024-10-23 19:54:28.857
68.0, 21020.273389848877, 20500.416517307345, 42157.75932762138, 16721.36237875967, 22899.496304928816, 25682.400248336824, -187500.02235174447, -187500.02235174447, 0.216, 0.934, -0.22, 192.0, 0.0, 0.0, 0.0, 0.0, 0.0, 0.0, 0.0, 0.0, 0.0, 1.729693468861904E9, 0.0, 2024-10-23 19:54:28.861
69.0, 20825.03090203177, 19377.621338083904, 42228.14497091115, 15927.383712218252, 22857.877356753037, 25082.52413064529, -187500.02235174447, -187500.02235174447, 0.216, 0.934, -0.22, 192.0, 0.0, 0.0, 0.0, 0.0, 0.0, 0.0, 0.0, 0.0, 0.0, 1.7296934688649683E9, 0.0, 2024-10-23 19:54:28.864
70.0, 20800.511038364297, 17080.04082203398, 42304.43147473711, 15549.773341390293, 22879.558548874684, 24747.002094626678, -187500.02235174447, -187500.02235174447, 0.216, 0.934, -0.22, 192.0, 0.0, 0.0, 0.0, 0.0, 0.0, 0.0, 0.0, 0.0, 0.0, 1.7296934688688211E9, 0.0, 2024-10-23 19:54:28.868
71.0, 20981.58252019674, 14716.67912205209, 42352.063042171365, 15615.33100787771, 22930.699340188425, 24822.81921181908, -187500.02235174447, -187500.02235174447, 0.216, 0.934, -0.22, 192.0, 0.0, 0.0, 0.0, 0.0, 0.0, 0.0, 0.0, 0.0, 0.0, 1.7296934688733275E9, 0.0, 2024-10-23 19:54:28.873
72.0, 21373.83328364292, 18171.20828285316, 42299.31292525684, 16978.45214348461, 23053.477472481427, 25929.543486779152, -187500.02235174447, -187500.02235174447, 0.216, 0.934, -0.22, 192.0, 0.0, 0.0, 0.0, 0.0, 0.0, 0.0, 0.0, 0.0, 0.0, 1.7296934688771255E9, 0.0, 2024-10-23 19:54:28.877
73.0, 21021.10040439372, 20510.497154056688, 42169.44928997151, 16668.880482778608, 22895.629453138048, 25645.676332196756, -187500.02235174447, -187500.02235174447, 0.216, 0.934, -0.22, 192.0, 0.0, 0.0, 0.0, 0.0, 0.0, 0.0, 0.0, 0.0, 0.0, 1.729693468880819E9, 0.0, 2024-10-23 19:54:28.880
74.0, 20837.3690649711, 19394.27338770311, 42254.09534622376, 15886.256502420487, 22868.58384234713, 25062.58637459116, -187500.02235174447, -187500.02235174447, 0.218, 0.936, -0.222, 192.0, 6.0, 208.0, 29.0, 64.0, 249.0, 16.0, 0.0, 0.0, 0.0, 1.7296934688858132E9, 0.0, 2024-10-23 19:54:28.885
75.0, 20811.843372803138, 17087.19338025968, 42330.80653319437, 15513.138832228045, 22890.287386213233, 24741.57062072404, -187500.02235174447, -187500.02235174447, 0.218, 0.936, -0.222, 192.0, 0.0, 0.0, 0.0, 0.0, 0.0, 0.0, 0.0, 0.0, 0.0, 1.7296934688899004E9, 0.0, 2024-10-23 19:54:28.889
76.0, 20987.81865689977, 14733.241764693472, 42370.167955180164, 15587.056051141746, 22931.414596010996, 24805.697775566314, -187500.02235174447, -187500.02235174447, 0.218, 0.936, -0.222, 192.0, 0.0, 0.0, 0.0, 0.0, 0.0, 0.0, 0.0, 0.0, 0.0, 1.7296934688928533E9, 0.0, 2024-10-23 19:54:28.892
77.0, 21374.548539465493, 18211.776699039543, 42317.686059199106, 16956.815654851875, 23059.31127778426, 25914.903094160927, -187500.02235174447, -187500.02235174447, 0.218, 0.936, -0.222, 192.0, 0.0, 0.0, 0.0, 0.0, 0.0, 0.0, 0.0, 0.0, 0.0, 1.7296934688969572E9, 0.0, 2024-10-23 19:54:28.896
78.0, 21019.401671815118, 20543.68949457282, 42190.34817103722, 16653.815407015732, 22907.922912588467, 25645.4528147522, -187500.02235174447, -187500.02235174447, 0.218, 0.936, -0.222, 192.0, 0.0, 0.0, 0.0, 0.0, 0.0, 0.0, 0.0, 0.0, 0.0, 1.7296934689008727E9, 0.0, 2024-10-23 19:54:28.900
79.0, 20832.183460257467, 19415.082861791, 42269.62980862019, 15883.730755297036, 22876.58576686213, 25060.328848401172, -187500.02235174447, -187500.02235174447, 0.218, 0.936, -0.222, 192.0, 0.0, 0.0, 0.0, 0.0, 0.0, 0.0, 0.0, 0.0, 0.0, 1.7296934689048867E9, 0.0, 2024-10-23 19:54:28.904
80.0, 20812.580980370163, 17114.462508495155, 42349.067908414356, 15528.069797524191, 22896.38941244953, 24750.51131850616, -187500.02235174447, -187500.02235174447, 0.218, 0.936, -0.222, 192.0, 0.0, 0.0, 0.0, 0.0, 0.0, 0.0, 0.0, 0.0, 0.0, 1.7296934689089155E9, 0.0, 2024-10-23 19:54:28.908
81.0, 21000.425040772563, 14798.665320714155, 42393.9055077917, 15634.173528453533, 22952.24642184334, 24849.350732487528, -187500.02235174447, -187500.02235174447, 0.218, 0.936, -0.222, 192.0, 0.0, 0.0, 0.0, 0.0, 0.0, 0.0, 0.0, 0.0, 0.0, 1.729693468912882E9, 0.0, 2024-10-23 19:54:28.912
82.0, 21382.46105700267, 18294.366394801902, 42333.958129162565, 17011.465670045098, 23076.52212101485, 25951.694065534364, -187500.02235174447, -187500.02235174447, 0.218, 0.936, -0.222, 192.0, 0.0, 0.0, 0.0, 0.0, 0.0, 0.0, 0.0, 0.0, 0.0, 1.729693468917988E9, 0.0, 2024-10-23 19:54:28.917
83.0, 21027.023616674378, 20611.683501205862, 42196.56195599579, 16705.760861129864, 22908.995796322324, 25659.154434103304, -187500.02235174447, -187500.02235174447, 0.218, 0.936, -0.222, 192.0, 0.0, 0.0, 0.0, 0.0, 0.0, 0.0, 0.0, 0.0, 0.0, 1.7296934689218793E9, 0.0, 2024-10-23 19:54:28.921
84.0, 20843.98518132987, 19474.67261250885, 42272.40142493265, 15946.695619427637, 22882.53133088724, 25093.096505772653, -187500.02235174447, -187500.02235174447, 0.218, 0.93, -0.214, 192.0, 6.0, 208.0, 29.0, 16.0, 249.0, 80.0, 0.0, 0.0, 0.0, 1.7296934689248931E9, 0.0, 2024-10-23 19:54:28.924
85.0, 20816.82781181667, 17163.099904429902, 42340.1942658656, 15589.470039542919, 22896.322357216162, 24767.968030925756, -187500.02235174447, -187500.02235174447, 0.218, 0.93, -0.214, 192.0, 0.0, 0.0, 0.0, 0.0, 0.0, 0.0, 0.0, 0.0, 0.0, 1.7296934689289384E9, 0.0, 2024-10-23 19:54:28.928
86.0, 20999.240398316433, 14854.432923130147, 42372.15726043669, 15695.797287916816, 22938.343636792142, 24863.857014639023, -187500.02235174447, -187500.02235174447, 0.218, 0.93, -0.214, 192.0, 0.0, 0.0, 0.0, 0.0, 0.0, 0.0, 0.0, 0.0, 0.0, 1.7296934689329724E9, 0.0, 2024-10-23 19:54:28.932
87.0, 21378.594205211903, 18336.700598800257, 42312.88043414121, 17067.814417816928, 23071.582385490226, 25970.67069657692, -187500.02235174447, -187500.02235174447, 0.218, 0.93, -0.214, 192.0, 0.0, 0.0, 0.0, 0.0, 0.0, 0.0, 0.0, 0.0, 0.0, 1.7296934689368854E9, 0.0, 2024-10-23 19:54:28.936
88.0, 21021.145107882632, 20599.390041755443, 42178.36763600918, 16754.130036131148, 22916.39422373703, 25679.494521557634, -187500.02235174447, -187500.02235174447, 0.218, 0.93, -0.214, 192.0, 0.0, 0.0, 0.0, 0.0, 0.0, 0.0, 0.0, 0.0, 0.0, 1.729693468941932E9, 0.0, 2024-10-23 19:54:28.941
89.0, 20843.69460865195, 19443.022542360133, 42257.71632882552, 15990.30387285994, 22886.66640361147, 25119.15863980754, -187500.02235174447, -187500.02235174447, 0.218, 0.93, -0.214, 192.0, 0.0, 0.0, 0.0, 0.0, 0.0, 0.0, 0.0, 0.0, 0.0, 1.729693468945896E9, 0.0, 2024-10-23 19:54:28.945
90.0, 20814.525582137776, 17115.088357339904, 42322.290518556896, 15613.118185176634, 22899.161028761988, 24781.24496713221, -187500.02235174447, -187500.02235174447, 0.218, 0.93, -0.214, 192.0, 0.0, 0.0, 0.0, 0.0, 0.0, 0.0, 0.0, 0.0, 0.0, 1.7296934689488938E9, 0.0, 2024-10-23 19:54:28.948
91.0, 21002.77197394037, 14822.69344600361, 42356.98042595154, 15707.77782294486, 22945.987933395856, 24876.329288045086, -187500.02235174447, -187500.02235174447, 0.218, 0.93, -0.214, 192.0, 0.0, 0.0, 0.0, 0.0, 0.0, 0.0, 0.0, 0.0, 0.0, 1.7296934689529188E9, 0.0, 2024-10-23 19:54:28.952
92.0, 21374.168559809754, 18297.138011114363, 42288.8299571073, 17050.871795519804, 23054.349190515186, 25956.209117914335, -187500.02235174447, -187500.02235174447, 0.218, 0.93, -0.214, 192.0, 0.0, 0.0, 0.0, 0.0, 0.0, 0.0, 0.0, 0.0, 0.0, 1.7296934689569392E9, 0.0, 2024-10-23 19:54:28.956
93.0, 21015.132488624156, 20533.228878167734, 42158.6533973996, 16708.35366348668, 22893.975424048356, 25652.22539332216, -187500.02235174447, -187500.02235174447, 0.218, 0.93, -0.214, 192.0, 0.0, 0.0, 0.0, 0.0, 0.0, 0.0, 0.0, 0.0, 0.0, 1.7296934689622104E9, 0.0, 2024-10-23 19:54:28.962
94.0, 20838.307838238223, 19367.585404823472, 42240.773706528395, 15926.780215117959, 22869.76848480326, 25081.406543422527, -187500.02235174447, -187500.02235174447, 0.224, 0.928, -0.216, 192.0, 7.0, 0.0, 29.0, 0.0, 249.0, 64.0, 0.0, 0.0, 0.0, 1.7296934689669578E9, 0.0, 2024-10-23 19:54:28.966
95.0, 20806.255436689313, 17036.298458134945, 42309.6841346841, 15533.41186444901, 22885.794685577715, 24739.67072244534, -187500.02235174447, -187500.02235174447, 0.224, 0.928, -0.216, 192.0, 0.0, 0.0, 0.0, 0.0, 0.0, 0.0, 0.0, 0.0, 0.0, 1.7296934689709604E9, 0.0, 2024-10-23 19:54:28.970
96.0, 20999.374508783163, 14773.005518079462, 42350.83369622633, 15631.871298774637, 22931.168726821987, 24837.68312188186, -187500.02235174447, -187500.02235174447, 0.224, 0.928, -0.216, 192.0, 0.0, 0.0, 0.0, 0.0, 0.0, 0.0, 0.0, 0.0, 0.0, 1.7296934689749355E9, 0.0, 2024-10-23 19:54:28.974
97.0, 21371.531053964027, 18273.80278990302, 42289.79108211888, 16978.07216382887, 23043.68740841, 25926.70481523333, -187500.02235174447, -187500.02235174447, 0.224, 0.928, -0.216, 192.0, 0.0, 0.0, 0.0, 0.0, 0.0, 0.0, 0.0, 0.0, 0.0, 1.7296934689779625E9, 0.0, 2024-10-23 19:54:28.977
98.0, 21001.430869273052, 20482.62452872092, 42155.68061538704, 16622.65707524503, 22878.9997552633, 25608.48302942312, -187500.02235174447, -187500.02235174447, 0.224, 0.928, -0.216, 192.0, 0.0, 0.0, 0.0, 0.0, 0.0, 0.0, 0.0, 0.0, 0.0, 1.7296934689819627E9, 0.0, 2024-10-23 19:54:28.981
99.0, 20830.97646605688, 19323.55246824652, 42248.79798278785, 15851.208967114564, 22858.52555734224, 25038.401787090515, -187500.02235174447, -187500.02235174447, 0.224, 0.928, -0.216, 192.0, 0.0, 0.0, 0.0, 0.0, 0.0, 0.0, 0.0, 0.0, 0.0, 1.7296934689849625E9, 0.0, 2024-10-23 19:54:28.984
100.0, 20809.69760533543, 17009.811640955406, 42332.482914028515, 15478.851256233605, 22888.34278444562, 24726.41613798334, -187500.02235174447, -187500.02235174447, 0.224, 0.928, -0.216, 192.0, 0.0, 0.0, 0.0, 0.0, 0.0, 0.0, 0.0, 0.0, 0.0, 1.7296934689889758E9, 0.0, 2024-10-23 19:54:28.988
101.0, 21007.35408155371, 14772.156151790161, 42379.3545221513, 15594.94621693447, 22942.702226960926, 24841.304104483617, -187500.02235174447, -187500.02235174447, 0.224, 0.928, -0.216, 192.0, 0.0, 0.0, 0.0, 0.0, 0.0, 0.0, 0.0, 0.0, 0.0, 1.729693468992994E9, 0.0, 2024-10-23 19:54:28.992
102.0, 21377.90130113379, 18303.95529317323, 42318.96010863306, 16948.769026847964, 23058.12663532813, 25953.61631555752, -187500.02235174447, -187500.02235174447, 0.224, 0.928, -0.216, 192.0, 0.0, 0.0, 0.0, 0.0, 0.0, 0.0, 0.0, 0.0, 0.0, 1.7296934689970005E9, 0.0, 2024-10-23 19:54:28.997
103.0, 21015.44541304653, 20528.557363576576, 42190.61639197068, 16610.788298939264, 22900.032746795743, 25638.210849548683, -187500.02235174447, -187500.02235174447, 0.224, 0.928, -0.216, 192.0, 0.0, 0.0, 0.0, 0.0, 0.0, 0.0, 0.0, 0.0, 0.0, 1.7296934690019927E9, 0.0, 2024-10-23 19:54:29.001
104.0, 20841.07945455068, 19370.82640776949, 42277.89995406866, 15850.806635714369, 22884.00654602129, 25057.713694299902, -187500.02235174447, -187500.02235174447, 0.224, 0.928, -0.216, 192.0, 0.0, 0.0, 0.0, 0.0, 0.0, 0.0, 0.0, 0.0, 0.0, 1.7296934690051017E9, 0.0, 2024-10-23 19:54:29.005
105.0, 20809.58584661315, 17051.162368197725, 42351.995986938, 15485.914407481481, 22906.02301430977, 24736.80969915506, -187500.02235174447, -187500.02235174447, 0.218, 0.9400000000000001, -0.222, 192.0, 6.0, 208.0, 29.0, 96.0, 249.0, 16.0, 0.0, 0.0, 0.0, 1.7296934690079937E9, 0.0, 2024-10-23 19:54:29.007
106.0, 21010.773898455373, 14837.356190366292, 42396.72182759307, 15627.311542905754, 22965.34454409415, 24867.209776307318, -187500.02235174447, -187500.02235174447, 0.218, 0.9400000000000001, -0.222, 192.0, 0.0, 0.0, 0.0, 0.0, 0.0, 0.0, 0.0, 0.0, 0.0, 1.7296934690129876E9, 0.0, 2024-10-23 19:54:29.012
107.0, 21378.013059856065, 18412.02597761464, 42333.37698380673, 17005.721271720085, 23083.786437962823, 25986.540435140185, -187500.02235174447, -187500.02235174447, 0.218, 0.9400000000000001, -0.222, 192.0, 0.0, 0.0, 0.0, 0.0, 0.0, 0.0, 0.0, 0.0, 0.0, 1.7296934690170465E9, 0.0, 2024-10-23 19:54:29.017
108.0, 21010.706843222004, 20634.03524566117, 42202.08283687626, 16669.238110689894, 22928.0618343427, 25679.449818068722, -187500.02235174447, -187500.02235174447, 0.218, 0.9400000000000001, -0.222, 192.0, 0.0, 0.0, 0.0, 0.0, 0.0, 0.0, 0.0, 0.0, 0.0, 1.729693469021002E9, 0.0, 2024-10-23 19:54:29.021
109.0, 20836.519698681797, 19462.08858038051, 42281.36447445923, 15916.744281857525, 22904.16781951998, 25102.26072099933, -187500.02235174447, -187500.02235174447, 0.218, 0.9400000000000001, -0.222, 192.0, 0.0, 0.0, 0.0, 0.0, 0.0, 0.0, 0.0, 0.0, 0.0, 1.7296934690250008E9, 0.0, 2024-10-23 19:54:29.025
110.0, 20802.612102343097, 17122.53148824352, 42345.58103627933, 15554.333097259176, 22920.998683094822, 24768.526824537137, -187500.02235174447, -187500.02235174447, 0.218, 0.9400000000000001, -0.222, 192.0, 0.0, 0.0, 0.0, 0.0, 0.0, 0.0, 0.0, 0.0, 0.0, 1.7296934690300343E9, 0.0, 2024-10-23 19:54:29.030
111.0, 21003.330767551754, 14911.943961613651, 42380.0027227405, 15699.842953663225, 22974.30759362073, 24895.954119676844, -187500.02235174447, -187500.02235174447, 0.218, 0.9400000000000001, -0.222, 192.0, 0.0, 0.0, 0.0, 0.0, 0.0, 0.0, 0.0, 0.0, 0.0, 1.7296934690330348E9, 0.0, 2024-10-23 19:54:29.033
112.0, 21367.440684728706, 18486.680804095366, 42309.70648642856, 17067.61325211683, 23086.066315897264, 26004.444182448886, -187500.02235174447, -187500.02235174447, 0.218, 0.9400000000000001, -0.222, 192.0, 0.0, 0.0, 0.0, 0.0, 0.0, 0.0, 0.0, 0.0, 0.0, 1.7296934690360837E9, 0.0, 2024-10-23 19:54:29.036
113.0, 21002.68256696255, 20681.66681309543, 42178.769967409375, 16722.010579348873, 22929.112366332098, 25696.4147921103, -187500.02235174447, -187500.02235174447, 0.218, 0.9400000000000001, -0.222, 192.0, 0.0, 0.0, 0.0, 0.0, 0.0, 0.0, 0.0, 0.0, 0.0, 1.7296934690451112E9, 0.0, 2024-10-23 19:54:29.045
114.0, 20827.333131710664, 19472.81741771906, 42253.581256101286, 15959.25729981152, 22896.925854316458, 25104.562950678224, -187500.02235174447, -187500.02235174447, 0.218, 0.9400000000000001, -0.222, 192.0, 0.0, 0.0, 0.0, 0.0, 0.0, 0.0, 0.0, 0.0, 0.0, 1.7296934690460992E9, 0.0, 2024-10-23 19:54:29.046
115.0, 20796.577131340164, 17102.593732189387, 42321.99994587898, 15588.330100575698, 22914.8072498807, 24761.262507589163, -187500.02235174447, -187500.02235174447, 0.22, 0.9380000000000001, -0.218, 192.0, 6.0, 224.0, 29.0, 80.0, 249.0, 48.0, 0.0, 0.0, 0.0, 1.7296934690500443E9, 0.0, 2024-10-23 19:54:29.050
116.0, 21006.97410189797, 14888.944016569141, 42360.467298086565, 15737.170366903589, 22966.30566910573, 24904.336023847583, -187500.02235174447, -187500.02235174447, 0.22, 0.9380000000000001, -0.218, 192.0, 0.0, 0.0, 0.0, 0.0, 0.0, 0.0, 0.0, 0.0, 0.0, 1.7296934690530553E9, 0.0, 2024-10-23 19:54:29.053
117.0, 21369.36293475186, 18463.636155561944, 42289.38875071869, 17084.846447091873, 23071.202405834487, 26007.2381505058, -187500.02235174447, -187500.02235174447, 0.22, 0.9380000000000001, -0.218, 192.0, 0.0, 0.0, 0.0, 0.0, 0.0, 0.0, 0.0, 0.0, 0.0, 1.729693469057116E9, 0.0, 2024-10-23 19:54:29.057
118.0, 20998.97217738297, 20620.624198987985, 42156.19470550951, 16700.619959905143, 22905.82184860967, 25661.03198063755, -187500.02235174447, -187500.02235174447, 0.22, 0.9380000000000001, -0.218, 192.0, 0.0, 0.0, 0.0, 0.0, 0.0, 0.0, 0.0, 0.0, 0.0, 1.7296934690610695E9, 0.0, 2024-10-23 19:54:29.061
119.0, 20831.512907923807, 19390.40653591234, 42240.79605827285, 15916.051377779411, 22879.223272707855, 25054.62915356507, -187500.02235174447, -187500.02235174447, 0.22, 0.9380000000000001, -0.218, 192.0, 0.0, 0.0, 0.0, 0.0, 0.0, 0.0, 0.0, 0.0, 0.0, 1.7296934690640483E9, 0.0, 2024-10-23 19:54:29.064
120.0, 20802.098012220624, 17004.98366415306, 42314.266242297446, 15526.728692856872, 22898.44577293942, 24734.596876453983, -187500.02235174447, -187500.02235174447, 0.22, 0.9380000000000001, -0.218, 192.0, 0.0, 0.0, 0.0, 0.0, 0.0, 0.0, 0.0, 0.0, 0.0, 1.7296934690690563E9, 0.0, 2024-10-23 19:54:29.069
121.0, 21010.952712411014, 14799.78290793692, 42354.588789294816, 15666.203578257988, 22950.234764842364, 24877.96096539032, -187500.02235174447, -187500.02235174447, 0.22, 0.9380000000000001, -0.218, 192.0, 0.0, 0.0, 0.0, 0.0, 0.0, 0.0, 0.0, 0.0, 0.0, 1.729693469073059E9, 0.0, 2024-10-23 19:54:29.073
122.0, 21366.45720797267, 18399.911332119864, 42286.95241057306, 17007.330597320866, 23060.451216751484, 25972.257670433246, -187500.02235174447, -187500.02235174447, 0.22, 0.9380000000000001, -0.218, 192.0, 0.0, 0.0, 0.0, 0.0, 0.0, 0.0, 0.0, 0.0, 0.0, 1.7296934690770779E9, 0.0, 2024-10-23 19:54:29.077
123.0, 20997.429907015554, 20551.132625476435, 42160.97797882295, 16628.088549147673, 22899.33984271763, 25636.176840803248, -187500.02235174447, -187500.02235174447, 0.22, 0.9380000000000001, -0.218, 192.0, 0.0, 0.0, 0.0, 0.0, 0.0, 0.0, 0.0, 0.0, 0.0, 1.7296934690811048E9, 0.0, 2024-10-23 19:54:29.081
124.0, 20829.657713134016, 19315.036453609046, 42249.17796244359, 15862.317784108853, 22877.591595362617, 25056.64081056605, -187500.02235174447, -187500.02235174447, 0.22, 0.9380000000000001, -0.218, 192.0, 0.0, 0.0, 0.0, 0.0, 0.0, 0.0, 0.0, 0.0, 0.0, 1.7296934690851073E9, 0.0, 2024-10-23 19:54:29.085
125.0, 20798.566436596684, 16918.705930555574, 42325.10683835827, 15481.712279523885, 22895.852970582604, 24713.452126199263, -187500.02235174447, -187500.02235174447, 0.216, 0.932, -0.218, 192.0, 6.0, 192.0, 29.0, 32.0, 249.0, 48.0, 0.0, 0.0, 0.0, 1.7296934690891173E9, 0.0, 2024-10-23 19:54:29.089
126.0, 21013.053776389814, 14738.695590340567, 42368.29040864592, 15643.404798913574, 22951.486462531862, 24853.888136611957, -187500.02235174447, -187500.02235174447, 0.216, 0.932, -0.218, 192.0, 0.0, 0.0, 0.0, 0.0, 0.0, 0.0, 0.0, 0.0, 0.0, 1.7296934690921388E9, 0.0, 2024-10-23 19:54:29.092
127.0, 21366.345449250395, 18368.30596546006, 42302.53157645841, 16992.377280280267, 23061.300583040786, 25950.79999575615, -187500.02235174447, -187500.02235174447, 0.216, 0.932, -0.218, 192.0, 0.0, 0.0, 0.0, 0.0, 0.0, 0.0, 0.0, 0.0, 0.0, 1.7296934690991402E9, 0.0, 2024-10-23 19:54:29.099
128.0, 21001.475572761963, 20521.2930466286, 42185.743711679424, 16623.037054900775, 22912.52737194626, 25635.774509403054, -187500.02235174447, -187500.02235174447, 0.216, 0.932, -0.218, 192.0, 0.0, 0.0, 0.0, 0.0, 0.0, 0.0, 0.0, 0.0, 0.0, 1.7296934691031911E9, 0.0, 2024-10-23 19:54:29.103
129.0, 20839.157204527524, 19290.762459130583, 42277.89995406866, 15876.24292090451, 22898.602235150604, 25078.18789222096, -187500.02235174447, -187500.02235174447, 0.216, 0.932, -0.218, 192.0, 0.0, 0.0, 0.0, 0.0, 0.0, 0.0, 0.0, 0.0, 0.0, 1.7296934691061654E9, 0.0, 2024-10-23 19:54:29.106
130.0, 20805.74134656684, 16899.371671601733, 42352.08539391582, 15508.288503681244, 22919.054081327213, 24743.582277725018, -187500.02235174447, -187500.02235174447, 0.216, 0.932, -0.218, 192.0, 0.0, 0.0, 0.0, 0.0, 0.0, 0.0, 0.0, 0.0, 0.0, 1.7296934691091356E9, 0.0, 2024-10-23 19:54:29.109
131.0, 21022.59797127223, 14759.6838783841, 42394.374894425266, 15690.499924480908, 22976.989802955366, 24900.02213716771, -187500.02235174447, -187500.02235174447, 0.216, 0.932, -0.218, 192.0, 0.0, 0.0, 0.0, 0.0, 0.0, 0.0, 0.0, 0.0, 0.0, 1.729693469113133E9, 0.0, 2024-10-23 19:54:29.113
132.0, 21369.7429144076, 18418.64209397341, 42324.525693002426, 17042.37813262679, 23083.272347840353, 25996.37520270052, -187500.02235174447, -187500.02235174447, 0.216, 0.932, -0.218, 192.0, 0.0, 0.0, 0.0, 0.0, 0.0, 0.0, 0.0, 0.0, 0.0, 1.729693469117168E9, 0.0, 2024-10-23 19:54:29.117
133.0, 20999.665081461084, 20563.78371283814, 42198.39479904113, 16669.841607790186, 22921.848049384123, 25663.64713473882, -187500.02235174447, -187500.02235174447, 0.216, 0.932, -0.218, 192.0, 0.0, 0.0, 0.0, 0.0, 0.0, 0.0, 0.0, 0.0, 0.0, 1.729693469123178E9, 0.0, 2024-10-23 19:54:29.123
134.0, 20837.279657993276, 19338.97517192068, 42281.96797155953, 15924.455633694606, 22902.223217752366, 25078.05378175423, -187500.02235174447, -187500.02235174447, 0.216, 0.932, -0.218, 192.0, 0.0, 0.0, 0.0, 0.0, 0.0, 0.0, 0.0, 0.0, 0.0, 1.7296934691261635E9, 0.0, 2024-10-23 19:54:29.126
135.0, 20797.202980184913, 16948.67961987014, 42342.25062635549, 15550.421541979498, 22916.550685948216, 24721.275236758618, -187500.02235174447, -187500.02235174447, 0.218, 0.926, -0.218, 192.0, 6.0, 208.0, 28.0, 240.0, 249.0, 48.0, 0.0, 0.0, 0.0, 1.729693469130179E9, 0.0, 2024-10-23 19:54:29.130
136.0, 21013.836087445747, 14833.466986831068, 42376.76171979448, 15743.093579184244, 22978.487369833874, 24919.199933910364, -187500.02235174447, -187500.02235174447, 0.218, 0.926, -0.218, 192.0, 0.0, 0.0, 0.0, 0.0, 0.0, 0.0, 0.0, 0.0, 0.0, 1.72969346913318E9, 0.0, 2024-10-23 19:54:29.133
137.0, 21355.70601888967, 18500.56123740211, 42297.07775081131, 17091.171990772724, 23082.534740273328, 26025.700691425885, -187500.02235174447, -187500.02235174447, 0.218, 0.926, -0.218, 192.0, 0.0, 0.0, 0.0, 0.0, 0.0, 0.0, 0.0, 0.0, 0.0, 1.7296934691371825E9, 0.0, 2024-10-23 19:54:29.137
138.0, 20978.408572484088, 20617.740823953252, 42162.20732476799, 16703.950369828985, 22922.786822651247, 25679.78509423555, -187500.02235174447, -187500.02235174447, 0.218, 0.926, -0.218, 192.0, 0.0, 0.0, 0.0, 0.0, 0.0, 0.0, 0.0, 0.0, 0.0, 1.7296934691412513E9, 0.0, 2024-10-23 19:54:29.141
139.0, 20818.92887579547, 19378.20248343974, 42247.65804382063, 15952.797645663935, 22901.798534607715, 25102.528941932793, -187500.02235174447, -187500.02235174447, 0.218, 0.926, -0.218, 192.0, 0.0, 0.0, 0.0, 0.0, 0.0, 0.0, 0.0, 0.0, 0.0, 1.7296934691452415E9, 0.0, 2024-10-23 19:54:29.145
140.0, 20784.462485845386, 16975.12173356077, 42313.215710308046, 15567.36416427662, 22914.226104524863, 24745.593934725995, -187500.02235174447, -187500.02235174447, 0.218, 0.926, -0.218, 192.0, 0.0, 0.0, 0.0, 0.0, 0.0, 0.0, 0.0, 0.0, 0.0, 1.7296934691482077E9, 0.0, 2024-10-23 19:54:29.148
141.0, 21007.130564109157, 14876.717612352088, 42350.587827037314, 15749.195605420544, 22970.083113918678, 24914.439012341383, -187500.02235174447, -187500.02235174447, 0.218, 0.926, -0.218, 192.0, 0.0, 0.0, 0.0, 0.0, 0.0, 0.0, 0.0, 0.0, 0.0, 1.7296934691522183E9, 0.0, 2024-10-23 19:54:29.152
142.0, 21351.347428720885, 18537.933354131386, 42277.184698246085, 17073.916444053226, 23070.822426178747, 25997.224568989823, -187500.02235174447, -187500.02235174447, 0.218, 0.926, -0.218, 192.0, 0.0, 0.0, 0.0, 0.0, 0.0, 0.0, 0.0, 0.0, 0.0, 1.729693469157382E9, 0.0, 2024-10-23 19:54:29.157
143.0, 20979.548511451307, 20618.612541987008, 42149.93621706202, 16663.33725015369, 22906.40299396551, 25638.993160604616, -187500.02235174447, -187500.02235174447, 0.218, 0.926, -0.218, 192.0, 0.0, 0.0, 0.0, 0.0, 0.0, 0.0, 0.0, 0.0, 0.0, 1.7296934691612883E9, 0.0, 2024-10-23 19:54:29.161
144.0, 20816.000797271827, 19352.72149476069, 42229.06139243381, 15894.973682758056, 22876.98809826232, 25054.249173909328, -187500.02235174447, -187500.02235174447, 0.218, 0.926, -0.218, 192.0, 0.0, 0.0, 0.0, 0.0, 0.0, 0.0, 0.0, 0.0, 0.0, 1.7296934691652443E9, 0.0, 2024-10-23 19:54:29.165
145.0, 20783.613119556085, 16945.5503756464, 42299.71525665704, 15509.719015326384, 22888.43219142344, 24711.216951753733, -187500.02235174447, -187500.02235174447, 0.228, 0.934, -0.222, 192.0, 7.0, 32.0, 29.0, 48.0, 249.0, 16.0, 0.0, 0.0, 0.0, 1.7296934691692543E9, 0.0, 2024-10-23 19:54:29.169
146.0, 21014.55134326832, 14870.995565771529, 42345.75985023497, 15700.938189141536, 22955.77799746728, 24890.187369607374, -187500.02235174447, -187500.02235174447, 0.228, 0.934, -0.222, 192.0, 0.0, 0.0, 0.0, 0.0, 0.0, 0.0, 0.0, 0.0, 0.0, 1.7296934691732075E9, 0.0, 2024-10-23 19:54:29.173
147.0, 21359.729332891624, 18529.864374383018, 42282.2808959819, 17022.172155639193, 23067.00027787689, 25976.23628094629, -187500.02235174447, -187500.02235174447, 0.228, 0.934, -0.222, 192.0, 0.0, 0.0, 0.0, 0.0, 0.0, 0.0, 0.0, 0.0, 0.0, 1.7296934691762276E9, 0.0, 2024-10-23 19:54:29.176
148.0, 20979.906139362593, 20572.79146585363, 42154.920656075556, 16605.356825036626, 22895.58474964914, 25616.194381260204, -187500.02235174447, -187500.02235174447, 0.228, 0.934, -0.222, 192.0, 0.0, 0.0, 0.0, 0.0, 0.0, 0.0, 0.0, 0.0, 0.0, 1.729693469180223E9, 0.0, 2024-10-23 19:54:29.180
149.0, 20817.341901939144, 19298.697328412214, 42241.198389673045, 15845.41986530064, 22875.177606961443, 25039.76524350229, -187500.02235174447, -187500.02235174447, 0.228, 0.934, -0.222, 192.0, 0.0, 0.0, 0.0, 0.0, 0.0, 0.0, 0.0, 0.0, 0.0, 1.7296934691852403E9, 0.0, 2024-10-23 19:54:29.185
150.0, 20778.695735775917, 16872.281357321903, 42310.01941085093, 15458.667630990461, 22893.68485137044, 24687.12177123091, -187500.02235174447, -187500.02235174447, 0.228, 0.934, -0.222, 192.0, 0.0, 0.0, 0.0, 0.0, 0.0, 0.0, 0.0, 0.0, 0.0, 1.7296934691892397E9, 0.0, 2024-10-23 19:54:29.189
151.0, 21005.92356990857, 14807.449556285092, 42348.3973560807, 15661.017973544358, 22947.12787236308, 24876.083418856077, -187500.02235174447, -187500.02235174447, 0.228, 0.934, -0.222, 192.0, 0.0, 0.0, 0.0, 0.0, 0.0, 0.0, 0.0, 0.0, 0.0, 1.729693469193283E9, 0.0, 2024-10-23 19:54:29.193
152.0, 21343.65842862826, 18487.150190728928, 42282.25854423744, 16985.51529473249, 23058.059580094767, 25962.914641250925, -187500.02235174447, -187500.02235174447, 0.228, 0.934, -0.222, 192.0, 0.0, 0.0, 0.0, 0.0, 0.0, 0.0, 0.0, 0.0, 0.0, 1.7296934691972673E9, 0.0, 2024-10-23 19:54:29.197
153.0, 20965.601022911196, 20523.617628051954, 42160.59799916721, 16577.79712412323, 22898.177552005953, 25605.77846834403, -187500.02235174447, -187500.02235174447, 0.228, 0.934, -0.222, 192.0, 0.0, 0.0, 0.0, 0.0, 0.0, 0.0, 0.0, 0.0, 0.0, 1.7296934692012656E9, 0.0, 2024-10-23 19:54:29.201
