%OpenBCI Raw EXG Data
%Number of channels = 8
%Sample Rate = 250 Hz
%Board = OpenBCI_GUI$BoardCytonSerial
Sample Index, EXG Channel 0, EXG Channel 1, EXG Channel 2, EXG Channel 3, EXG Channel 4, EXG Channel 5, EXG Channel 6, EXG Channel 7, Accel Channel 0, Accel Channel 1, Accel Channel 2, Other, Other, Other, Other, Other, Other, Other, Analog Channel 0, Analog Channel 1, Analog Channel 2, Timestamp, Other, Timestamp (Formatted)
0.0, 0.0, 0.0, 0.0, 0.0, 0.0, 0.0, 0.0, 0.0, -0.14200000000000002, 0.838, 0.44, 192.0, 251.0, 144.0, 26.0, 48.0, 13.0, 192.0, 0.0, 0.0, 0.0, 1.7297050483689125E9, 0.0, 2024-10-23 23:07:28.368
1.0, -46284.85247908264, -53461.93056844838, -26624.816849805935, -21390.217112328664, -13531.567279287254, -12764.09778166983, -187500.02235174447, -187500.02235174447, -0.14200000000000002, 0.838, 0.44, 192.0, 0.0, 0.0, 0.0, 0.0, 0.0, 0.0, 0.0, 0.0, 0.0, 1.729705048389958E9, 0.0, 2024-10-23 23:07:28.389
2.0, -44416.134883896695, -51901.28706708993, -45164.47128826038, -19618.26021888974, -11930.556527442519, -11235.193757437917, -187500.02235174447, -187500.02235174447, -0.14200000000000002, 0.838, 0.44, 192.0, 0.0, 0.0, 0.0, 0.0, 0.0, 0.0, 0.0, 0.0, 0.0, 1.72970504839422E9, 0.0, 2024-10-23 23:07:28.394
3.0, -44882.995770334695, -53502.11900497902, -26535.34281675134, -19047.642534690207, -13225.326028505091, -12621.225431111507, -187500.02235174447, -187500.02235174447, -0.14200000000000002, 0.838, 0.44, 192.0, 0.0, 0.0, 0.0, 0.0, 0.0, 0.0, 0.0, 0.0, 0.0, 1.7297050483974543E9, 0.0, 2024-10-23 23:07:28.397
4.0, -46948.40871672735, -55341.086428294955, -8340.151112097636, -20988.66802318907, -15099.385690615856, -14420.160880107986, -187500.02235174447, -187500.02235174447, -0.14200000000000002, 0.838, 0.44, 192.0, 0.0, 0.0, 0.0, 0.0, 0.0, 0.0, 0.0, 0.0, 0.0, 1.72970504840105E9, 0.0, 2024-10-23 23:07:28.401
5.0, -47288.80343303722, -55011.01821792343, -9961.680765352341, -21908.24114182486, -14927.210203076625, -14191.27901688564, -187500.02235174447, -187500.02235174447, -0.14200000000000002, 0.838, 0.44, 192.0, 0.0, 0.0, 0.0, 0.0, 0.0, 0.0, 0.0, 0.0, 0.0, 1.7297050484029236E9, 0.0, 2024-10-23 23:07:28.402
6.0, -46322.33635453419, -53497.40278689895, -26488.24769118401, -21437.692217551736, -13568.022974493859, -12789.914046515709, -187500.02235174447, -187500.02235174447, -0.14200000000000002, 0.838, 0.44, 192.0, 0.0, 0.0, 0.0, 0.0, 0.0, 0.0, 0.0, 0.0, 0.0, 1.7297050484059095E9, 0.0, 2024-10-23 23:07:28.405
7.0, -44455.5410093714, -51924.42112260117, -45092.90100251448, -19668.752809614278, -11964.374716803399, -11261.926443806464, -187500.02235174447, -187500.02235174447, -0.14200000000000002, 0.838, 0.44, 192.0, 0.0, 0.0, 0.0, 0.0, 0.0, 0.0, 0.0, 0.0, 0.0, 1.7297050484090097E9, 0.0, 2024-10-23 23:07:28.409
8.0, -44886.05795932507, -53493.13360370798, -26631.298855697973, -19054.839796404816, -13248.14715959396, -12633.78711149539, -187500.02235174447, -187500.02235174447, -0.154, 0.798, 0.504, 192.0, 251.0, 48.0, 24.0, 240.0, 15.0, 192.0, 0.0, 0.0, 0.0, 1.7297050484136727E9, 0.0, 2024-10-23 23:07:28.413
9.0, -46940.831475356994, -55323.29443970853, -8451.462799485063, -20977.76037189488, -15120.105757725927, -14430.889717446533, -187500.02235174447, -187500.02235174447, -0.154, 0.798, 0.504, 192.0, 0.0, 0.0, 0.0, 0.0, 0.0, 0.0, 0.0, 0.0, 0.0, 1.7297050484159267E9, 0.0, 2024-10-23 23:07:28.415
10.0, -47273.604246807605, -54987.727700201, -10125.966087098848, -21890.62796719408, -14940.95652591664, -14199.90679024539, -187500.02235174447, -187500.02235174447, -0.154, 0.798, 0.504, 192.0, 0.0, 0.0, 0.0, 0.0, 0.0, 0.0, 0.0, 0.0, 0.0, 1.7297050484188995E9, 0.0, 2024-10-23 23:07:28.418
11.0, -46306.913650860035, -53486.651597815944, -26558.566279240404, -21414.044071918022, -13598.98014056446, -12817.026712539997, -187500.02235174447, -187500.02235174447, -0.154, 0.798, 0.504, 192.0, 0.0, 0.0, 0.0, 0.0, 0.0, 0.0, 0.0, 0.0, 0.0, 1.7297050484239497E9, 0.0, 2024-10-23 23:07:28.423
12.0, -44437.257282406965, -51912.597049784315, -45086.17312743344, -19652.257222206263, -12000.517487587631, -11292.794202899242, -187500.02235174447, -187500.02235174447, -0.154, 0.798, 0.504, 192.0, 0.0, 0.0, 0.0, 0.0, 0.0, 0.0, 0.0, 0.0, 0.0, 1.7297050484279184E9, 0.0, 2024-10-23 23:07:28.427
13.0, -44867.52836317162, -53480.25899890173, -26634.60691387736, -19042.546336954398, -13277.763220997242, -12665.258367688462, -187500.02235174447, -187500.02235174447, -0.154, 0.798, 0.504, 192.0, 0.0, 0.0, 0.0, 0.0, 0.0, 0.0, 0.0, 0.0, 0.0, 1.7297050484320626E9, 0.0, 2024-10-23 23:07:28.432
14.0, -46918.256213457134, -55310.37513141336, -8500.97191345357, -20977.91683410607, -15135.975496289195, -14458.04708695973, -187500.02235174447, -187500.02235174447, -0.154, 0.798, 0.504, 192.0, 0.0, 0.0, 0.0, 0.0, 0.0, 0.0, 0.0, 0.0, 0.0, 1.7297050484359505E9, 0.0, 2024-10-23 23:07:28.435
15.0, -47247.475057539355, -54972.48381048248, -10221.609201623107, -21887.655185181524, -14947.259717853036, -14218.771662565669, -187500.02235174447, -187500.02235174447, -0.154, 0.798, 0.504, 192.0, 0.0, 0.0, 0.0, 0.0, 0.0, 0.0, 0.0, 0.0, 0.0, 1.729705048439986E9, 0.0, 2024-10-23 23:07:28.439
16.0, -46276.0235400228, -53469.597216796545, -26509.258330971996, -21396.162676353775, -13597.862553341694, -12824.894526588265, -187500.02235174447, -187500.02235174447, -0.154, 0.798, 0.504, 192.0, 0.0, 0.0, 0.0, 0.0, 0.0, 0.0, 0.0, 0.0, 0.0, 1.7297050484439428E9, 0.0, 2024-10-23 23:07:28.443
17.0, -44416.44780831907, -51893.218087341564, -45011.65241141945, -19640.27668717822, -11977.092859398468, -11282.311234749704, -187500.02235174447, -187500.02235174447, -0.154, 0.798, 0.504, 192.0, 0.0, 0.0, 0.0, 0.0, 0.0, 0.0, 0.0, 0.0, 0.0, 1.7297050484469464E9, 0.0, 2024-10-23 23:07:28.446
18.0, -44846.093040238986, -53462.62347252649, -26634.428099921715, -19032.62216241624, -13248.884767160986, -12649.299222147372, -187500.02235174447, -187500.02235174447, -0.16, 0.78, 0.546, 192.0, 251.0, 0.0, 24.0, 96.0, 17.0, 16.0, 0.0, 0.0, 0.0, 1.7297050484519713E9, 0.0, 2024-10-23 23:07:28.451
19.0, -46914.38936166637, -55304.89895402181, -8535.393599914742, -20977.805075383792, -15123.570278116498, -14454.224938657873, -187500.02235174447, -187500.02235174447, -0.16, 0.78, 0.546, 192.0, 0.0, 0.0, 0.0, 0.0, 0.0, 0.0, 0.0, 0.0, 0.0, 1.7297050484560845E9, 0.0, 2024-10-23 23:07:28.456
20.0, -47259.38853733403, -54983.99495887697, -10227.353599948121, -21896.23825505236, -14944.398694562757, -14224.270191701675, -187500.02235174447, -187500.02235174447, -0.16, 0.78, 0.546, 192.0, 0.0, 0.0, 0.0, 0.0, 0.0, 0.0, 0.0, 0.0, 0.0, 1.7297050484600153E9, 0.0, 2024-10-23 23:07:28.460
21.0, -46270.569714375706, -53467.60791154003, -26348.59399182725, -21392.38523154083, -13570.25814893939, -12808.57775313589, -187500.02235174447, -187500.02235174447, -0.16, 0.78, 0.546, 192.0, 0.0, 0.0, 0.0, 0.0, 0.0, 0.0, 0.0, 0.0, 0.0, 1.7297050484641361E9, 0.0, 2024-10-23 23:07:28.464
22.0, -44401.65095348966, -51877.66127320067, -44804.49644380766, -19632.677094063412, -11934.915117611305, -11246.906071532498, -187500.02235174447, -187500.02235174447, -0.16, 0.78, 0.546, 192.0, 0.0, 0.0, 0.0, 0.0, 0.0, 0.0, 0.0, 0.0, 0.0, 1.7297050484681687E9, 0.0, 2024-10-23 23:07:28.468
23.0, -44843.36612741544, -53470.513638319215, -26641.714768614147, -19041.607563687274, -13226.130691305481, -12632.624820783714, -187500.02235174447, -187500.02235174447, -0.16, 0.78, 0.546, 192.0, 0.0, 0.0, 0.0, 0.0, 0.0, 0.0, 0.0, 0.0, 0.0, 1.729705048470978E9, 0.0, 2024-10-23 23:07:28.470
24.0, -46932.807199097544, -55345.15444578582, -8636.647002297283, -21005.789459441836, -15123.123243227392, -14461.95864223941, -187500.02235174447, -187500.02235174447, -0.16, 0.78, 0.546, 192.0, 0.0, 0.0, 0.0, 0.0, 0.0, 0.0, 0.0, 0.0, 0.0, 1.7297050484753504E9, 0.0, 2024-10-23 23:07:28.475
25.0, -47284.28838065724, -55024.093988429784, -10250.800579881738, -21926.48016530039, -14954.546386545468, -14238.888232575446, -187500.02235174447, -187500.02235174447, -0.16, 0.78, 0.546, 192.0, 0.0, 0.0, 0.0, 0.0, 0.0, 0.0, 0.0, 0.0, 0.0, 1.7297050484799767E9, 0.0, 2024-10-23 23:07:28.479
26.0, -46306.04193282627, -53509.76330158273, -26186.52149278182, -21421.263685377085, -13581.232855466946, -12828.269640001017, -187500.02235174447, -187500.02235174447, -0.16, 0.78, 0.546, 192.0, 0.0, 0.0, 0.0, 0.0, 0.0, 0.0, 0.0, 0.0, 0.0, 1.7297050484840164E9, 0.0, 2024-10-23 23:07:28.484
27.0, -44425.8355409903, -51892.659293730176, -44710.90968977329, -19660.192091487897, -11929.304829753022, -11250.012964011785, -187500.02235174447, -187500.02235174447, -0.16, 0.78, 0.546, 192.0, 0.0, 0.0, 0.0, 0.0, 0.0, 0.0, 0.0, 0.0, 0.0, 1.7297050484880385E9, 0.0, 2024-10-23 23:07:28.488
28.0, -44839.61103434695, -53465.03746092766, -26841.382901833404, -19032.979790327525, -13201.99080729375, -12618.275000843407, -187500.02235174447, -187500.02235174447, -0.168, 0.776, 0.5640000000000001, 192.0, 250.0, 192.0, 24.0, 64.0, 17.0, 160.0, 0.0, 0.0, 0.0, 1.729705048492043E9, 0.0, 2024-10-23 23:07:28.492
29.0, -46950.64389117288, -55360.42068724879, -8800.015902521123, -20995.887636648135, -15124.66551359481, -14466.428991130471, -187500.02235174447, -187500.02235174447, -0.168, 0.776, 0.5640000000000001, 192.0, 0.0, 0.0, 0.0, 0.0, 0.0, 0.0, 0.0, 0.0, 0.0, 1.7297050484960384E9, 0.0, 2024-10-23 23:07:28.496
30.0, -47317.21250023991, -55042.86945377225, -10294.900571692058, -21923.574438521202, -14962.749476760564, -14241.682200632358, -187500.02235174447, -187500.02235174447, -0.168, 0.776, 0.5640000000000001, 192.0, 0.0, 0.0, 0.0, 0.0, 0.0, 0.0, 0.0, 0.0, 0.0, 1.7297050485014098E9, 0.0, 2024-10-23 23:07:28.501
31.0, -46336.775581452326, -53523.241403489286, -26133.63726540056, -21411.160696883286, -13602.869344099683, -12831.018904569019, -187500.02235174447, -187500.02235174447, -0.168, 0.776, 0.5640000000000001, 192.0, 0.0, 0.0, 0.0, 0.0, 0.0, 0.0, 0.0, 0.0, 0.0, 1.7297050485030365E9, 0.0, 2024-10-23 23:07:28.503
32.0, -44456.815058805354, -51889.50769776198, -44887.890802370406, -19659.074504265132, -11953.60117597594, -11249.454170400402, -187500.02235174447, -187500.02235174447, -0.168, 0.776, 0.5640000000000001, 192.0, 0.0, 0.0, 0.0, 0.0, 0.0, 0.0, 0.0, 0.0, 0.0, 1.7297050485071511E9, 0.0, 2024-10-23 23:07:28.507
33.0, -44838.582854102, -53440.942280404844, -27165.796120857733, -19006.291807447888, -13209.344531219547, -12604.752195447945, -187500.02235174447, -187500.02235174447, -0.168, 0.776, 0.5640000000000001, 192.0, 0.0, 0.0, 0.0, 0.0, 0.0, 0.0, 0.0, 0.0, 0.0, 1.7297050485120432E9, 0.0, 2024-10-23 23:07:28.512
34.0, -46956.03066158661, -55354.9668616017, -8966.20112254633, -20969.065543301767, -15149.699467384753, -14470.139380710052, -187500.02235174447, -187500.02235174447, -0.168, 0.776, 0.5640000000000001, 192.0, 0.0, 0.0, 0.0, 0.0, 0.0, 0.0, 0.0, 0.0, 0.0, 1.7297050485161052E9, 0.0, 2024-10-23 23:07:28.516
35.0, -47328.16485502301, -55050.15612246467, -10344.543796127296, -21907.05649936873, -15002.759099335564, -14259.764761896702, -187500.02235174447, -187500.02235174447, -0.168, 0.776, 0.5640000000000001, 192.0, 0.0, 0.0, 0.0, 0.0, 0.0, 0.0, 0.0, 0.0, 0.0, 1.7297050485200915E9, 0.0, 2024-10-23 23:07:28.520
36.0, -46343.6375670001, -53532.47267394933, -26120.337977449653, -21396.14032460932, -13643.3707050527, -12855.963451381142, -187500.02235174447, -187500.02235174447, -0.168, 0.776, 0.5640000000000001, 192.0, 0.0, 0.0, 0.0, 0.0, 0.0, 0.0, 0.0, 0.0, 0.0, 1.7297050485240903E9, 0.0, 2024-10-23 23:07:28.524
37.0, -44441.07943070882, -51868.608816696265, -45030.00319361725, -19633.45940511935, -11961.55839700203, -11246.101408732105, -187500.02235174447, -187500.02235174447, -0.168, 0.776, 0.5640000000000001, 192.0, 0.0, 0.0, 0.0, 0.0, 0.0, 0.0, 0.0, 0.0, 0.0, 1.729705048527234E9, 0.0, 2024-10-23 23:07:28.527
38.0, -44810.46435957722, -53413.82961438056, -27364.190204643037, -18972.205397153546, -13205.142403261949, -12593.665730198114, -187500.02235174447, -187500.02235174447, -0.164, 0.764, 0.58, 192.0, 250.0, 224.0, 23.0, 224.0, 18.0, 32.0, 0.0, 0.0, 0.0, 1.7297050485310805E9, 0.0, 2024-10-23 23:07:28.531
39.0, -46954.86837087493, -55358.05140233653, -9012.133957401986, -20961.220080997955, -15172.498246729167, -14495.39685194455, -187500.02235174447, -187500.02235174447, -0.164, 0.764, 0.58, 192.0, 0.0, 0.0, 0.0, 0.0, 0.0, 0.0, 0.0, 0.0, 0.0, 1.7297050485351152E9, 0.0, 2024-10-23 23:07:28.535
40.0, -47345.42040174251, -55068.641015129215, -10245.726733890384, -21921.920409431506, -15043.59573645541, -14308.625675276004, -187500.02235174447, -187500.02235174447, -0.164, 0.764, 0.58, 192.0, 0.0, 0.0, 0.0, 0.0, 0.0, 0.0, 0.0, 0.0, 0.0, 1.7297050485400715E9, 0.0, 2024-10-23 23:07:28.540
41.0, -46338.04963088628, -53528.31524948064, -25884.638832168443, -21389.814780928467, -13646.924632421093, -12871.855541688865, -187500.02235174447, -187500.02235174447, -0.164, 0.764, 0.58, 192.0, 0.0, 0.0, 0.0, 0.0, 0.0, 0.0, 0.0, 0.0, 0.0, 1.7297050485441809E9, 0.0, 2024-10-23 23:07:28.544
42.0, -44426.0367066904, -51834.79062733539, -45140.13023854855, -19630.55367834016, -11942.335896770466, -11229.829338768643, -187500.02235174447, -187500.02235174447, -0.164, 0.764, 0.58, 192.0, 0.0, 0.0, 0.0, 0.0, 0.0, 0.0, 0.0, 0.0, 0.0, 1.7297050485481956E9, 0.0, 2024-10-23 23:07:28.548
43.0, -44768.8677631459, -53369.19318070331, -27759.234936146135, -18948.17727186409, -13156.84028349403, -12559.62402339268, -187500.02235174447, -187500.02235174447, -0.164, 0.764, 0.58, 192.0, 0.0, 0.0, 0.0, 0.0, 0.0, 0.0, 0.0, 0.0, 0.0, 1.7297050485520792E9, 0.0, 2024-10-23 23:07:28.552
44.0, -46953.16963829633, -55367.48383849667, -9132.296935593717, -20952.257031471378, -15169.05607808305, -14503.354072970638, -187500.02235174447, -187500.02235174447, -0.164, 0.764, 0.58, 192.0, 0.0, 0.0, 0.0, 0.0, 0.0, 0.0, 0.0, 0.0, 0.0, 1.729705048556142E9, 0.0, 2024-10-23 23:07:28.556
45.0, -47382.546649282776, -55111.82458541687, -10056.60862405403, -21946.663790543535, -15064.539321010034, -14342.712085570347, -187500.02235174447, -187500.02235174447, -0.164, 0.764, 0.58, 192.0, 0.0, 0.0, 0.0, 0.0, 0.0, 0.0, 0.0, 0.0, 0.0, 1.7297050485591097E9, 0.0, 2024-10-23 23:07:28.559
46.0, -46376.539334838315, -53564.949758642884, -25567.802854514463, -21421.33074061045, -13664.358993096232, -12899.21407690216, -187500.02235174447, -187500.02235174447, -0.164, 0.764, 0.58, 192.0, 0.0, 0.0, 0.0, 0.0, 0.0, 0.0, 0.0, 0.0, 0.0, 1.72970504856312E9, 0.0, 2024-10-23 23:07:28.563
47.0, -44432.295195137885, -51822.72068532952, -45072.15858365996, -19648.010390759755, -11906.282532964056, -11203.744852989299, -187500.02235174447, -187500.02235174447, -0.164, 0.764, 0.58, 192.0, 0.0, 0.0, 0.0, 0.0, 0.0, 0.0, 0.0, 0.0, 0.0, 1.7297050485670958E9, 0.0, 2024-10-23 23:07:28.567
48.0, -44748.23710301365, -53344.15922691336, -27953.024560573645, -18931.12289084469, -13108.001721859184, -12519.815566517778, -187500.02235174447, -187500.02235174447, -0.166, 0.756, 0.584, 192.0, 250.0, 208.0, 23.0, 160.0, 18.0, 64.0, 0.0, 0.0, 0.0, 1.7297050485721345E9, 0.0, 2024-10-23 23:07:28.572
49.0, -46947.1793707823, -55364.421649506294, -9260.752410978366, -20942.4446156555, -15141.965763803217, -14484.288034950261, -187500.02235174447, -187500.02235174447, -0.166, 0.756, 0.584, 192.0, 0.0, 0.0, 0.0, 0.0, 0.0, 0.0, 0.0, 0.0, 0.0, 1.7297050485762503E9, 0.0, 2024-10-23 23:07:28.576
50.0, -47394.75070175537, -55120.63117273226, -10139.220671560844, -21951.290601645782, -15055.21864357217, -14333.816091277135, -187500.02235174447, -187500.02235174447, -0.166, 0.756, 0.584, 192.0, 0.0, 0.0, 0.0, 0.0, 0.0, 0.0, 0.0, 0.0, 0.0, 1.729705048580136E9, 0.0, 2024-10-23 23:07:28.580
51.0, -46396.9017740371, -53580.86420069507, -25572.67553480572, -21435.591153572936, -13682.03922296038, -12907.104242694884, -187500.02235174447, -187500.02235174447, -0.166, 0.756, 0.584, 192.0, 0.0, 0.0, 0.0, 0.0, 0.0, 0.0, 0.0, 0.0, 0.0, 1.729705048583272E9, 0.0, 2024-10-23 23:07:28.583
52.0, -44496.109425557785, -51873.50384873198, -45102.93693577492, -19703.107440842086, -11965.201731348245, -11247.666030843977, -187500.02235174447, -187500.02235174447, -0.166, 0.756, 0.584, 192.0, 0.0, 0.0, 0.0, 0.0, 0.0, 0.0, 0.0, 0.0, 0.0, 1.7297050485872183E9, 0.0, 2024-10-23 23:07:28.587
53.0, -44801.00957167263, -53373.84234355001, -28107.855094415558, -18977.547464078365, -13137.707190240288, -12538.009886504398, -187500.02235174447, -187500.02235174447, -0.166, 0.756, 0.584, 192.0, 0.0, 0.0, 0.0, 0.0, 0.0, 0.0, 0.0, 0.0, 0.0, 1.7297050485912695E9, 0.0, 2024-10-23 23:07:28.591
54.0, -46963.04910934557, -55364.17578031729, -9363.570435472779, -20955.63214488413, -15146.033781294082, -14471.704002821923, -187500.02235174447, -187500.02235174447, -0.166, 0.756, 0.584, 192.0, 0.0, 0.0, 0.0, 0.0, 0.0, 0.0, 0.0, 0.0, 0.0, 1.7297050485961533E9, 0.0, 2024-10-23 23:07:28.596
55.0, -47401.85855649216, -55123.91687916719, -10139.2430233053, -21962.06414247324, -15069.501408279111, -14324.562469072638, -187500.02235174447, -187500.02235174447, -0.166, 0.756, 0.584, 192.0, 0.0, 0.0, 0.0, 0.0, 0.0, 0.0, 0.0, 0.0, 0.0, 1.729705048600162E9, 0.0, 2024-10-23 23:07:28.600
56.0, -46420.68403013755, -53612.491919099324, -25472.293850456936, -21464.067276009, -13720.037188534403, -12919.12948121184, -187500.02235174447, -187500.02235174447, -0.166, 0.756, 0.584, 192.0, 0.0, 0.0, 0.0, 0.0, 0.0, 0.0, 0.0, 0.0, 0.0, 1.7297050486042595E9, 0.0, 2024-10-23 23:07:28.604
57.0, -44542.57870228037, -51912.68645676213, -45267.57988543271, -19763.546557849237, -12014.934362761303, -11271.761211366798, -187500.02235174447, -187500.02235174447, -0.166, 0.756, 0.584, 192.0, 0.0, 0.0, 0.0, 0.0, 0.0, 0.0, 0.0, 0.0, 0.0, 1.7297050486082668E9, 0.0, 2024-10-23 23:07:28.608
58.0, -44779.730710951175, -53347.28847113711, -28385.37435357265, -18970.41725759712, -13126.710131968277, -12509.243191390418, -187500.02235174447, -187500.02235174447, -0.162, 0.76, 0.588, 192.0, 250.0, 240.0, 23.0, 192.0, 18.0, 96.0, 0.0, 0.0, 0.0, 1.729705048611199E9, 0.0, 2024-10-23 23:07:28.611
59.0, -46902.78880629406, -55305.41304414428, -9389.207886363016, -20899.819838979227, -15103.65487380682, -14420.719673719368, -187500.02235174447, -187500.02235174447, -0.162, 0.76, 0.588, 192.0, 0.0, 0.0, 0.0, 0.0, 0.0, 0.0, 0.0, 0.0, 0.0, 1.72970504861526E9, 0.0, 2024-10-23 23:07:28.615
60.0, -47352.34944252366, -55081.225047257554, -9972.946044557815, -21919.707586730434, -15040.26532653157, -14297.181582114887, -187500.02235174447, -187500.02235174447, -0.162, 0.76, 0.588, 192.0, 0.0, 0.0, 0.0, 0.0, 0.0, 0.0, 0.0, 0.0, 0.0, 1.729705048619284E9, 0.0, 2024-10-23 23:07:28.619
61.0, -46399.80750081629, -53603.9535527174, -25263.75207468892, -21457.89819453933, -13716.19268848809, -12928.450158649703, -187500.02235174447, -187500.02235174447, -0.162, 0.76, 0.588, 192.0, 0.0, 0.0, 0.0, 0.0, 0.0, 0.0, 0.0, 0.0, 0.0, 1.7297050486232235E9, 0.0, 2024-10-23 23:07:28.623
62.0, -44554.58158905287, -51924.64464004572, -45394.671904405586, -19803.846753102156, -12043.611650897463, -11311.815537430708, -187500.02235174447, -187500.02235174447, -0.162, 0.76, 0.588, 192.0, 0.0, 0.0, 0.0, 0.0, 0.0, 0.0, 0.0, 0.0, 0.0, 1.7297050486282003E9, 0.0, 2024-10-23 23:07:28.628
63.0, -44750.561684437, -53311.950363153264, -28678.875110015288, -18963.75643774944, -13099.01632058815, -12508.57263905676, -187500.02235174447, -187500.02235174447, -0.162, 0.76, 0.588, 192.0, 0.0, 0.0, 0.0, 0.0, 0.0, 0.0, 0.0, 0.0, 0.0, 1.7297050486322193E9, 0.0, 2024-10-23 23:07:28.632
64.0, -46848.27290156757, -55265.157552380275, -9379.820153691788, -20862.760646672326, -15051.530605737044, -14410.70609220339, -187500.02235174447, -187500.02235174447, -0.162, 0.76, 0.588, 192.0, 0.0, 0.0, 0.0, 0.0, 0.0, 0.0, 0.0, 0.0, 0.0, 1.7297050486362076E9, 0.0, 2024-10-23 23:07:28.636
65.0, -47322.08518053117, -55077.46995418906, -9742.007820845583, -21915.796031450755, -15025.177899024236, -14323.690751038881, -187500.02235174447, -187500.02235174447, -0.162, 0.76, 0.588, 192.0, 0.0, 0.0, 0.0, 0.0, 0.0, 0.0, 0.0, 0.0, 0.0, 1.7297050486391802E9, 0.0, 2024-10-23 23:07:28.639
66.0, -46403.83081481825, -53636.117712988584, -24993.85476039109, -21492.67750891179, -13744.445293479597, -12991.750298947132, -187500.02235174447, -187500.02235174447, -0.162, 0.76, 0.588, 192.0, 0.0, 0.0, 0.0, 0.0, 0.0, 0.0, 0.0, 0.0, 0.0, 1.7297050486431973E9, 0.0, 2024-10-23 23:07:28.643
67.0, -44585.605810356836, -51962.32968119737, -45459.04492843687, -19877.339288871204, -12078.48037224774, -11374.445125394479, -187500.02235174447, -187500.02235174447, -0.162, 0.76, 0.588, 192.0, 0.0, 0.0, 0.0, 0.0, 0.0, 0.0, 0.0, 0.0, 0.0, 1.729705048647338E9, 0.0, 2024-10-23 23:07:28.647
68.0, -44724.81247482449, -53291.78908965458, -28985.943375342296, -18966.103370917248, -13066.91921555033, -12506.292761122319, -187500.02235174447, -187500.02235174447, -0.158, 0.764, 0.584, 192.0, 251.0, 16.0, 23.0, 224.0, 18.0, 64.0, 0.0, 0.0, 0.0, 1.7297050486513689E9, 0.0, 2024-10-23 23:07:28.651
69.0, -46789.80073807249, -55225.97494435012, -9451.6810121156, -20813.40799491501, -14989.81743929594, -14378.698394143392, -187500.02235174447, -187500.02235174447, -0.158, 0.764, 0.584, 192.0, 0.0, 0.0, 0.0, 0.0, 0.0, 0.0, 0.0, 0.0, 0.0, 1.7297050486562128E9, 0.0, 2024-10-23 23:07:28.656
70.0, -47296.02304649628, -55074.83244834333, -9577.811906076897, -21894.070135840197, -14987.336395661403, -14316.247620135264, -187500.02235174447, -187500.02235174447, -0.158, 0.764, 0.584, 192.0, 0.0, 0.0, 0.0, 0.0, 0.0, 0.0, 0.0, 0.0, 0.0, 1.729705048660207E9, 0.0, 2024-10-23 23:07:28.660
71.0, -46399.248707204904, -53664.035041813266, -24720.51527744714, -21509.620131208914, -13737.136273042712, -13013.05151141304, -187500.02235174447, -187500.02235174447, -0.158, 0.764, 0.584, 192.0, 0.0, 0.0, 0.0, 0.0, 0.0, 0.0, 0.0, 0.0, 0.0, 1.7297050486642528E9, 0.0, 2024-10-23 23:07:28.664
72.0, -44605.945897811165, -52004.95445787364, -45438.5260270269, -19935.8561558552, -12088.002215385703, -11411.057282812273, -187500.02235174447, -187500.02235174447, -0.158, 0.764, 0.584, 192.0, 0.0, 0.0, 0.0, 0.0, 0.0, 0.0, 0.0, 0.0, 0.0, 1.7297050486672733E9, 0.0, 2024-10-23 23:07:28.667
73.0, -44715.1565212198, -53294.1807263113, -29177.117845668537, -18984.878836259704, -13033.838633756475, -12496.94973194, -187500.02235174447, -187500.02235174447, -0.158, 0.764, 0.584, 192.0, 0.0, 0.0, 0.0, 0.0, 0.0, 0.0, 0.0, 0.0, 0.0, 1.7297050486712554E9, 0.0, 2024-10-23 23:07:28.671
74.0, -46764.65502556026, -55214.15087153326, -9540.439789347623, -20806.814230300693, -14946.477406797101, -14352.166873474942, -187500.02235174447, -187500.02235174447, -0.158, 0.764, 0.584, 192.0, 0.0, 0.0, 0.0, 0.0, 0.0, 0.0, 0.0, 0.0, 0.0, 1.7297050486753051E9, 0.0, 2024-10-23 23:07:28.675
75.0, -47286.94823824742, -55084.66721590367, -9601.840031366353, -21905.42482202349, -14972.181912920703, -14305.898762452456, -187500.02235174447, -187500.02235174447, -0.158, 0.764, 0.584, 192.0, 0.0, 0.0, 0.0, 0.0, 0.0, 0.0, 0.0, 0.0, 0.0, 1.7297050486792457E9, 0.0, 2024-10-23 23:07:28.679
76.0, -46414.53730041234, -53702.70355972095, -24695.436620168286, -21547.014599682643, -13756.247014552, -13029.323581376504, -187500.02235174447, -187500.02235174447, -0.158, 0.764, 0.584, 192.0, 0.0, 0.0, 0.0, 0.0, 0.0, 0.0, 0.0, 0.0, 0.0, 1.7297050486842716E9, 0.0, 2024-10-23 23:07:28.684
77.0, -44639.47351449412, -52048.003917694565, -45560.007758141495, -19995.982348439975, -12119.696989023327, -11432.246736555904, -187500.02235174447, -187500.02235174447, -0.158, 0.764, 0.584, 192.0, 0.0, 0.0, 0.0, 0.0, 0.0, 0.0, 0.0, 0.0, 0.0, 1.72970504868836E9, 0.0, 2024-10-23 23:07:28.688
78.0, -44715.46944564217, -53296.84058390148, -29442.634218053132, -18999.251007944466, -13035.045627957063, -12479.649481731592, -187500.02235174447, -187500.02235174447, -0.166, 0.772, 0.584, 192.0, 250.0, 208.0, 24.0, 32.0, 18.0, 64.0, 0.0, 0.0, 0.0, 1.7297050486933353E9, 0.0, 2024-10-23 23:07:28.693
79.0, -46754.08265043291, -55212.4297872102, -9653.494912802567, -20798.700547063418, -14957.094485413372, -14331.603268576058, -187500.02235174447, -187500.02235174447, -0.166, 0.772, 0.584, 192.0, 0.0, 0.0, 0.0, 0.0, 0.0, 0.0, 0.0, 0.0, 0.0, 1.7297050486972616E9, 0.0, 2024-10-23 23:07:28.697
80.0, -47276.3088078867, -55084.39899497021, -9597.213220264104, -21906.832981924177, -14995.763003321053, -14292.68888147937, -187500.02235174447, -187500.02235174447, -0.166, 0.772, 0.584, 192.0, 0.0, 0.0, 0.0, 0.0, 0.0, 0.0, 0.0, 0.0, 0.0, 1.7297050487003157E9, 0.0, 2024-10-23 23:07:28.700
81.0, -46395.91829728107, -53694.12048985011, -24603.950930112715, -21538.185660622796, -13771.848532181804, -13010.302246845038, -187500.02235174447, -187500.02235174447, -0.166, 0.772, 0.584, 192.0, 0.0, 0.0, 0.0, 0.0, 0.0, 0.0, 0.0, 0.0, 0.0, 1.7297050487033665E9, 0.0, 2024-10-23 23:07:28.703
82.0, -44622.84381661938, -52026.52389127301, -45586.271057876475, -19989.09801114774, -12130.314067639598, -11409.693826400498, -187500.02235174447, -187500.02235174447, -0.166, 0.772, 0.584, 192.0, 0.0, 0.0, 0.0, 0.0, 0.0, 0.0, 0.0, 0.0, 0.0, 1.729705048707322E9, 0.0, 2024-10-23 23:07:28.707
83.0, -44684.60168654939, -53264.51996141911, -29618.67655738313, -18979.00032746796, -13040.879433259897, -12452.13448430711, -187500.02235174447, -187500.02235174447, -0.166, 0.772, 0.584, 192.0, 0.0, 0.0, 0.0, 0.0, 0.0, 0.0, 0.0, 0.0, 0.0, 1.7297050487123325E9, 0.0, 2024-10-23 23:07:28.712
84.0, -46738.6822985032, -55202.19268824968, -9692.833983043907, -20782.584939311142, -14981.189665936194, -14330.12805344201, -187500.02235174447, -187500.02235174447, -0.166, 0.772, 0.584, 192.0, 0.0, 0.0, 0.0, 0.0, 0.0, 0.0, 0.0, 0.0, 0.0, 1.7297050487163315E9, 0.0, 2024-10-23 23:07:28.716
85.0, -47273.13486017405, -55087.014149071474, -9497.479736504523, -21895.880627141076, -15024.127367034838, -14308.491564809272, -187500.02235174447, -187500.02235174447, -0.166, 0.772, 0.584, 192.0, 0.0, 0.0, 0.0, 0.0, 0.0, 0.0, 0.0, 0.0, 0.0, 1.72970504872035E9, 0.0, 2024-10-23 23:07:28.720
86.0, -46375.55585808228, -53678.071937331195, -24399.521875324474, -21504.859209639933, -13775.111886872279, -13017.275991115093, -187500.02235174447, -187500.02235174447, -0.166, 0.772, 0.584, 192.0, 0.0, 0.0, 0.0, 0.0, 0.0, 0.0, 0.0, 0.0, 0.0, 1.7297050487233577E9, 0.0, 2024-10-23 23:07:28.723
87.0, -44577.76034805302, -51975.7183761261, -45501.51324290195, -19935.99026632193, -12098.574590513063, -11391.164230247048, -187500.02235174447, -187500.02235174447, -0.166, 0.772, 0.584, 192.0, 0.0, 0.0, 0.0, 0.0, 0.0, 0.0, 0.0, 0.0, 0.0, 1.7297050487283573E9, 0.0, 2024-10-23 23:07:28.728
88.0, -44640.88167439481, -53231.90876625881, -29716.197218441634, -18940.17534734909, -13023.690941773766, -12459.108228577164, -187500.02235174447, -187500.02235174447, -0.168, 0.768, 0.5740000000000001, 192.0, 250.0, 192.0, 24.0, 0.0, 17.0, 240.0, 0.0, 0.0, 0.0, 1.7297050487323935E9, 0.0, 2024-10-23 23:07:28.732
89.0, -46746.036022429, -55231.00408685256, -9712.145890253292, -20796.577131340164, -15021.087529788916, -14397.85383914159, -187500.02235174447, -187500.02235174447, -0.168, 0.768, 0.5740000000000001, 192.0, 0.0, 0.0, 0.0, 0.0, 0.0, 0.0, 0.0, 0.0, 0.0, 1.729705048736432E9, 0.0, 2024-10-23 23:07:28.736
90.0, -47297.386502908055, -55129.28129783646, -9347.588938187235, -21920.15462161954, -15076.788076971541, -14390.768336149256, -187500.02235174447, -187500.02235174447, -0.168, 0.768, 0.5740000000000001, 192.0, 0.0, 0.0, 0.0, 0.0, 0.0, 0.0, 0.0, 0.0, 0.0, 1.7297050487393944E9, 0.0, 2024-10-23 23:07:28.739
91.0, -46380.78616628482, -53695.88627766207, -24103.204799080468, -21510.581256220492, -13795.027291181957, -13066.338070194492, -187500.02235174447, -187500.02235174447, -0.168, 0.768, 0.5740000000000001, 192.0, 0.0, 0.0, 0.0, 0.0, 0.0, 0.0, 0.0, 0.0, 0.0, 1.7297050487434082E9, 0.0, 2024-10-23 23:07:28.743
92.0, -44532.07338238638, -51926.499834835515, -45503.860176069764, -19911.17982997654, -12038.783674095115, -11360.184712431994, -187500.02235174447, -187500.02235174447, -0.168, 0.768, 0.5740000000000001, 192.0, 0.0, 0.0, 0.0, 0.0, 0.0, 0.0, 0.0, 0.0, 0.0, 1.7297050487474427E9, 0.0, 2024-10-23 23:07:28.747
93.0, -44582.74478706656, -53190.1557076163, -30159.901697623933, -18912.101556313224, -12972.796019649031, -12426.117053761132, -187500.02235174447, -187500.02235174447, -0.168, 0.768, 0.5740000000000001, 192.0, 0.0, 0.0, 0.0, 0.0, 0.0, 0.0, 0.0, 0.0, 0.0, 1.729705048751392E9, 0.0, 2024-10-23 23:07:28.751
94.0, -46753.94853996617, -55276.66870077476, -9834.23111846818, -20806.478954133865, -15045.652096945298, -14437.036447171742, -187500.02235174447, -187500.02235174447, -0.168, 0.768, 0.5740000000000001, 192.0, 0.0, 0.0, 0.0, 0.0, 0.0, 0.0, 0.0, 0.0, 0.0, 1.729705048756442E9, 0.0, 2024-10-23 23:07:28.756
95.0, -47366.6322072306, -55228.90302287377, -8887.143002407909, -21978.671488603533, -15140.199975991247, -14473.961529011909, -187500.02235174447, -187500.02235174447, -0.168, 0.768, 0.5740000000000001, 192.0, 0.0, 0.0, 0.0, 0.0, 0.0, 0.0, 0.0, 0.0, 0.0, 1.7297050487604516E9, 0.0, 2024-10-23 23:07:28.760
96.0, -46429.28945175284, -53753.30790916776, -23517.052652484497, -21561.54323357859, -13814.763881535993, -13108.605218959477, -187500.02235174447, -187500.02235174447, -0.168, 0.768, 0.5740000000000001, 192.0, 0.0, 0.0, 0.0, 0.0, 0.0, 0.0, 0.0, 0.0, 0.0, 1.7297050487645583E9, 0.0, 2024-10-23 23:07:28.764
97.0, -44501.47384422706, -51869.21231379656, -45495.47827189902, -19896.002995491388, -11958.65267022284, -11294.09060407765, -187500.02235174447, -187500.02235174447, -0.168, 0.768, 0.5740000000000001, 192.0, 0.0, 0.0, 0.0, 0.0, 0.0, 0.0, 0.0, 0.0, 0.0, 1.729705048767445E9, 0.0, 2024-10-23 23:07:28.767
98.0, -44527.938309662146, -53126.27442196303, -30633.49045914298, -18858.479721364944, -12885.110126150863, -12355.172616859987, -187500.02235174447, -187500.02235174447, -0.168, 0.766, 0.5720000000000001, 192.0, 250.0, 192.0, 23.0, 240.0, 17.0, 224.0, 0.0, 0.0, 0.0, 1.729705048771518E9, 0.0, 2024-10-23 23:07:28.771
99.0, -46789.59957237239, -55316.70067509421, -10103.949618810371, -20821.432271174464, -15065.12046636587, -14471.502837121825, -187500.02235174447, -187500.02235174447, -0.168, 0.766, 0.5720000000000001, 192.0, 0.0, 0.0, 0.0, 0.0, 0.0, 0.0, 0.0, 0.0, 0.0, 1.7297050487754402E9, 0.0, 2024-10-23 23:07:28.775
100.0, -47437.263719709365, -55290.07974744794, -8968.168076058397, -22026.772442671354, -15194.022976639626, -14535.093550097174, -187500.02235174447, -187500.02235174447, -0.168, 0.766, 0.5720000000000001, 192.0, 0.0, 0.0, 0.0, 0.0, 0.0, 0.0, 0.0, 0.0, 0.0, 1.7297050487794914E9, 0.0, 2024-10-23 23:07:28.779
101.0, -46466.90743767112, -53768.37298493063, -23470.762189717556, -21572.22736742823, -13836.668591102194, -13130.062893636572, -187500.02235174447, -187500.02235174447, -0.168, 0.766, 0.5720000000000001, 192.0, 0.0, 0.0, 0.0, 0.0, 0.0, 0.0, 0.0, 0.0, 0.0, 1.7297050487835405E9, 0.0, 2024-10-23 23:07:28.783
102.0, -44491.572021433356, -51825.51465338644, -45469.84082100878, -19868.577405044725, -11934.17751004428, -11259.288937960737, -187500.02235174447, -187500.02235174447, -0.168, 0.766, 0.5720000000000001, 192.0, 0.0, 0.0, 0.0, 0.0, 0.0, 0.0, 0.0, 0.0, 0.0, 1.729705048788597E9, 0.0, 2024-10-23 23:07:28.788
103.0, -44515.756608934, -53097.351264637866, -30802.4696472251, -18843.906383980084, -12884.797201728488, -12333.58083171616, -187500.02235174447, -187500.02235174447, -0.168, 0.766, 0.5720000000000001, 192.0, 0.0, 0.0, 0.0, 0.0, 0.0, 0.0, 0.0, 0.0, 0.0, 1.7297050487925909E9, 0.0, 2024-10-23 23:07:28.792
104.0, -46818.008639575084, -55335.85612009241, -10272.884103403581, -20848.857861621127, -15108.259333164613, -14496.29092172276, -187500.02235174447, -187500.02235174447, -0.168, 0.766, 0.5720000000000001, 192.0, 0.0, 0.0, 0.0, 0.0, 0.0, 0.0, 0.0, 0.0, 0.0, 1.7297050487954907E9, 0.0, 2024-10-23 23:07:28.795
105.0, -47466.92448460156, -55311.917401780775, -9127.33484832464, -22050.46529179398, -15232.043293958104, -14555.143064873584, -187500.02235174447, -187500.02235174447, -0.168, 0.766, 0.5720000000000001, 192.0, 0.0, 0.0, 0.0, 0.0, 0.0, 0.0, 0.0, 0.0, 0.0, 1.7297050487997856E9, 0.0, 2024-10-23 23:07:28.799
106.0, -46470.1707923616, -53768.328281441725, -23426.01399731803, -21559.93390797781, -13847.240966229554, -13120.719864454255, -187500.02235174447, -187500.02235174447, -0.168, 0.766, 0.5720000000000001, 192.0, 0.0, 0.0, 0.0, 0.0, 0.0, 0.0, 0.0, 0.0, 0.0, 1.729705048803498E9, 0.0, 2024-10-23 23:07:28.803
107.0, -44461.33011118533, -51775.78202197338, -45435.12856186969, -19822.175183555508, -11895.64310260333, -11199.252152353782, -187500.02235174447, -187500.02235174447, -0.168, 0.766, 0.5720000000000001, 192.0, 0.0, 0.0, 0.0, 0.0, 0.0, 0.0, 0.0, 0.0, 0.0, 1.729705048807492E9, 0.0, 2024-10-23 23:07:28.807
108.0, -44482.38545446223, -53059.1744851082, -30976.612088276397, -18797.839438657695, -12848.20739605515, -12282.551799124694, -187500.02235174447, -187500.02235174447, -0.168, 0.766, 0.5720000000000001, 192.0, 0.0, 0.0, 0.0, 0.0, 0.0, 0.0, 0.0, 0.0, 0.0, 1.729705048811468E9, 0.0, 2024-10-23 23:07:28.811
109.0, -46834.571282216464, -55356.039745335554, -10409.788538192337, -20844.923954596994, -15123.771443816597, -14503.175259014995, -187500.02235174447, -187500.02235174447, -0.166, 0.762, 0.588, 192.0, 250.0, 208.0, 23.0, 208.0, 18.0, 96.0, 0.0, 0.0, 0.0, 1.729705048816537E9, 0.0, 2024-10-23 23:07:28.816
110.0, -47491.958438391506, -55335.78906485905, -9188.310407198716, -22061.708219254997, -15254.462093646776, -14571.370431348138, -187500.02235174447, -187500.02235174447, -0.166, 0.762, 0.588, 192.0, 0.0, 0.0, 0.0, 0.0, 0.0, 0.0, 0.0, 0.0, 0.0, 1.7297050488195412E9, 0.0, 2024-10-23 23:07:28.819
111.0, -46478.262123854416, -53776.93370305702, -23394.96742426961, -21554.278916630617, -13856.248719245044, -13129.772320958653, -187500.02235174447, -187500.02235174447, -0.166, 0.762, 0.588, 192.0, 0.0, 0.0, 0.0, 0.0, 0.0, 0.0, 0.0, 0.0, 0.0, 1.7297050488235128E9, 0.0, 2024-10-23 23:07:28.823
112.0, -44467.454489166084, -51775.89378069565, -45421.0693146073, -19825.25972429034, -11900.78400382805, -11209.668065269956, -187500.02235174447, -187500.02235174447, -0.166, 0.762, 0.588, 192.0, 0.0, 0.0, 0.0, 0.0, 0.0, 0.0, 0.0, 0.0, 0.0, 1.7297050488274925E9, 0.0, 2024-10-23 23:07:28.827
113.0, -44471.96954154605, -53046.16576983521, -31167.853613836007, -18791.692708932485, -12842.932384363698, -12285.368118926064, -187500.02235174447, -187500.02235174447, -0.166, 0.762, 0.588, 192.0, 0.0, 0.0, 0.0, 0.0, 0.0, 0.0, 0.0, 0.0, 0.0, 1.7297050488326588E9, 0.0, 2024-10-23 23:07:28.832
114.0, -46812.17483427225, -55340.88526259486, -10481.001196026946, -20824.248590975832, -15113.668455322797, -14508.137346284075, -187500.02235174447, -187500.02235174447, -0.166, 0.762, 0.588, 192.0, 0.0, 0.0, 0.0, 0.0, 0.0, 0.0, 0.0, 0.0, 0.0, 1.7297050488355181E9, 0.0, 2024-10-23 23:07:28.835
115.0, -47491.55610699131, -55346.07086730849, -8978.852209908035, -22058.98130643145, -15266.666146119374, -14607.22262945445, -187500.02235174447, -187500.02235174447, -0.166, 0.762, 0.588, 192.0, 0.0, 0.0, 0.0, 0.0, 0.0, 0.0, 0.0, 0.0, 0.0, 1.7297050488396504E9, 0.0, 2024-10-23 23:07:28.839
116.0, -46491.78492924988, -53798.391377734115, -23023.101451766666, -21573.590823840004, -13871.358498496831, -13173.93936800234, -187500.02235174447, -187500.02235174447, -0.166, 0.762, 0.588, 192.0, 0.0, 0.0, 0.0, 0.0, 0.0, 0.0, 0.0, 0.0, 0.0, 1.7297050488445234E9, 0.0, 2024-10-23 23:07:28.844
117.0, -44504.33486751734, -51803.945219987065, -45385.731206623466, -19882.07785869573, -11918.710102881207, -11259.110124005096, -187500.02235174447, -187500.02235174447, -0.166, 0.762, 0.588, 192.0, 0.0, 0.0, 0.0, 0.0, 0.0, 0.0, 0.0, 0.0, 0.0, 1.7297050488486383E9, 0.0, 2024-10-23 23:07:28.848
118.0, -44436.02793646192, -53016.102673542824, -31504.672051033027, -18789.81516239824, -12803.660369355723, -12278.014395000268, -187500.02235174447, -187500.02235174447, -0.166, 0.762, 0.588, 192.0, 0.0, 0.0, 0.0, 0.0, 0.0, 0.0, 0.0, 0.0, 0.0, 1.7297050488525944E9, 0.0, 2024-10-23 23:07:28.852
119.0, -46738.749353736566, -55292.73960503812, -10608.62965686675, -20772.101971161603, -15061.432428530745, -14474.140342967552, -187500.02235174447, -187500.02235174447, -0.17200000000000001, 0.762, 0.584, 192.0, 250.0, 160.0, 23.0, 208.0, 18.0, 64.0, 0.0, 0.0, 0.0, 1.7297050488555708E9, 0.0, 2024-10-23 23:07:28.855
120.0, -47448.5513506593, -55322.15450074131, -8910.455871874794, -22023.620846703154, -15249.388247655423, -14591.397594380092, -187500.02235174447, -187500.02235174447, -0.17200000000000001, 0.762, 0.584, 192.0, 0.0, 0.0, 0.0, 0.0, 0.0, 0.0, 0.0, 0.0, 0.0, 1.7297050488596654E9, 0.0, 2024-10-23 23:07:28.859
121.0, -46490.57793504929, -53812.718845929965, -22872.741266815814, -21574.730762807223, -13884.881303892293, -13187.70804258681, -187500.02235174447, -187500.02235174447, -0.17200000000000001, 0.762, 0.584, 192.0, 0.0, 0.0, 0.0, 0.0, 0.0, 0.0, 0.0, 0.0, 0.0, 1.7297050488635824E9, 0.0, 2024-10-23 23:07:28.863
122.0, -44540.6117487683, -51843.19488325058, -45342.27941540234, -19928.86005984069, -11956.618661477407, -11296.214019800904, -187500.02235174447, -187500.02235174447, -0.17200000000000001, 0.762, 0.584, 192.0, 0.0, 0.0, 0.0, 0.0, 0.0, 0.0, 0.0, 0.0, 0.0, 1.7297050488675904E9, 0.0, 2024-10-23 23:07:28.867
123.0, -44433.50218933847, -53011.67702814067, -31704.027259829913, -18802.890932904593, -12811.215258981618, -12277.343842666609, -187500.02235174447, -187500.02235174447, -0.17200000000000001, 0.762, 0.584, 192.0, 0.0, 0.0, 0.0, 0.0, 0.0, 0.0, 0.0, 0.0, 0.0, 1.7297050488725965E9, 0.0, 2024-10-23 23:07:28.872
124.0, -46735.68716474619, -55288.87275324736, -10745.467036422138, -20766.134055392034, -15071.64717574682, -14472.329851666673, -187500.02235174447, -187500.02235174447, -0.17200000000000001, 0.762, 0.584, 192.0, 0.0, 0.0, 0.0, 0.0, 0.0, 0.0, 0.0, 0.0, 0.0, 1.7297050488755984E9, 0.0, 2024-10-23 23:07:28.875
125.0, -47467.28211251285, -55336.817245103986, -8891.90392397689, -22031.198088073503, -15268.722506609263, -14607.200277709995, -187500.02235174447, -187500.02235174447, -0.17200000000000001, 0.762, 0.584, 192.0, 0.0, 0.0, 0.0, 0.0, 0.0, 0.0, 0.0, 0.0, 0.0, 1.7297050488797143E9, 0.0, 2024-10-23 23:07:28.879
126.0, -46530.54285413538, -53843.698363745025, -22722.917523731892, -21598.445963674305, -13930.14358641429, -13226.063636072116, -187500.02235174447, -187500.02235174447, -0.17200000000000001, 0.762, 0.584, 192.0, 0.0, 0.0, 0.0, 0.0, 0.0, 0.0, 0.0, 0.0, 0.0, 1.7297050488836207E9, 0.0, 2024-10-23 23:07:28.883
127.0, -44590.76906332601, -51874.86730514375, -45196.65780027602, -19971.931871406065, -12014.308513916554, -11336.29069760927, -187500.02235174447, -187500.02235174447, -0.17200000000000001, 0.762, 0.584, 192.0, 0.0, 0.0, 0.0, 0.0, 0.0, 0.0, 0.0, 0.0, 0.0, 1.729705048887591E9, 0.0, 2024-10-23 23:07:28.887
128.0, -44442.08525920931, -53013.01813280799, -31726.602521729772, -18811.429299286523, -12829.00724756804, -12275.555703110183, -187500.02235174447, -187500.02235174447, -0.17200000000000001, 0.762, 0.584, 192.0, 0.0, 0.0, 0.0, 0.0, 0.0, 0.0, 0.0, 0.0, 0.0, 1.7297050488916173E9, 0.0, 2024-10-23 23:07:28.891
129.0, -46724.73480996309, -55267.9962239261, -10843.501787603116, -20747.872680172048, -15062.192387842226, -14440.277450117763, -187500.02235174447, -187500.02235174447, -0.182, 0.76, 0.578, 192.0, 250.0, 80.0, 23.0, 192.0, 18.0, 16.0, 0.0, 0.0, 0.0, 1.7297050488956363E9, 0.0, 2024-10-23 23:07:28.895
130.0, -47462.2529700104, -55317.41593091678, -9081.983158824822, -22014.657797176576, -15260.11708499397, -14570.476361569925, -187500.02235174447, -187500.02235174447, -0.182, 0.76, 0.578, 192.0, 0.0, 0.0, 0.0, 0.0, 0.0, 0.0, 0.0, 0.0, 0.0, 1.729705048900702E9, 0.0, 2024-10-23 23:07:28.900
131.0, -46528.039458756386, -53834.44474154052, -22800.70159443636, -21578.59761459799, -13922.789862488493, -13193.98888277875, -187500.02235174447, -187500.02235174447, -0.182, 0.76, 0.578, 192.0, 0.0, 0.0, 0.0, 0.0, 0.0, 0.0, 0.0, 0.0, 0.0, 1.7297050489046052E9, 0.0, 2024-10-23 23:07:28.904
132.0, -44617.30058399446, -51892.9498664081, -45074.66197903895, -19974.14469410714, -12017.661275584851, -11327.10413063814, -187500.02235174447, -187500.02235174447, -0.182, 0.76, 0.578, 192.0, 0.0, 0.0, 0.0, 0.0, 0.0, 0.0, 0.0, 0.0, 0.0, 1.7297050489076333E9, 0.0, 2024-10-23 23:07:28.907
133.0, -44456.211561705066, -53016.92968808767, -31668.35387567924, -18804.3884997831, -12815.752663106045, -12256.266147645254, -187500.02235174447, -187500.02235174447, -0.182, 0.76, 0.578, 192.0, 0.0, 0.0, 0.0, 0.0, 0.0, 0.0, 0.0, 0.0, 0.0, 1.729705048911694E9, 0.0, 2024-10-23 23:07:28.911
134.0, -46720.04094362747, -55254.115790619355, -10809.817708708968, -20722.77167114874, -15030.92229734925, -14412.002493381799, -187500.02235174447, -187500.02235174447, -0.182, 0.76, 0.578, 192.0, 0.0, 0.0, 0.0, 0.0, 0.0, 0.0, 0.0, 0.0, 0.0, 1.7297050489156594E9, 0.0, 2024-10-23 23:07:28.915
135.0, -47442.33756570072, -55293.65602656079, -9019.442977838871, -21978.15739848106, -15216.486479817211, -14545.665925224535, -187500.02235174447, -187500.02235174447, -0.182, 0.76, 0.578, 192.0, 0.0, 0.0, 0.0, 0.0, 0.0, 0.0, 0.0, 0.0, 0.0, 1.7297050489197366E9, 0.0, 2024-10-23 23:07:28.919
136.0, -46517.24356618447, -53830.51083451639, -22653.80592987608, -21551.149672406875, -13900.527525011006, -13201.767289849198, -187500.02235174447, -187500.02235174447, -0.182, 0.76, 0.578, 192.0, 0.0, 0.0, 0.0, 0.0, 0.0, 0.0, 0.0, 0.0, 0.0, 1.7297050489236438E9, 0.0, 2024-10-23 23:07:28.923
137.0, -44639.54056972749, -51916.86623297528, -45116.16916849246, -19995.11063040622, -12028.1889472233, -11373.282834682803, -187500.02235174447, -187500.02235174447, -0.182, 0.76, 0.578, 192.0, 0.0, 0.0, 0.0, 0.0, 0.0, 0.0, 0.0, 0.0, 0.0, 1.729705048927732E9, 0.0, 2024-10-23 23:07:28.927
138.0, -44438.26311090745, -53012.6605048967, -31971.1976613042, -18810.021139385837, -12803.928590289188, -12278.796706056202, -187500.02235174447, -187500.02235174447, -0.182, 0.76, 0.578, 192.0, 0.0, 0.0, 0.0, 0.0, 0.0, 0.0, 0.0, 0.0, 0.0, 1.729705048932797E9, 0.0, 2024-10-23 23:07:28.932
139.0, -46680.7689286195, -55244.28102305902, -10910.422910502304, -20705.270255240233, -15011.275113973035, -14425.771167966268, -187500.02235174447, -187500.02235174447, -0.17200000000000001, 0.752, 0.586, 192.0, 250.0, 160.0, 23.0, 128.0, 18.0, 80.0, 0.0, 0.0, 0.0, 1.7297050489357283E9, 0.0, 2024-10-23 23:07:28.935
140.0, -47439.32008019926, -55321.439244918736, -8843.914728631345, -21989.69089862, -15233.093825947504, -14592.135201947118, -187500.02235174447, -187500.02235174447, -0.17200000000000001, 0.752, 0.586, 192.0, 0.0, 0.0, 0.0, 0.0, 0.0, 0.0, 0.0, 0.0, 0.0, 1.729705048939759E9, 0.0, 2024-10-23 23:07:28.939
141.0, -46555.75562188097, -53890.3688061677, -22336.768786522007, -21610.56060916908, -13949.209624434665, -13277.517351808234, -187500.02235174447, -187500.02235174447, -0.17200000000000001, 0.752, 0.586, 192.0, 0.0, 0.0, 0.0, 0.0, 0.0, 0.0, 0.0, 0.0, 0.0, 1.7297050489436848E9, 0.0, 2024-10-23 23:07:28.943
142.0, -44692.55890757548, -51960.273320707485, -45040.01677513323, -20080.896625625686, -12076.893398391414, -11435.510091246379, -187500.02235174447, -187500.02235174447, -0.17200000000000001, 0.752, 0.586, 192.0, 0.0, 0.0, 0.0, 0.0, 0.0, 0.0, 0.0, 0.0, 0.0, 1.7297050489476783E9, 0.0, 2024-10-23 23:07:28.947
143.0, -44436.40791611766, -52991.62751336426, -32280.322287121093, -18833.445767574998, -12794.518505873502, -12281.52361887975, -187500.02235174447, -187500.02235174447, -0.17200000000000001, 0.752, 0.586, 192.0, 0.0, 0.0, 0.0, 0.0, 0.0, 0.0, 0.0, 0.0, 0.0, 1.729705048951733E9, 0.0, 2024-10-23 23:07:28.951
144.0, -46668.00608253552, -55217.6824471572, -11119.67994209289, -20689.24405446578, -15000.367462678847, -14422.105481875597, -187500.02235174447, -187500.02235174447, -0.17200000000000001, 0.752, 0.586, 192.0, 0.0, 0.0, 0.0, 0.0, 0.0, 0.0, 0.0, 0.0, 0.0, 1.729705048955814E9, 0.0, 2024-10-23 23:07:28.955
145.0, -47459.436650209034, -55319.271125706575, -8828.17910053481, -21990.473209675936, -15248.941212766316, -14610.709501589477, -187500.02235174447, -187500.02235174447, -0.17200000000000001, 0.752, 0.586, 192.0, 0.0, 0.0, 0.0, 0.0, 0.0, 0.0, 0.0, 0.0, 0.0, 1.7297050489606855E9, 0.0, 2024-10-23 23:07:28.960
146.0, -46591.160785098175, -53892.8722015467, -22200.33373836681, -21624.61985643147, -13986.96172081968, -13305.188811443903, -187500.02235174447, -187500.02235174447, -0.17200000000000001, 0.752, 0.586, 192.0, 0.0, 0.0, 0.0, 0.0, 0.0, 0.0, 0.0, 0.0, 0.0, 1.7297050489637566E9, 0.0, 2024-10-23 23:07:28.963
147.0, -44736.547140663526, -51960.85446606332, -44841.332118670005, -20108.478678283536, -12122.558012313606, -11466.087277661238, -187500.02235174447, -187500.02235174447, -0.17200000000000001, 0.752, 0.586, 192.0, 0.0, 0.0, 0.0, 0.0, 0.0, 0.0, 0.0, 0.0, 0.0, 1.7297050489678204E9, 0.0, 2024-10-23 23:07:28.967
148.0, -44449.03665173491, -52967.08529795233, -32317.001499772254, -18834.608058286674, -12802.453375155137, -12282.864723547069, -187500.02235174447, -187500.02235174447, -0.17200000000000001, 0.752, 0.586, 192.0, 0.0, 0.0, 0.0, 0.0, 0.0, 0.0, 0.0, 0.0, 0.0, 1.729705048971751E9, 0.0, 2024-10-23 23:07:28.971
149.0, -46671.15767850372, -55193.006121278544, -11228.778806779243, -20678.09053398258, -15007.117689504348, -14422.70897897589, -187500.02235174447, -187500.02235174447, -0.17, 0.754, 0.586, 192.0, 250.0, 176.0, 23.0, 144.0, 18.0, 80.0, 0.0, 0.0, 0.0, 1.7297050489758465E9, 0.0, 2024-10-23 23:07:28.975
150.0, -47472.55712420429, -55313.23615470364, -8917.362560911484, -21990.786134098307, -15269.571872898565, -14621.974780794953, -187500.02235174447, -187500.02235174447, -0.17, 0.754, 0.586, 192.0, 0.0, 0.0, 0.0, 0.0, 0.0, 0.0, 0.0, 0.0, 0.0, 1.7297050489798796E9, 0.0, 2024-10-23 23:07:28.979
151.0, -46595.80994794488, -53891.017006756905, -22145.884888873683, -21616.908504594387, -13993.644892411816, -13309.100366723582, -187500.02235174447, -187500.02235174447, -0.17, 0.754, 0.586, 192.0, 0.0, 0.0, 0.0, 0.0, 0.0, 0.0, 0.0, 0.0, 0.0, 1.729705048983727E9, 0.0, 2024-10-23 23:07:28.983
152.0, -44756.44019322875, -51975.13723077026, -44712.60842235189, -20114.044262652907, -12134.471492108285, -11478.805420256307, -187500.02235174447, -187500.02235174447, -0.17, 0.754, 0.586, 192.0, 0.0, 0.0, 0.0, 0.0, 0.0, 0.0, 0.0, 0.0, 0.0, 1.7297050489898045E9, 0.0, 2024-10-23 23:07:28.989
153.0, -44444.119267954746, -52965.09599269581, -32372.41147427696, -18831.92584895204, -12808.845974069354, -12281.367156668563, -187500.02235174447, -187500.02235174447, -0.17, 0.754, 0.586, 192.0, 0.0, 0.0, 0.0, 0.0, 0.0, 0.0, 0.0, 0.0, 0.0, 1.7297050489928706E9, 0.0, 2024-10-23 23:07:28.992
154.0, -46653.8127248064, -55190.279208454995, -11312.575496742189, -20659.4268273624, -14995.96416902115, -14409.812022425178, -187500.02235174447, -187500.02235174447, -0.17, 0.754, 0.586, 192.0, 0.0, 0.0, 0.0, 0.0, 0.0, 0.0, 0.0, 0.0, 0.0, 1.7297050489958904E9, 0.0, 2024-10-23 23:07:28.995
155.0, -47450.831228593735, -55309.59282035742, -8935.24395647573, -21965.930994264007, -15254.596204113508, -14607.066167243263, -187500.02235174447, -187500.02235174447, -0.17, 0.754, 0.586, 192.0, 0.0, 0.0, 0.0, 0.0, 0.0, 0.0, 0.0, 0.0, 0.0, 1.729705049000776E9, 0.0, 2024-10-23 23:07:29.000
156.0, -46577.99560761399, -53894.68269284758, -22051.024085405363, -21585.83957980151, -13982.647834139805, -13297.768032284741, -187500.02235174447, -187500.02235174447, -0.17, 0.754, 0.586, 192.0, 0.0, 0.0, 0.0, 0.0, 0.0, 0.0, 0.0, 0.0, 0.0, 1.7297050490038056E9, 0.0, 2024-10-23 23:07:29.003
157.0, -44755.836696128456, -51982.17803027368, -44656.97493040263, -20094.084154854318, -12120.859279735003, -11462.667460759576, -187500.02235174447, -187500.02235174447, -0.17, 0.754, 0.586, 192.0, 0.0, 0.0, 0.0, 0.0, 0.0, 0.0, 0.0, 0.0, 0.0, 1.729705049007808E9, 0.0, 2024-10-23 23:07:29.007
158.0, -44421.90163396617, -52947.594576787305, -32509.807647443733, -18792.542075221787, -12759.403915334215, -12234.495548545785, -187500.02235174447, -187500.02235174447, -0.17, 0.754, 0.586, 192.0, 0.0, 0.0, 0.0, 0.0, 0.0, 0.0, 0.0, 0.0, 0.0, 1.729705049011793E9, 0.0, 2024-10-23 23:07:29.011
159.0, -46625.53776807043, -55174.7223943141, -11340.33636335568, -20613.806916929116, -14951.014810921528, -14368.997737049787, -187500.02235174447, -187500.02235174447, -0.18, 0.754, 0.584, 192.0, 250.0, 96.0, 23.0, 144.0, 18.0, 64.0, 0.0, 0.0, 0.0, 1.7297050490167625E9, 0.0, 2024-10-23 23:07:29.016
160.0, -47437.01785052036, -55309.45870989069, -8838.41619949534, -21932.939819447973, -15230.344561379501, -14590.369414135148, -187500.02235174447, -187500.02235174447, -0.18, 0.754, 0.584, 192.0, 0.0, 0.0, 0.0, 0.0, 0.0, 0.0, 0.0, 0.0, 0.0, 1.7297050490198655E9, 0.0, 2024-10-23 23:07:29.019
161.0, -46566.26094177496, -53898.81776557181, -21876.747533887334, -21568.98636448221, -13964.520569386552, -13297.209238673358, -187500.02235174447, -187500.02235174447, -0.18, 0.754, 0.584, 192.0, 0.0, 0.0, 0.0, 0.0, 0.0, 0.0, 0.0, 0.0, 0.0, 1.7297050490229092E9, 0.0, 2024-10-23 23:07:29.022
162.0, -44727.651146370314, -51959.982748029564, -44614.35015372636, -20082.8412273933, -12089.566837497574, -11457.5042077904, -187500.02235174447, -187500.02235174447, -0.18, 0.754, 0.584, 192.0, 0.0, 0.0, 0.0, 0.0, 0.0, 0.0, 0.0, 0.0, 0.0, 1.7297050490278454E9, 0.0, 2024-10-23 23:07:29.027
163.0, -44377.71223517803, -52909.75307342447, -32740.05296707785, -18777.588758181188, -12728.8043771749, -12232.41683631144, -187500.02235174447, -187500.02235174447, -0.18, 0.754, 0.584, 192.0, 0.0, 0.0, 0.0, 0.0, 0.0, 0.0, 0.0, 0.0, 0.0, 1.7297050490317965E9, 0.0, 2024-10-23 23:07:29.031
164.0, -46606.02469516095, -55171.95077800164, -11409.91734384505, -20626.27919033518, -14955.440456323679, -14410.974313136854, -187500.02235174447, -187500.02235174447, -0.18, 0.754, 0.584, 192.0, 0.0, 0.0, 0.0, 0.0, 0.0, 0.0, 0.0, 0.0, 0.0, 1.7297050490359316E9, 0.0, 2024-10-23 23:07:29.035
165.0, -47439.76711508836, -55329.95525955621, -8668.900569546291, -21977.665660103045, -15250.349372667, -14661.04563010283, -187500.02235174447, -187500.02235174447, -0.18, 0.754, 0.584, 192.0, 0.0, 0.0, 0.0, 0.0, 0.0, 0.0, 0.0, 0.0, 0.0, 1.7297050490398004E9, 0.0, 2024-10-23 23:07:29.039
166.0, -46574.6428459457, -53921.23656526048, -21614.80744061559, -21617.199077272307, -13986.24646499711, -13370.768829675775, -187500.02235174447, -187500.02235174447, -0.18, 0.754, 0.584, 192.0, 0.0, 0.0, 0.0, 0.0, 0.0, 0.0, 0.0, 0.0, 0.0, 1.7297050490438907E9, 0.0, 2024-10-23 23:07:29.043
167.0, -44720.945623033724, -51952.58432061486, -44535.15792312121, -20124.5495825469, -12086.079965362545, -11499.011397243905, -187500.02235174447, -187500.02235174447, -0.18, 0.754, 0.584, 192.0, 0.0, 0.0, 0.0, 0.0, 0.0, 0.0, 0.0, 0.0, 0.0, 1.7297050490478976E9, 0.0, 2024-10-23 23:07:29.047
168.0, -44346.75506910742, -52880.85226784376, -32970.00771403405, -18789.256368786857, -12705.08917630782, -12246.341973107097, -187500.02235174447, -187500.02235174447, -0.18, 0.754, 0.584, 192.0, 0.0, 0.0, 0.0, 0.0, 0.0, 0.0, 0.0, 0.0, 0.0, 1.7297050490509677E9, 0.0, 2024-10-23 23:07:29.050
169.0, -46609.824491718355, -55182.12082172881, -11528.158072013626, -20652.117806925515, -14974.685308299699, -14453.375572368572, -187500.02235174447, -187500.02235174447, -0.176, 0.764, 0.58, 192.0, 250.0, 128.0, 23.0, 224.0, 18.0, 32.0, 0.0, 0.0, 0.0, 1.729705049055879E9, 0.0, 2024-10-23 23:07:29.055
170.0, -47469.561990447284, -55357.62671919188, -8685.016177298568, -22014.97072159895, -15283.295843994123, -14707.984293458974, -187500.02235174447, -187500.02235174447, -0.176, 0.764, 0.58, 192.0, 0.0, 0.0, 0.0, 0.0, 0.0, 0.0, 0.0, 0.0, 0.0, 1.7297050490598965E9, 0.0, 2024-10-23 23:07:29.059
171.0, -46588.65738971918, -53929.126731053206, -21493.660985667826, -21628.9560948558, -14001.557409948995, -13389.276074084768, -187500.02235174447, -187500.02235174447, -0.176, 0.764, 0.58, 192.0, 0.0, 0.0, 0.0, 0.0, 0.0, 0.0, 0.0, 0.0, 0.0, 1.729705049063897E9, 0.0, 2024-10-23 23:07:29.063
172.0, -44716.47527414266, -51932.579509327355, -44337.76966783639, -20116.279437098437, -12077.809819914082, -11486.382661626658, -187500.02235174447, -187500.02235174447, -0.176, 0.764, 0.58, 192.0, 0.0, 0.0, 0.0, 0.0, 0.0, 0.0, 0.0, 0.0, 0.0, 1.7297050490678873E9, 0.0, 2024-10-23 23:07:29.067
173.0, -44334.14868523463, -52852.59966285225, -33034.38073806533, -18777.298185503267, -12697.288417492917, -12226.091292630588, -187500.02235174447, -187500.02235174447, -0.176, 0.764, 0.58, 192.0, 0.0, 0.0, 0.0, 0.0, 0.0, 0.0, 0.0, 0.0, 0.0, 1.7297050490718849E9, 0.0, 2024-10-23 23:07:29.071
174.0, -46624.86721573678, -55185.808859563935, -11659.4522189441, -20657.415170361422, -15000.166296978749, -14460.550482338725, -187500.02235174447, -187500.02235174447, -0.176, 0.764, 0.58, 192.0, 0.0, 0.0, 0.0, 0.0, 0.0, 0.0, 0.0, 0.0, 0.0, 1.72970504907589E9, 0.0, 2024-10-23 23:07:29.075
175.0, -47498.88747917265, -55380.29138806956, -8732.87126217738, -22029.633465961633, -15330.189803861358, -14731.833604792788, -187500.02235174447, -187500.02235174447, -0.176, 0.764, 0.58, 192.0, 0.0, 0.0, 0.0, 0.0, 0.0, 0.0, 0.0, 0.0, 0.0, 1.729705049078932E9, 0.0, 2024-10-23 23:07:29.078
176.0, -46594.98293340003, -53934.91583286713, -21396.52030426506, -21622.965827341777, -14020.042302613534, -13392.539428775244, -187500.02235174447, -187500.02235174447, -0.176, 0.764, 0.58, 192.0, 0.0, 0.0, 0.0, 0.0, 0.0, 0.0, 0.0, 0.0, 0.0, 1.7297050490838795E9, 0.0, 2024-10-23 23:07:29.083
177.0, -44688.20031740669, -51896.32497982085, -44227.597919416185, -20077.141532557194, -12045.153921264879, -11440.27101281536, -187500.02235174447, -187500.02235174447, -0.176, 0.764, 0.58, 192.0, 0.0, 0.0, 0.0, 0.0, 0.0, 0.0, 0.0, 0.0, 0.0, 1.729705049087974E9, 0.0, 2024-10-23 23:07:29.087
178.0, -44310.18761517854, -52826.00108695043, -33162.74680647216, -18742.831795553186, -12664.319594421338, -12177.856228096036, -187500.02235174447, -187500.02235174447, -0.176, 0.764, 0.58, 192.0, 0.0, 0.0, 0.0, 0.0, 0.0, 0.0, 0.0, 0.0, 0.0, 1.729705049091879E9, 0.0, 2024-10-23 23:07:29.091
179.0, -46649.70000382662, -55216.855432612356, -11814.2380492971, -20667.2275861773, -15016.527773920034, -14465.713735307902, -187500.02235174447, -187500.02235174447, -0.17400000000000002, 0.764, 0.5760000000000001, 192.0, 250.0, 144.0, 23.0, 224.0, 18.0, 0.0, 0.0, 0.0, 0.0, 1.7297050490958908E9, 0.0, 2024-10-23 23:07:29.095
180.0, -47532.63861330016, -55422.46912985673, -8744.248300105131, -22045.726721969455, -15353.457969839332, -14746.429293922103, -187500.02235174447, -187500.02235174447, -0.17400000000000002, 0.764, 0.5760000000000001, 192.0, 0.0, 0.0, 0.0, 0.0, 0.0, 0.0, 0.0, 0.0, 0.0, 1.7297050491019611E9, 0.0, 2024-10-23 23:07:29.101
181.0, -46599.676799735644, -53947.54456848438, -21240.661590178202, -21602.268111976162, -14015.616657211383, -13376.781448934253, -187500.02235174447, -187500.02235174447, -0.17400000000000002, 0.764, 0.5760000000000001, 192.0, 0.0, 0.0, 0.0, 0.0, 0.0, 0.0, 0.0, 0.0, 0.0, 1.7297050491049151E9, 0.0, 2024-10-23 23:07:29.104
182.0, -44670.22951486463, -51872.63213069822, -44115.794493650734, -20030.96282851253, -12008.854688269459, -11385.464535410945, -187500.02235174447, -187500.02235174447, -0.17400000000000002, 0.764, 0.5760000000000001, 192.0, 0.0, 0.0, 0.0, 0.0, 0.0, 0.0, 0.0, 0.0, 0.0, 1.7297050491079218E9, 0.0, 2024-10-23 23:07:29.107
183.0, -44277.33055082924, -52786.63966496464, -33397.06014359715, -18682.347975057124, -12605.020416381409, -12099.893343435926, -187500.02235174447, -187500.02235174447, -0.17400000000000002, 0.764, 0.5760000000000001, 192.0, 0.0, 0.0, 0.0, 0.0, 0.0, 0.0, 0.0, 0.0, 0.0, 1.7297050491119509E9, 0.0, 2024-10-23 23:07:29.111
184.0, -46636.400715875716, -55213.61442966633, -11950.091952096458, -20617.182030341868, -14982.307253158959, -14413.745929449313, -187500.02235174447, -187500.02235174447, -0.17400000000000002, 0.764, 0.5760000000000001, 192.0, 0.0, 0.0, 0.0, 0.0, 0.0, 0.0, 0.0, 0.0, 0.0, 1.7297050491159515E9, 0.0, 2024-10-23 23:07:29.115
185.0, -47541.48990410446, -55443.09978998897, -8642.927842489224, -22014.277817520837, -15346.953612202838, -14720.098938953752, -187500.02235174447, -187500.02235174447, -0.17400000000000002, 0.764, 0.5760000000000001, 192.0, 0.0, 0.0, 0.0, 0.0, 0.0, 0.0, 0.0, 0.0, 0.0, 1.729705049120272E9, 0.0, 2024-10-23 23:07:29.120
186.0, -46630.00811696149, -53990.45991783857, -21018.328788081264, -21599.295329963606, -14030.122939362876, -13377.943739645927, -187500.02235174447, -187500.02235174447, -0.17400000000000002, 0.764, 0.5760000000000001, 192.0, 0.0, 0.0, 0.0, 0.0, 0.0, 0.0, 0.0, 0.0, 0.0, 1.7297050491239479E9, 0.0, 2024-10-23 23:07:29.123
187.0, -44700.51612860157, -51907.92553519315, -44027.48275130782, -20051.280564222405, -12003.04323471108, -11388.459669167956, -187500.02235174447, -187500.02235174447, -0.17400000000000002, 0.764, 0.5760000000000001, 192.0, 0.0, 0.0, 0.0, 0.0, 0.0, 0.0, 0.0, 0.0, 0.0, 1.7297050491299372E9, 0.0, 2024-10-23 23:07:29.129
188.0, -44250.039070849314, -52768.08771706674, -33620.689346872496, -18670.412143517988, -12551.398581433128, -12075.351128023998, -187500.02235174447, -187500.02235174447, -0.17400000000000002, 0.764, 0.5760000000000001, 192.0, 0.0, 0.0, 0.0, 0.0, 0.0, 0.0, 0.0, 0.0, 0.0, 1.729705049132969E9, 0.0, 2024-10-23 23:07:29.132
189.0, -46600.861442191774, -55193.40845267874, -12098.39577655742, -20591.008137584704, -14934.09454036886, -14409.409691024983, -187500.02235174447, -187500.02235174447, -0.18, 0.762, 0.58, 192.0, 250.0, 96.0, 23.0, 208.0, 18.0, 32.0, 0.0, 0.0, 0.0, 1.729705049136367E9, 0.0, 2024-10-23 23:07:29.136
190.0, -47532.52685457788, -55446.02786851262, -8706.160927553288, -22018.792869900808, -15335.665981252907, -14758.655698139155, -187500.02235174447, -187500.02235174447, -0.18, 0.762, 0.58, 192.0, 0.0, 0.0, 0.0, 0.0, 0.0, 0.0, 0.0, 0.0, 0.0, 1.7297050491390207E9, 0.0, 2024-10-23 23:07:29.139
191.0, -46631.639794306735, -54000.22763016554, -20969.892557846615, -21624.79867038711, -14039.421265056286, -13441.266231687812, -187500.02235174447, -187500.02235174447, -0.18, 0.762, 0.58, 192.0, 0.0, 0.0, 0.0, 0.0, 0.0, 0.0, 0.0, 0.0, 0.0, 1.7297050491441927E9, 0.0, 2024-10-23 23:07:29.144
192.0, -44744.079678544964, -51941.47550362057, -43905.531633559665, -20116.391195820714, -12059.570796438551, -11491.009472728905, -187500.02235174447, -187500.02235174447, -0.18, 0.762, 0.58, 192.0, 0.0, 0.0, 0.0, 0.0, 0.0, 0.0, 0.0, 0.0, 0.0, 1.7297050491479995E9, 0.0, 2024-10-23 23:07:29.147
193.0, -44285.22071662197, -52781.67757769556, -33692.21492912948, -18735.835699538675, -12603.567552991815, -12164.914568056414, -187500.02235174447, -187500.02235174447, -0.18, 0.762, 0.58, 192.0, 0.0, 0.0, 0.0, 0.0, 0.0, 0.0, 0.0, 0.0, 0.0, 1.7297050491530197E9, 0.0, 2024-10-23 23:07:29.153
194.0, -46617.62525053326, -55185.20536246364, -12220.838632683592, -20638.639705018963, -14982.240197925592, -14479.750630825834, -187500.02235174447, -187500.02235174447, -0.18, 0.762, 0.58, 192.0, 0.0, 0.0, 0.0, 0.0, 0.0, 0.0, 0.0, 0.0, 0.0, 1.7297050491560094E9, 0.0, 2024-10-23 23:07:29.156
195.0, -47537.75716278043, -55429.68874331579, -8795.567905374517, -22053.03574240634, -15376.189693950379, -14812.746919721, -187500.02235174447, -187500.02235174447, -0.18, 0.762, 0.58, 192.0, 0.0, 0.0, 0.0, 0.0, 0.0, 0.0, 0.0, 0.0, 0.0, 1.7297050491589987E9, 0.0, 2024-10-23 23:07:29.158
196.0, -46639.887588010744, -53994.974970218536, -20964.1481595216, -21654.347676557027, -14085.711727823225, -13492.42937474601, -187500.02235174447, -187500.02235174447, -0.18, 0.762, 0.58, 192.0, 0.0, 0.0, 0.0, 0.0, 0.0, 0.0, 0.0, 0.0, 0.0, 1.7297050491630025E9, 0.0, 2024-10-23 23:07:29.163
197.0, -44771.281751547074, -51953.36663167079, -43844.01963281866, -20163.508673132503, -12122.558012313606, -11543.200796032048, -187500.02235174447, -187500.02235174447, -0.18, 0.762, 0.58, 192.0, 0.0, 0.0, 0.0, 0.0, 0.0, 0.0, 0.0, 0.0, 0.0, 1.729705049167025E9, 0.0, 2024-10-23 23:07:29.167
198.0, -44290.786300991334, -52772.08867932423, -33843.759756536456, -18761.964888806928, -12649.388629125195, -12184.40528922144, -187500.02235174447, -187500.02235174447, -0.18, 0.762, 0.58, 192.0, 0.0, 0.0, 0.0, 0.0, 0.0, 0.0, 0.0, 0.0, 0.0, 1.7297050491720254E9, 0.0, 2024-10-23 23:07:29.172
199.0, -46590.110253108774, -55154.829341748875, -12337.514738740294, -20622.635855988963, -14991.24795094108, -14462.606842828614, -187500.02235174447, -187500.02235174447, -0.17400000000000002, 0.758, 0.582, 192.0, 250.0, 144.0, 23.0, 176.0, 18.0, 48.0, 0.0, 0.0, 0.0, 1.7297050491760454E9, 0.0, 2024-10-23 23:07:29.176
200.0, -47514.01961016889, -55411.18149890679, -8818.389036463384, -22028.91821013906, -15376.32380441711, -14788.428221753626, -187500.02235174447, -187500.02235174447, -0.17400000000000002, 0.758, 0.582, 192.0, 0.0, 0.0, 0.0, 0.0, 0.0, 0.0, 0.0, 0.0, 0.0, 1.72970504918005E9, 0.0, 2024-10-23 23:07:29.180
201.0, -46639.57466358837, -54004.6979790566, -20907.0841559272, -21647.731560198255, -14095.814716317025, -13484.405098486555, -187500.02235174447, -187500.02235174447, -0.17400000000000002, 0.758, 0.582, 192.0, 0.0, 0.0, 0.0, 0.0, 0.0, 0.0, 0.0, 0.0, 0.0, 1.7297050491842637E9, 0.0, 2024-10-23 23:07:29.184
202.0, -44816.34286836897, -52003.591001461864, -43839.83985660552, -20205.70876666412, -12164.98162328978, -11571.565159745833, -187500.02235174447, -187500.02235174447, -0.17400000000000002, 0.758, 0.582, 192.0, 0.0, 0.0, 0.0, 0.0, 0.0, 0.0, 0.0, 0.0, 0.0, 1.7297050491870437E9, 0.0, 2024-10-23 23:07:29.187
203.0, -44301.358676118696, -52785.94676088652, -34067.27720108953, -18771.352621478156, -12639.576213309314, -12167.93205355788, -187500.02235174447, -187500.02235174447, -0.17400000000000002, 0.758, 0.582, 192.0, 0.0, 0.0, 0.0, 0.0, 0.0, 0.0, 0.0, 0.0, 0.0, 1.7297050491910737E9, 0.0, 2024-10-23 23:07:29.191
204.0, -46562.46114521756, -55138.266699107495, -12453.944975607988, -20578.22293975627, -14940.889470683274, -14407.062757857175, -187500.02235174447, -187500.02235174447, -0.17400000000000002, 0.758, 0.582, 192.0, 0.0, 0.0, 0.0, 0.0, 0.0, 0.0, 0.0, 0.0, 0.0, 1.7297050491950855E9, 0.0, 2024-10-23 23:07:29.195
205.0, -47496.629952982665, -55404.99006569268, -8823.149958032365, -21993.02130854384, -15333.60962076302, -14740.908413041641, -187500.02235174447, -187500.02235174447, -0.17400000000000002, 0.758, 0.582, 192.0, 0.0, 0.0, 0.0, 0.0, 0.0, 0.0, 0.0, 0.0, 0.0, 1.72970504920105E9, 0.0, 2024-10-23 23:07:29.201
206.0, -46639.32879439936, -54020.277144941945, -20863.408847261533, -21632.17474605736, -14073.418268372807, -13454.677278360998, -187500.02235174447, -187500.02235174447, -0.17400000000000002, 0.758, 0.582, 192.0, 0.0, 0.0, 0.0, 0.0, 0.0, 0.0, 0.0, 0.0, 0.0, 1.7297050492070673E9, 0.0, 2024-10-23 23:07:29.207
207.0, -44872.40104346288, -52068.5898743379, -43779.15487040936, -20238.923458924706, -12189.434431723885, -11588.284264598402, -187500.02235174447, -187500.02235174447, -0.17400000000000002, 0.758, 0.582, 192.0, 0.0, 0.0, 0.0, 0.0, 0.0, 0.0, 0.0, 0.0, 0.0, 1.7297050492100935E9, 0.0, 2024-10-23 23:07:29.210
208.0, -44328.404286909616, -52814.08760715576, -34143.586056659944, -18790.016328098336, -12626.209870125042, -12149.625974848983, -187500.02235174447, -187500.02235174447, -0.17400000000000002, 0.758, 0.582, 192.0, 0.0, 0.0, 0.0, 0.0, 0.0, 0.0, 0.0, 0.0, 0.0, 1.7297050492130857E9, 0.0, 2024-10-23 23:07:29.213
209.0, -46523.99379300998, -55109.56705922688, -12458.460027987961, -20532.49127060071, -14870.839103560342, -14329.59161157508, -187500.02235174447, -187500.02235174447, -0.176, 0.758, 0.586, 192.0, 250.0, 128.0, 23.0, 176.0, 18.0, 80.0, 0.0, 0.0, 0.0, 1.72970504921609E9, 0.0, 2024-10-23 23:07:29.216
210.0, -47450.63006289364, -55373.183533332776, -8720.264878304586, -21934.549145048757, -15267.426105430855, -14665.225406315973, -187500.02235174447, -187500.02235174447, -0.176, 0.758, 0.586, 192.0, 0.0, 0.0, 0.0, 0.0, 0.0, 0.0, 0.0, 0.0, 0.0, 1.72970504922008E9, 0.0, 2024-10-23 23:07:29.220
211.0, -46615.16655864317, -54012.588144849324, -20687.500618398266, -21601.888132320422, -14037.141387121843, -13412.27601912928, -187500.02235174447, -187500.02235174447, -0.176, 0.758, 0.586, 192.0, 0.0, 0.0, 0.0, 0.0, 0.0, 0.0, 0.0, 0.0, 0.0, 1.729705049223079E9, 0.0, 2024-10-23 23:07:29.223
212.0, -44892.02587509464, -52087.991188525106, -43779.11016692044, -20262.281031880502, -12200.610303951538, -11588.463078554045, -187500.02235174447, -187500.02235174447, -0.176, 0.758, 0.586, 192.0, 0.0, 0.0, 0.0, 0.0, 0.0, 0.0, 0.0, 0.0, 0.0, 1.7297050492281392E9, 0.0, 2024-10-23 23:07:29.228
213.0, -44306.11959768768, -52778.92831312756, -34497.16830219845, -18770.01151681084, -12596.571456977303, -12113.662018020394, -187500.02235174447, -187500.02235174447, -0.176, 0.758, 0.586, 192.0, 0.0, 0.0, 0.0, 0.0, 0.0, 0.0, 0.0, 0.0, 0.0, 1.7297050492323213E9, 0.0, 2024-10-23 23:07:29.232
214.0, -46456.580931732766, -55038.644974070194, -12605.892134415166, -20456.808263875042, -14810.109413875272, -14268.593700956548, -187500.02235174447, -187500.02235174447, -0.176, 0.758, 0.586, 192.0, 0.0, 0.0, 0.0, 0.0, 0.0, 0.0, 0.0, 0.0, 0.0, 1.729705049236086E9, 0.0, 2024-10-23 23:07:29.236
215.0, -47404.67487629353, -55331.45282643472, -8492.433547071641, -21875.249967008825, -15234.189061425814, -14634.42470245656, -187500.02235174447, -187500.02235174447, -0.176, 0.758, 0.586, 192.0, 0.0, 0.0, 0.0, 0.0, 0.0, 0.0, 0.0, 0.0, 0.0, 1.7297050492401304E9, 0.0, 2024-10-23 23:07:29.240
216.0, -46625.202491903605, -54020.2994966864, -20299.027299765028, -21593.32741419404, -14055.358058852918, -13429.822138526695, -187500.02235174447, -187500.02235174447, -0.176, 0.758, 0.586, 192.0, 0.0, 0.0, 0.0, 0.0, 0.0, 0.0, 0.0, 0.0, 0.0, 1.729705049243101E9, 0.0, 2024-10-23 23:07:29.243
217.0, -44933.667175014874, -52102.74333986561, -43750.70109971775, -20305.933988801717, -12230.651048499472, -11622.750654548485, -187500.02235174447, -187500.02235174447, -0.176, 0.758, 0.586, 192.0, 0.0, 0.0, 0.0, 0.0, 0.0, 0.0, 0.0, 0.0, 0.0, 1.7297050492471445E9, 0.0, 2024-10-23 23:07:29.247
218.0, -44284.013722421376, -52733.68838235002, -35023.4177736542, -18760.28850797278, -12562.82032284979, -12091.936122409836, -187500.02235174447, -187500.02235174447, -0.176, 0.758, 0.586, 192.0, 0.0, 0.0, 0.0, 0.0, 0.0, 0.0, 0.0, 0.0, 0.0, 1.7297050492511442E9, 0.0, 2024-10-23 23:07:29.251
219.0, -46420.08053303725, -55003.10570038625, -12871.386155055305, -20410.47309761919, -14784.78488740741, -14260.368258996996, -187500.02235174447, -187500.02235174447, -0.176, 0.762, 0.59, 192.0, 250.0, 128.0, 23.0, 208.0, 18.0, 112.0, 0.0, 0.0, 0.0, 1.7297050492551627E9, 0.0, 2024-10-23 23:07:29.255
220.0, -47422.042181735305, -55350.83178887747, -8331.500986993431, -21879.608557177613, -15278.423163702866, -14693.992101429953, -187500.02235174447, -187500.02235174447, -0.176, 0.762, 0.59, 192.0, 0.0, 0.0, 0.0, 0.0, 0.0, 0.0, 0.0, 0.0, 0.0, 1.7297050492601216E9, 0.0, 2024-10-23 23:07:29.260
221.0, -46682.71353038711, -54069.11570657679, -19990.70733674852, -21650.212603832795, -14144.161539573854, -13524.660590250563, -187500.02235174447, -187500.02235174447, -0.176, 0.762, 0.59, 192.0, 0.0, 0.0, 0.0, 0.0, 0.0, 0.0, 0.0, 0.0, 0.0, 1.7297050492641704E9, 0.0, 2024-10-23 23:07:29.264
222.0, -45000.99062931426, -52143.021183374076, -43755.95375966475, -20390.93767296525, -12299.181496999443, -11697.60664672931, -187500.02235174447, -187500.02235174447, -0.176, 0.762, 0.59, 192.0, 0.0, 0.0, 0.0, 0.0, 0.0, 0.0, 0.0, 0.0, 0.0, 1.7297050492681825E9, 0.0, 2024-10-23 23:07:29.268
223.0, -44296.68716152754, -52717.729236808926, -35529.751840800265, -18793.48084848891, -12575.896093356145, -12109.102262151511, -187500.02235174447, -187500.02235174447, -0.176, 0.762, 0.59, 192.0, 0.0, 0.0, 0.0, 0.0, 0.0, 0.0, 0.0, 0.0, 0.0, 1.729705049271175E9, 0.0, 2024-10-23 23:07:29.271
224.0, -46406.445968919514, -54978.27291229641, -13199.50976365921, -20395.89976023433, -14784.40490775167, -14259.317727007596, -187500.02235174447, -187500.02235174447, -0.176, 0.762, 0.59, 192.0, 0.0, 0.0, 0.0, 0.0, 0.0, 0.0, 0.0, 0.0, 0.0, 1.729705049275462E9, 0.0, 2024-10-23 23:07:29.275
225.0, -47436.54846388679, -55359.034879092564, -8333.736161438961, -21886.112914814104, -15306.519306483187, -14719.584848831279, -187500.02235174447, -187500.02235174447, -0.176, 0.762, 0.59, 192.0, 0.0, 0.0, 0.0, 0.0, 0.0, 0.0, 0.0, 0.0, 0.0, 1.7297050492794216E9, 0.0, 2024-10-23 23:07:29.279
226.0, -46704.5735364644, -54087.22061958559, -19850.204271102462, -21674.128970399976, -14170.782467220124, -13554.25429990939, -187500.02235174447, -187500.02235174447, -0.176, 0.762, 0.59, 192.0, 0.0, 0.0, 0.0, 0.0, 0.0, 0.0, 0.0, 0.0, 0.0, 1.729705049283219E9, 0.0, 2024-10-23 23:07:29.283
227.0, -45039.033298377195, -52173.33014885547, -43703.9636020617, -20436.75874909863, -12347.081285367167, -11730.88839422326, -187500.02235174447, -187500.02235174447, -0.176, 0.762, 0.59, 192.0, 0.0, 0.0, 0.0, 0.0, 0.0, 0.0, 0.0, 0.0, 0.0, 1.72970504928922E9, 0.0, 2024-10-23 23:07:29.289
228.0, -44289.467548068475, -52707.62624831513, -35778.45970135447, -18803.76265093835, -12578.53359920187, -12097.434651545842, -187500.02235174447, -187500.02235174447, -0.176, 0.762, 0.59, 192.0, 0.0, 0.0, 0.0, 0.0, 0.0, 0.0, 0.0, 0.0, 0.0, 1.7297050492922208E9, 0.0, 2024-10-23 23:07:29.292
229.0, -46378.19336392801, -54959.56450218731, -13366.320832529169, -20372.65394600081, -14760.645003395679, -14230.43927317134, -187500.02235174447, -187500.02235174447, -0.17, 0.758, 0.594, 192.0, 250.0, 176.0, 23.0, 176.0, 18.0, 144.0, 0.0, 0.0, 0.0, 1.7297050492965288E9, 0.0, 2024-10-23 23:07:29.296
230.0, -47416.1413211991, -55356.12915231338, -8385.972188231015, -21864.14115001454, -15279.45134394781, -14690.058194405818, -187500.02235174447, -187500.02235174447, -0.17, 0.758, 0.594, 192.0, 0.0, 0.0, 0.0, 0.0, 0.0, 0.0, 0.0, 0.0, 0.0, 1.729705049299331E9, 0.0, 2024-10-23 23:07:29.299
231.0, -46696.19163229366, -54100.27403834749, -19831.741730182377, -21661.43317954936, -14159.204263592275, -13536.216442133957, -187500.02235174447, -187500.02235174447, -0.17, 0.758, 0.594, 192.0, 0.0, 0.0, 0.0, 0.0, 0.0, 0.0, 0.0, 0.0, 0.0, 1.7297050493073444E9, 0.0, 2024-10-23 23:07:29.307
232.0, -45042.98955714578, -52190.00455021913, -43568.7355481071, -20430.969647284706, -12341.605107975616, -11723.825242975385, -187500.02235174447, -187500.02235174447, -0.17, 0.758, 0.594, 192.0, 0.0, 0.0, 0.0, 0.0, 0.0, 0.0, 0.0, 0.0, 0.0, 1.7297050493074071E9, 0.0, 2024-10-23 23:07:29.307
233.0, -44296.55305106081, -52719.33856240971, -35765.36157910366, -18798.75586018036, -12562.596805405237, -12082.816610672071, -187500.02235174447, -187500.02235174447, -0.17, 0.758, 0.594, 192.0, 0.0, 0.0, 0.0, 0.0, 0.0, 0.0, 0.0, 0.0, 0.0, 1.7297050493112612E9, 0.0, 2024-10-23 23:07:29.311
234.0, -46372.71718653646, -54966.47119122401, -13384.783373449252, -20358.572346993966, -14740.39432291917, -14204.399490880907, -187500.02235174447, -187500.02235174447, -0.17, 0.758, 0.594, 192.0, 0.0, 0.0, 0.0, 0.0, 0.0, 0.0, 0.0, 0.0, 0.0, 1.729705049315368E9, 0.0, 2024-10-23 23:07:29.315
235.0, -47395.6894750225, -55349.64714642133, -8395.583438346797, -21840.02361774726, -15249.343544166511, -14646.51699620688, -187500.02235174447, -187500.02235174447, -0.17, 0.758, 0.594, 192.0, 0.0, 0.0, 0.0, 0.0, 0.0, 0.0, 0.0, 0.0, 0.0, 1.72970504932026E9, 0.0, 2024-10-23 23:07:29.320
236.0, -46678.73491987406, -54098.016512157505, -19778.835151056668, -21630.38660650094, -14120.89337359588, -13489.702461922463, -187500.02235174447, -187500.02235174447, -0.17, 0.758, 0.594, 192.0, 0.0, 0.0, 0.0, 0.0, 0.0, 0.0, 0.0, 0.0, 0.0, 1.729705049324222E9, 0.0, 2024-10-23 23:07:29.324
237.0, -45064.335473100604, -52226.124969258904, -43391.6426767877, -20434.56827814201, -12331.904450882013, -11708.782518956963, -187500.02235174447, -187500.02235174447, -0.17, 0.758, 0.594, 192.0, 0.0, 0.0, 0.0, 0.0, 0.0, 0.0, 0.0, 0.0, 0.0, 1.729705049327256E9, 0.0, 2024-10-23 23:07:29.327
238.0, -44295.21194639349, -52728.636888103116, -35651.30062714823, -18785.724793162917, -12531.505528867905, -12047.1432265214, -187500.02235174447, -187500.02235174447, -0.17, 0.758, 0.594, 192.0, 0.0, 0.0, 0.0, 0.0, 0.0, 0.0, 0.0, 0.0, 0.0, 1.7297050493312943E9, 0.0, 2024-10-23 23:07:29.331
239.0, -46347.54912227978, -54948.25451949293, -13298.907971251961, -20321.02141630905, -14694.170915385595, -14150.867062910445, -187500.02235174447, -187500.02235174447, -0.17, 0.758, 0.594, 192.0, 0.0, 0.0, 0.0, 0.0, 0.0, 0.0, 0.0, 0.0, 0.0, 1.7297050493353086E9, 0.0, 2024-10-23 23:07:29.335
240.0, -47370.454355532456, -55330.67051537878, -8381.479487595498, -21806.74187025331, -15212.53022104862, -14605.41213815357, -187500.02235174447, -187500.02235174447, -0.17200000000000001, 0.762, 0.59, 192.0, 250.0, 160.0, 23.0, 208.0, 18.0, 112.0, 0.0, 0.0, 0.0, 1.729705049339281E9, 0.0, 2024-10-23 23:07:29.339
241.0, -46665.055652267416, -54089.478145775574, -19759.702057802922, -21613.108708036987, -14122.74856838567, -13487.62374968812, -187500.02235174447, -187500.02235174447, -0.17200000000000001, 0.762, 0.59, 192.0, 0.0, 0.0, 0.0, 0.0, 0.0, 0.0, 0.0, 0.0, 0.0, 1.7297050493433788E9, 0.0, 2024-10-23 23:07:29.343
242.0, -45078.50647908527, -52240.13951303238, -43273.64781780813, -20448.985153315683, -12375.579759547683, -11756.257624180034, -187500.02235174447, -187500.02235174447, -0.17200000000000001, 0.762, 0.59, 192.0, 0.0, 0.0, 0.0, 0.0, 0.0, 0.0, 0.0, 0.0, 0.0, 1.7297050493520966E9, 0.0, 2024-10-23 23:07:29.352
243.0, -44303.07976044175, -52726.80404505778, -35681.63194437408, -18809.596456241186, -12566.687174640558, -12098.39577655742, -187500.02235174447, -187500.02235174447, -0.17200000000000001, 0.762, 0.59, 192.0, 0.0, 0.0, 0.0, 0.0, 0.0, 0.0, 0.0, 0.0, 0.0, 1.7297050493528728E9, 0.0, 2024-10-23 23:07:29.352
244.0, -46337.42378204153, -54928.67439135008, -13338.336448471124, -20329.783300135532, -14721.752968043444, -14201.113784445977, -187500.02235174447, -187500.02235174447, -0.17200000000000001, 0.762, 0.59, 192.0, 0.0, 0.0, 0.0, 0.0, 0.0, 0.0, 0.0, 0.0, 0.0, 1.7297050493553E9, 0.0, 2024-10-23 23:07:29.355
245.0, -47363.301797306754, -55315.918364038276, -8372.225865391001, -21821.806946016186, -15250.863462789472, -14671.32743255227, -187500.02235174447, -187500.02235174447, -0.17200000000000001, 0.762, 0.59, 192.0, 0.0, 0.0, 0.0, 0.0, 0.0, 0.0, 0.0, 0.0, 0.0, 1.7297050493592863E9, 0.0, 2024-10-23 23:07:29.359
246.0, -46669.79422209194, -54092.5179830215, -19649.97734427182, -21646.0104758752, -14173.196455621297, -13567.553587860297, -187500.02235174447, -187500.02235174447, -0.17200000000000001, 0.762, 0.59, 192.0, 0.0, 0.0, 0.0, 0.0, 0.0, 0.0, 0.0, 0.0, 0.0, 1.7297050493633175E9, 0.0, 2024-10-23 23:07:29.363
247.0, -45109.5977556226, -52257.506818474154, -43264.12597467017, -20515.459241325767, -12446.837120871201, -11845.172863623246, -187500.02235174447, -187500.02235174447, -0.17200000000000001, 0.762, 0.59, 192.0, 0.0, 0.0, 0.0, 0.0, 0.0, 0.0, 0.0, 0.0, 0.0, 1.7297050493734431E9, 0.0, 2024-10-23 23:07:29.373
248.0, -44301.91746973008, -52706.061626203256, -36073.18980374215, -18846.92386948155, -12593.308102286828, -12133.845643263538, -187500.02235174447, -187500.02235174447, -0.17200000000000001, 0.762, 0.59, 192.0, 0.0, 0.0, 0.0, 0.0, 0.0, 0.0, 0.0, 0.0, 0.0, 1.7297050493735008E9, 0.0, 2024-10-23 23:07:29.373
249.0, -46314.960278863946, -54906.456757361506, -13614.805175638818, -20322.787204121018, -14721.10476745424, -14209.987426994734, -187500.02235174447, -187500.02235174447, -0.17200000000000001, 0.762, 0.59, 192.0, 0.0, 0.0, 0.0, 0.0, 0.0, 0.0, 0.0, 0.0, 0.0, 1.7297050493763483E9, 0.0, 2024-10-23 23:07:29.376
250.0, -47370.74492821037, -55334.649125891825, -8298.509812177397, -21829.22772517535, -15273.371669455966, -14697.970711942997, -187500.02235174447, -187500.02235174447, -0.17, 0.766, 0.586, 192.0, 250.0, 176.0, 23.0, 240.0, 18.0, 80.0, 0.0, 0.0, 0.0, 1.7297050493803337E9, 0.0, 2024-10-23 23:07:29.380
251.0, -46706.6746004432, -54138.29435566597, -19362.556262321028, -21676.18533088986, -14215.105976474999, -13604.92570458957, -187500.02235174447, -187500.02235174447, -0.17, 0.766, 0.586, 192.0, 0.0, 0.0, 0.0, 0.0, 0.0, 0.0, 0.0, 0.0, 0.0, 1.7297050493851712E9, 0.0, 2024-10-23 23:07:29.385
252.0, -45158.81629691319, -52294.78952822561, -43193.24859300239, -20567.44939892881, -12468.115981592653, -11863.657756287785, -187500.02235174447, -187500.02235174447, -0.17, 0.766, 0.586, 192.0, 0.0, 0.0, 0.0, 0.0, 0.0, 0.0, 0.0, 0.0, 0.0, 1.7297050493873231E9, 0.0, 2024-10-23 23:07:29.387
253.0, -44285.71245499998, -52681.47470730242, -36631.78224942473, -18845.336895625223, -12549.38692443215, -12090.416203786875, -187500.02235174447, -187500.02235174447, -0.17, 0.766, 0.586, 192.0, 0.0, 0.0, 0.0, 0.0, 0.0, 0.0, 0.0, 0.0, 0.0, 1.729705049391363E9, 0.0, 2024-10-23 23:07:29.391
254.0, -46271.48613589837, -54875.834867457736, -14002.429127982752, -20269.970031973127, -14669.025202873374, -14156.790275191102, -187500.02235174447, -187500.02235174447, -0.17, 0.766, 0.586, 192.0, 0.0, 0.0, 0.0, 0.0, 0.0, 0.0, 0.0, 0.0, 0.0, 1.7297050493954146E9, 0.0, 2024-10-23 23:07:29.395
255.0, -47373.784765456294, -55349.08835280995, -8246.474951085444, -21799.008166671774, -15274.533960167642, -14691.734575239967, -187500.02235174447, -187500.02235174447, -0.17, 0.766, 0.586, 192.0, 0.0, 0.0, 0.0, 0.0, 0.0, 0.0, 0.0, 0.0, 0.0, 1.7297050494006965E9, 0.0, 2024-10-23 23:07:29.400
0.0, -46740.3810310818, -54178.37103347434, -19054.996258616004, -21683.24848213774, -14239.111750019998, -13624.662294943608, -187500.02235174447, -187500.02235174447, -0.17, 0.766, 0.586, 192.0, 0.0, 0.0, 0.0, 0.0, 0.0, 0.0, 0.0, 0.0, 0.0, 1.7297050494048548E9, 0.0, 2024-10-23 23:07:29.404
1.0, -45208.32541088169, -52339.78358981414, -42951.58153195161, -20601.82638190107, -12497.597932529205, -11883.595512341919, -187500.02235174447, -187500.02235174447, -0.17, 0.766, 0.586, 192.0, 0.0, 0.0, 0.0, 0.0, 0.0, 0.0, 0.0, 0.0, 0.0, 1.729705049408336E9, 0.0, 2024-10-23 23:07:29.408
2.0, -44289.42284457956, -52676.40086131106, -36747.787803147774, -18844.01814270236, -12522.408368874594, -12056.642717914907, -187500.02235174447, -187500.02235174447, -0.17, 0.766, 0.586, 192.0, 0.0, 0.0, 0.0, 0.0, 0.0, 0.0, 0.0, 0.0, 0.0, 1.7297050494113803E9, 0.0, 2024-10-23 23:07:29.411
3.0, -46247.25684490882, -54853.86310265817, -14102.386129186885, -20228.99928438655, -14620.052530771796, -14096.775841328603, -187500.02235174447, -187500.02235174447, -0.17, 0.766, 0.586, 192.0, 0.0, 0.0, 0.0, 0.0, 0.0, 0.0, 0.0, 0.0, 0.0, 1.7297050494183064E9, 0.0, 2024-10-23 23:07:29.418
4.0, -47344.70514591994, -55328.05536127751, -8228.615907265652, -21751.86833761553, -15221.96265720876, -14623.919382562564, -187500.02235174447, -187500.02235174447, -0.17, 0.768, 0.58, 192.0, 250.0, 176.0, 24.0, 0.0, 18.0, 32.0, 0.0, 0.0, 0.0, 1.729705049420384E9, 0.0, 2024-10-23 23:07:29.420
5.0, -46727.81935069792, -54168.826838591915, -18977.43570535609, -21653.654772478912, -14198.878610000445, -13566.771276804362, -187500.02235174447, -187500.02235174447, -0.17, 0.768, 0.58, 192.0, 0.0, 0.0, 0.0, 0.0, 0.0, 0.0, 0.0, 0.0, 0.0, 1.7297050494244857E9, 0.0, 2024-10-23 23:07:29.424
6.0, -45224.59748084516, -52346.69027885083, -42842.862646921, -20604.12861157997, -12478.129563108632, -11846.849244457395, -187500.02235174447, -187500.02235174447, -0.17, 0.768, 0.58, 192.0, 0.0, 0.0, 0.0, 0.0, 0.0, 0.0, 0.0, 0.0, 0.0, 1.7297050494293692E9, 0.0, 2024-10-23 23:07:29.429
7.0, -44289.5569550463, -52658.36300353563, -36967.1254714877, -18844.06284619127, -12491.227685359441, -12011.894525515381, -187500.02235174447, -187500.02235174447, -0.17, 0.768, 0.58, 192.0, 0.0, 0.0, 0.0, 0.0, 0.0, 0.0, 0.0, 0.0, 0.0, 1.729705049434984E9, 0.0, 2024-10-23 23:07:29.434
8.0, -46223.943975441936, -54824.76113137736, -14302.389538572972, -20207.56396145391, -14593.051623469786, -14063.136465923366, -187500.02235174447, -187500.02235174447, -0.17, 0.768, 0.58, 192.0, 0.0, 0.0, 0.0, 0.0, 0.0, 0.0, 0.0, 0.0, 0.0, 1.729705049437398E9, 0.0, 2024-10-23 23:07:29.437
9.0, -47335.38446848208, -55313.727893081654, -8302.376663968165, -21746.59332592408, -15238.949982994794, -14640.750246137412, -187500.02235174447, -187500.02235174447, -0.17, 0.768, 0.58, 192.0, 0.0, 0.0, 0.0, 0.0, 0.0, 0.0, 0.0, 0.0, 0.0, 1.7297050494414058E9, 0.0, 2024-10-23 23:07:29.441
10.0, -46730.72507747711, -54170.05618453696, -18959.621365025207, -21672.05025816563, -14253.14864553793, -13631.591335724752, -187500.02235174447, -187500.02235174447, -0.17, 0.768, 0.58, 192.0, 0.0, 0.0, 0.0, 0.0, 0.0, 0.0, 0.0, 0.0, 0.0, 1.7297050494453852E9, 0.0, 2024-10-23 23:07:29.445
11.0, -45252.15718175855, -52370.02550006217, -42766.08440471702, -20656.610507561032, -12570.934006087067, -11958.764428945116, -187500.02235174447, -187500.02235174447, -0.17, 0.768, 0.58, 192.0, 0.0, 0.0, 0.0, 0.0, 0.0, 0.0, 0.0, 0.0, 0.0, 1.7297050494518144E9, 0.0, 2024-10-23 23:07:29.451
12.0, -44299.77170226237, -52657.84891341316, -37094.329249182854, -18886.017070533882, -12566.508360684915, -12112.320913353076, -187500.02235174447, -187500.02235174447, -0.17, 0.768, 0.58, 192.0, 0.0, 0.0, 0.0, 0.0, 0.0, 0.0, 0.0, 0.0, 0.0, 1.7297050494548907E9, 0.0, 2024-10-23 23:07:29.454
13.0, -46208.99065840133, -54804.443395667484, -14430.263868601784, -20211.028481844485, -14640.593783926224, -14135.80198714757, -187500.02235174447, -187500.02235174447, -0.17, 0.768, 0.58, 192.0, 0.0, 0.0, 0.0, 0.0, 0.0, 0.0, 0.0, 0.0, 0.0, 1.7297050494584463E9, 0.0, 2024-10-23 23:07:29.458
14.0, -47330.40002946855, -55309.88339303534, -8361.60878677473, -21758.126826063017, -15279.473695692266, -14703.111613167717, -187500.02235174447, -187500.02235174447, -0.168, 0.762, 0.582, 192.0, 250.0, 192.0, 23.0, 208.0, 18.0, 48.0, 0.0, 0.0, 0.0, 1.7297050494794688E9, 0.0, 2024-10-23 23:07:29.479
15.0, -46730.032173399, -54177.32050148494, -18943.818681695306, -21684.209607149318, -14278.026137116687, -13672.249158888955, -187500.02235174447, -187500.02235174447, -0.168, 0.762, 0.582, 192.0, 0.0, 0.0, 0.0, 0.0, 0.0, 0.0, 0.0, 0.0, 0.0, 1.7297050494836743E9, 0.0, 2024-10-23 23:07:29.483
16.0, -45277.74992915987, -52402.860212667016, -42699.36444751793, -20685.3324991861, -12595.185648821074, -11993.387281106387, -187500.02235174447, -187500.02235174447, -0.168, 0.762, 0.582, 192.0, 0.0, 0.0, 0.0, 0.0, 0.0, 0.0, 0.0, 0.0, 0.0, 1.729705049488054E9, 0.0, 2024-10-23 23:07:29.488
17.0, -44312.55690009081, -52670.2317798414, -37238.85562883087, -18899.673986396076, -12560.786314104356, -12106.643570261427, -187500.02235174447, -187500.02235174447, -0.168, 0.762, 0.582, 192.0, 0.0, 0.0, 0.0, 0.0, 0.0, 0.0, 0.0, 0.0, 0.0, 1.7297050494904993E9, 0.0, 2024-10-23 23:07:29.490
18.0, -46198.46298676288, -54800.62124736563, -14532.031361106798, -20195.00228107003, -14610.88831554512, -14101.670873364315, -187500.02235174447, -187500.02235174447, -0.168, 0.762, 0.582, 192.0, 0.0, 0.0, 0.0, 0.0, 0.0, 0.0, 0.0, 0.0, 0.0, 1.7297050494934611E9, 0.0, 2024-10-23 23:07:29.493
19.0, -47321.906366575524, -55308.74345406812, -8341.291051064856, -21733.651665884456, -15251.556366867588, -14670.701583707523, -187500.02235174447, -187500.02235174447, -0.168, 0.762, 0.582, 192.0, 0.0, 0.0, 0.0, 0.0, 0.0, 0.0, 0.0, 0.0, 0.0, 1.7297050494964738E9, 0.0, 2024-10-23 23:07:29.496
20.0, -46740.64925201527, -54195.51482147155, -18840.86654673416, -21677.369973345994, -14262.82695088708, -13659.642775016162, -187500.02235174447, -187500.02235174447, -0.168, 0.762, 0.582, 192.0, 0.0, 0.0, 0.0, 0.0, 0.0, 0.0, 0.0, 0.0, 0.0, 1.7297050495005004E9, 0.0, 2024-10-23 23:07:29.500
21.0, -45315.01028716687, -52438.26537588422, -42629.87287400638, -20704.644406395484, -12599.96892213451, -12001.746833532672, -187500.02235174447, -187500.02235174447, -0.168, 0.762, 0.582, 192.0, 0.0, 0.0, 0.0, 0.0, 0.0, 0.0, 0.0, 0.0, 0.0, 1.7297050495035183E9, 0.0, 2024-10-23 23:07:29.503
22.0, -44329.186597965556, -52679.843029957185, -37462.395425128394, -18902.758527130907, -12540.379171416662, -12090.147982853412, -187500.02235174447, -187500.02235174447, -0.168, 0.762, 0.582, 192.0, 0.0, 0.0, 0.0, 0.0, 0.0, 0.0, 0.0, 0.0, 0.0, 1.7297050495064943E9, 0.0, 2024-10-23 23:07:29.506
23.0, -46199.08883560763, -54802.8340700667, -14674.233159331461, -20168.448408657125, -14577.31599537325, -14074.200579428743, -187500.02235174447, -187500.02235174447, -0.168, 0.762, 0.582, 192.0, 0.0, 0.0, 0.0, 0.0, 0.0, 0.0, 0.0, 0.0, 0.0, 1.7297050495094855E9, 0.0, 2024-10-23 23:07:29.509
24.0, -47328.05309630073, -55324.12145425337, -8357.853693706238, -21715.189124964374, -15224.711921776763, -14653.401333499114, -187500.02235174447, -187500.02235174447, -0.166, 0.766, 0.582, 192.0, 250.0, 208.0, 23.0, 240.0, 18.0, 48.0, 0.0, 0.0, 0.0, 1.7297050495135083E9, 0.0, 2024-10-23 23:07:29.513
25.0, -46751.936882965194, -54221.889879928814, -18809.641159730098, -21673.056086666118, -14252.522796693183, -13656.155902881135, -187500.02235174447, -187500.02235174447, -0.166, 0.766, 0.582, 192.0, 0.0, 0.0, 0.0, 0.0, 0.0, 0.0, 0.0, 0.0, 0.0, 1.729705049516548E9, 0.0, 2024-10-23 23:07:29.516
26.0, -45336.53501707733, -52472.75411757876, -42572.27242854505, -20725.29741827219, -12606.696797215558, -12014.71084531675, -187500.02235174447, -187500.02235174447, -0.166, 0.766, 0.582, 192.0, 0.0, 0.0, 0.0, 0.0, 0.0, 0.0, 0.0, 0.0, 0.0, 1.72970504951975E9, 0.0, 2024-10-23 23:07:29.519
27.0, -44336.62972886917, -52686.481498060406, -37645.45621221736, -18917.890658127148, -12522.006037474399, -12082.704851949795, -187500.02235174447, -187500.02235174447, -0.166, 0.766, 0.582, 192.0, 0.0, 0.0, 0.0, 0.0, 0.0, 0.0, 0.0, 0.0, 0.0, 1.7297050495225365E9, 0.0, 2024-10-23 23:07:29.522
28.0, -46180.13455630953, -54789.66889258253, -14801.369881793247, -20156.04319048443, -14538.513366998837, -14049.59130878345, -187500.02235174447, -187500.02235174447, -0.166, 0.766, 0.582, 192.0, 0.0, 0.0, 0.0, 0.0, 0.0, 0.0, 0.0, 0.0, 0.0, 1.7297050495265708E9, 0.0, 2024-10-23 23:07:29.526
29.0, -47310.19405248095, -55314.39844541532, -8311.384416983654, -21704.125011458997, -15191.34076730499, -14634.022371056364, -187500.02235174447, -187500.02235174447, -0.166, 0.766, 0.582, 192.0, 0.0, 0.0, 0.0, 0.0, 0.0, 0.0, 0.0, 0.0, 0.0, 1.7297050495296893E9, 0.0, 2024-10-23 23:07:29.529
30.0, -46756.63074930081, -54224.125054374344, -18631.20718374338, -21674.75481924472, -14241.10105527652, -13653.764266224416, -187500.02235174447, -187500.02235174447, -0.166, 0.766, 0.582, 192.0, 0.0, 0.0, 0.0, 0.0, 0.0, 0.0, 0.0, 0.0, 0.0, 1.7297050495350327E9, 0.0, 2024-10-23 23:07:29.535
31.0, -45359.356148166204, -52480.0854897601, -42378.81808028437, -20743.53644174772, -12614.184631608085, -12020.634057597406, -187500.02235174447, -187500.02235174447, -0.166, 0.766, 0.582, 192.0, 0.0, 0.0, 0.0, 0.0, 0.0, 0.0, 0.0, 0.0, 0.0, 1.7297050495356126E9, 0.0, 2024-10-23 23:07:29.535
32.0, -44322.6598885846, -52656.57486397921, -37712.64555605001, -18910.26871326789, -12507.85738323419, -12058.34145049351, -187500.02235174447, -187500.02235174447, -0.166, 0.766, 0.582, 192.0, 0.0, 0.0, 0.0, 0.0, 0.0, 0.0, 0.0, 0.0, 0.0, 1.7297050495396194E9, 0.0, 2024-10-23 23:07:29.539
33.0, -46146.89751230449, -54743.914871682515, -14865.631147102255, -20118.8498877108, -14523.91767786952, -14022.948029392724, -187500.02235174447, -187500.02235174447, -0.166, 0.766, 0.582, 192.0, 0.0, 0.0, 0.0, 0.0, 0.0, 0.0, 0.0, 0.0, 0.0, 1.7297050495467267E9, 0.0, 2024-10-23 23:07:29.546
34.0, -47297.99000000835, -55288.69393929171, -8325.577774712774, -21677.369973345994, -15208.216334368746, -14640.034990314842, -187500.02235174447, -187500.02235174447, -0.166, 0.758, 0.582, 192.0, 250.0, 208.0, 23.0, 176.0, 18.0, 48.0, 0.0, 0.0, 0.0, 1.7297050495467863E9, 0.0, 2024-10-23 23:07:29.546
35.0, -46750.17109515323, -54214.33499030292, -18595.6902618039, -21665.300031340128, -14280.104849351032, -13686.576627084807, -187500.02235174447, -187500.02235174447, -0.166, 0.758, 0.582, 192.0, 0.0, 0.0, 0.0, 0.0, 0.0, 0.0, 0.0, 0.0, 0.0, 1.729705049555892E9, 0.0, 2024-10-23 23:07:29.555
36.0, -45370.37555818267, -52486.43338518541, -42259.07978523729, -20758.82503495515, -12662.576158353826, -12076.558122224586, -187500.02235174447, -187500.02235174447, -0.166, 0.758, 0.582, 192.0, 0.0, 0.0, 0.0, 0.0, 0.0, 0.0, 0.0, 0.0, 0.0, 1.729705049555952E9, 0.0, 2024-10-23 23:07:29.555
37.0, -44315.35086814772, -52640.30279401574, -37834.037880186785, -18926.049044853335, -12524.129453197653, -12100.429785302853, -187500.02235174447, -187500.02235174447, -0.166, 0.758, 0.582, 192.0, 0.0, 0.0, 0.0, 0.0, 0.0, 0.0, 0.0, 0.0, 0.0, 1.7297050495559828E9, 0.0, 2024-10-23 23:07:29.555
38.0, -46120.56715733614, -54726.54756624074, -15011.051596528483, -20112.434937052123, -14522.174241802008, -14052.228814629176, -187500.02235174447, -187500.02235174447, -0.166, 0.758, 0.582, 192.0, 0.0, 0.0, 0.0, 0.0, 0.0, 0.0, 0.0, 0.0, 0.0, 1.7297050495586023E9, 0.0, 2024-10-23 23:07:29.558
39.0, -47279.8627352551, -55289.00686371409, -8400.724339571518, -21679.448685580337, -15214.29600886059, -14672.266205819395, -187500.02235174447, -187500.02235174447, -0.166, 0.758, 0.582, 192.0, 0.0, 0.0, 0.0, 0.0, 0.0, 0.0, 0.0, 0.0, 0.0, 1.7297050495615869E9, 0.0, 2024-10-23 23:07:29.561
40.0, -46744.69491776168, -54223.11922587386, -18579.10526741806, -21670.776208731677, -14281.557712740627, -13712.392891930687, -187500.02235174447, -187500.02235174447, -0.166, 0.758, 0.582, 192.0, 0.0, 0.0, 0.0, 0.0, 0.0, 0.0, 0.0, 0.0, 0.0, 1.7297050495645823E9, 0.0, 2024-10-23 23:07:29.564
41.0, -45382.13257576616, -52506.30408600618, -42138.60388262318, -20773.286613617733, -12670.689841591102, -12101.256799847699, -187500.02235174447, -187500.02235174447, -0.166, 0.758, 0.582, 192.0, 0.0, 0.0, 0.0, 0.0, 0.0, 0.0, 0.0, 0.0, 0.0, 1.729705049568642E9, 0.0, 2024-10-23 23:07:29.568
42.0, -44323.2633856849, -52644.03553533978, -37910.81612239077, -18928.26186755441, -12521.603706074204, -12103.402567315408, -187500.02235174447, -187500.02235174447, -0.166, 0.758, 0.582, 192.0, 0.0, 0.0, 0.0, 0.0, 0.0, 0.0, 0.0, 0.0, 0.0, 1.7297050495716147E9, 0.0, 2024-10-23 23:07:29.571
43.0, -46118.086113701596, -54721.1160923381, -15076.005765915605, -20093.905340898677, -14509.813727118222, -14041.432922057264, -187500.02235174447, -187500.02235174447, -0.166, 0.758, 0.582, 192.0, 0.0, 0.0, 0.0, 0.0, 0.0, 0.0, 0.0, 0.0, 0.0, 1.7297050495756273E9, 0.0, 2024-10-23 23:07:29.575
44.0, -47283.37195913458, -55292.67254980476, -8375.265702636922, -21663.087208639052, -15211.636151270408, -14667.572339483779, -187500.02235174447, -187500.02235174447, -0.168, 0.76, 0.588, 192.0, 250.0, 192.0, 23.0, 192.0, 18.0, 96.0, 0.0, 0.0, 0.0, 1.7297050495806603E9, 0.0, 2024-10-23 23:07:29.580
45.0, -46748.42765908571, -54233.557490534484, -18473.873254522474, -21658.080417881065, -14270.9182823799, -13704.56978137133, -187500.02235174447, -187500.02235174447, -0.168, 0.76, 0.588, 192.0, 0.0, 0.0, 0.0, 0.0, 0.0, 0.0, 0.0, 0.0, 0.0, 1.7297050495850232E9, 0.0, 2024-10-23 23:07:29.585
46.0, -45400.05867481932, -52527.18061532744, -41974.31856087668, -20774.091276418123, -12672.634443358713, -12103.044939404124, -187500.02235174447, -187500.02235174447, -0.168, 0.76, 0.588, 192.0, 0.0, 0.0, 0.0, 0.0, 0.0, 0.0, 0.0, 0.0, 0.0, 1.7297050495876417E9, 0.0, 2024-10-23 23:07:29.587
47.0, -44323.084571729254, -52644.90725337354, -37970.003541708415, -18926.160803575614, -12497.910856951577, -12081.386099026931, -187500.02235174447, -187500.02235174447, -0.168, 0.76, 0.588, 192.0, 0.0, 0.0, 0.0, 0.0, 0.0, 0.0, 0.0, 0.0, 0.0, 1.7297050495916803E9, 0.0, 2024-10-23 23:07:29.591
48.0, -46100.22706988181, -54715.43874924645, -15115.546001857043, -20078.75085815798, -14472.53101736677, -14008.262933285587, -187500.02235174447, -187500.02235174447, -0.168, 0.76, 0.588, 192.0, 0.0, 0.0, 0.0, 0.0, 0.0, 0.0, 0.0, 0.0, 0.0, 1.7297050495956333E9, 0.0, 2024-10-23 23:07:29.595
49.0, -47260.17084838997, -55280.37909035434, -8337.625364974185, -21643.14945258492, -15168.363174004935, -14627.897993075609, -187500.02235174447, -187500.02235174447, -0.168, 0.76, 0.588, 192.0, 0.0, 0.0, 0.0, 0.0, 0.0, 0.0, 0.0, 0.0, 0.0, 1.7297050496003315E9, 0.0, 2024-10-23 23:07:29.600
50.0, -46744.180827639204, -54233.35632483439, -18361.555738634557, -21655.33115331306, -14254.847378116534, -13681.413374115631, -187500.02235174447, -187500.02235174447, -0.168, 0.76, 0.588, 192.0, 0.0, 0.0, 0.0, 0.0, 0.0, 0.0, 0.0, 0.0, 0.0, 1.7297050496036677E9, 0.0, 2024-10-23 23:07:29.603
51.0, -45425.83023617628, -52549.28649059373, -41819.89035843496, -20805.74134656684, -12683.31857720835, -12099.580419013551, -187500.02235174447, -187500.02235174447, -0.168, 0.76, 0.588, 192.0, 0.0, 0.0, 0.0, 0.0, 0.0, 0.0, 0.0, 0.0, 0.0, 1.7297050496097455E9, 0.0, 2024-10-23 23:07:29.609
52.0, -44335.9144730466, -52641.55449170524, -38093.56398505736, -18954.18989112257, -12488.456069046983, -12055.212206269767, -187500.02235174447, -187500.02235174447, -0.168, 0.76, 0.588, 192.0, 0.0, 0.0, 0.0, 0.0, 0.0, 0.0, 0.0, 0.0, 0.0, 1.7297050496126647E9, 0.0, 2024-10-23 23:07:29.612
53.0, -46093.11921514502, -54692.43880420194, -15222.901430475884, -20073.609956933255, -14459.276432904773, -13971.829589823437, -187500.02235174447, -187500.02235174447, -0.168, 0.76, 0.588, 192.0, 0.0, 0.0, 0.0, 0.0, 0.0, 0.0, 0.0, 0.0, 0.0, 1.729705049618527E9, 0.0, 2024-10-23 23:07:29.618
54.0, -47265.579970548155, -55275.10407866289, -8302.533126179353, -21653.922993412376, -15176.879188642406, -14616.185678981028, -187500.02235174447, -187500.02235174447, -0.17, 0.762, 0.584, 192.0, 250.0, 176.0, 23.0, 208.0, 18.0, 64.0, 0.0, 0.0, 0.0, 1.7297050496230907E9, 0.0, 2024-10-23 23:07:29.623
55.0, -46756.139010922794, -54241.67117377176, -18224.8524695459, -21691.29511014165, -14286.430393031884, -13701.03820574739, -187500.02235174447, -187500.02235174447, -0.17, 0.762, 0.584, 192.0, 0.0, 0.0, 0.0, 0.0, 0.0, 0.0, 0.0, 0.0, 0.0, 1.7297050496237693E9, 0.0, 2024-10-23 23:07:29.623
56.0, -45439.24128284947, -52558.763630242785, -41694.05003715158, -20860.681934437984, -12731.79951093191, -12141.825216034082, -187500.02235174447, -187500.02235174447, -0.17, 0.762, 0.584, 192.0, 0.0, 0.0, 0.0, 0.0, 0.0, 0.0, 0.0, 0.0, 0.0, 1.7297050496276977E9, 0.0, 2024-10-23 23:07:29.627
57.0, -44320.46941762798, -52621.99671530685, -38311.24762430759, -18993.43955438609, -12518.295647894818, -12089.142154352923, -187500.02235174447, -187500.02235174447, -0.17, 0.762, 0.584, 192.0, 0.0, 0.0, 0.0, 0.0, 0.0, 0.0, 0.0, 0.0, 0.0, 1.7297050496317403E9, 0.0, 2024-10-23 23:07:29.631
58.0, -46053.84720013705, -54665.21437945538, -15416.914572347949, -20086.93159662862, -14480.130610481574, -14007.972360607668, -187500.02235174447, -187500.02235174447, -0.17, 0.762, 0.584, 192.0, 0.0, 0.0, 0.0, 0.0, 0.0, 0.0, 0.0, 0.0, 0.0, 1.7297050496357653E9, 0.0, 2024-10-23 23:07:29.635
59.0, -47231.02417362025, -55261.46951454515, -8365.632100776686, -21664.249499350728, -15206.070566901037, -14662.431438259058, -187500.02235174447, -187500.02235174447, -0.17, 0.762, 0.584, 192.0, 0.0, 0.0, 0.0, 0.0, 0.0, 0.0, 0.0, 0.0, 0.0, 1.7297050496387036E9, 0.0, 2024-10-23 23:07:29.638
60.0, -46735.39659206827, -54240.95591794919, -18187.301538860982, -21708.841229539066, -14328.429320863406, -13754.302412784387, -187500.02235174447, -187500.02235174447, -0.17, 0.762, 0.584, 192.0, 0.0, 0.0, 0.0, 0.0, 0.0, 0.0, 0.0, 0.0, 0.0, 1.729705049643751E9, 0.0, 2024-10-23 23:07:29.643
61.0, -45440.51533228342, -52569.045432692226, -41578.98325669566, -20890.722678985916, -12781.554494089425, -12196.586989949583, -187500.02235174447, -187500.02235174447, -0.17, 0.762, 0.584, 192.0, 0.0, 0.0, 0.0, 0.0, 0.0, 0.0, 0.0, 0.0, 0.0, 1.7297050496478157E9, 0.0, 2024-10-23 23:07:29.647
62.0, -44313.13804544664, -52614.91121231452, -38441.46888750421, -19015.43367093011, -12546.503549397416, -12113.662018020394, -187500.02235174447, -187500.02235174447, -0.17, 0.762, 0.584, 192.0, 0.0, 0.0, 0.0, 0.0, 0.0, 0.0, 0.0, 0.0, 0.0, 1.7297050496519525E9, 0.0, 2024-10-23 23:07:29.651
63.0, -46047.45460122283, -54667.404850412, -15517.497422396831, -20091.580759475324, -14500.29188398026, -14022.612753225894, -187500.02235174447, -187500.02235174447, -0.17, 0.762, 0.584, 192.0, 0.0, 0.0, 0.0, 0.0, 0.0, 0.0, 0.0, 0.0, 0.0, 1.7297050496557152E9, 0.0, 2024-10-23 23:07:29.655
64.0, -47234.466342266365, -55272.645386772805, -8306.623495414675, -21667.423447063382, -15218.945171707293, -14674.501380264925, -187500.02235174447, -187500.02235174447, -0.166, 0.76, 0.586, 192.0, 250.0, 208.0, 23.0, 192.0, 18.0, 80.0, 0.0, 0.0, 0.0, 1.729705049659914E9, 0.0, 2024-10-23 23:07:29.659
65.0, -46740.828065970905, -54254.746944278115, -18027.777138683457, -21706.538999860168, -14334.12901569951, -13762.125523343746, -187500.02235174447, -187500.02235174447, -0.166, 0.76, 0.586, 192.0, 0.0, 0.0, 0.0, 0.0, 0.0, 0.0, 0.0, 0.0, 0.0, 1.729705049663775E9, 0.0, 2024-10-23 23:07:29.663
66.0, -45447.869056209216, -52582.56823808769, -41393.73199865007, -20889.091001640678, -12779.520485343992, -12195.871734127013, -187500.02235174447, -187500.02235174447, -0.166, 0.76, 0.586, 192.0, 0.0, 0.0, 0.0, 0.0, 0.0, 0.0, 0.0, 0.0, 0.0, 1.729705049666782E9, 0.0, 2024-10-23 23:07:29.666
67.0, -44299.68229528455, -52604.09296799815, -38568.96323787728, -18993.394850897177, -12507.723272767458, -12082.526037994152, -187500.02235174447, -187500.02235174447, -0.166, 0.76, 0.586, 192.0, 0.0, 0.0, 0.0, 0.0, 0.0, 0.0, 0.0, 0.0, 0.0, 1.7297050496719449E9, 0.0, 2024-10-23 23:07:29.671
68.0, -46035.094086539044, -54671.36110918059, -15646.2434704594, -20058.522529425925, -14477.984843013865, -14003.0549768275, -187500.02235174447, -187500.02235174447, -0.166, 0.76, 0.586, 192.0, 0.0, 0.0, 0.0, 0.0, 0.0, 0.0, 0.0, 0.0, 0.0, 1.7297050496768243E9, 0.0, 2024-10-23 23:07:29.676
69.0, -47236.433295778435, -55298.32754115195, -8284.271750959368, -21646.748083442224, -15230.277506146134, -14677.675327977578, -187500.02235174447, -187500.02235174447, -0.166, 0.76, 0.586, 192.0, 0.0, 0.0, 0.0, 0.0, 0.0, 0.0, 0.0, 0.0, 0.0, 1.7297050496807857E9, 0.0, 2024-10-23 23:07:29.680
70.0, -46746.572464295925, -54285.05590975952, -17891.006814361433, -21701.331043402082, -14352.010411263755, -13766.081782112335, -187500.02235174447, -187500.02235174447, -0.166, 0.76, 0.586, 192.0, 0.0, 0.0, 0.0, 0.0, 0.0, 0.0, 0.0, 0.0, 0.0, 1.7297050496850426E9, 0.0, 2024-10-23 23:07:29.685
71.0, -45439.73302122748, -52589.653741080016, -41188.230060127986, -20881.536112014786, -12768.992813705543, -12175.68810888387, -187500.02235174447, -187500.02235174447, -0.166, 0.76, 0.586, 192.0, 0.0, 0.0, 0.0, 0.0, 0.0, 0.0, 0.0, 0.0, 0.0, 1.7297050496877956E9, 0.0, 2024-10-23 23:07:29.687
72.0, -44276.257667095386, -52584.334025899654, -38701.66554470844, -18980.296728646368, -12477.347252052696, -12037.554328150074, -187500.02235174447, -187500.02235174447, -0.166, 0.76, 0.586, 192.0, 0.0, 0.0, 0.0, 0.0, 0.0, 0.0, 0.0, 0.0, 0.0, 1.7297050496918344E9, 0.0, 2024-10-23 23:07:29.691
73.0, -46007.89201353693, -54654.95492875039, -15794.41318445363, -20032.10276747975, -14435.650639015514, -13945.94626974419, -187500.02235174447, -187500.02235174447, -0.166, 0.76, 0.586, 192.0, 0.0, 0.0, 0.0, 0.0, 0.0, 0.0, 0.0, 0.0, 0.0, 1.729705049696813E9, 0.0, 2024-10-23 23:07:29.696
74.0, -47226.24090030681, -55295.55592483949, -8295.939361565037, -21628.687873922336, -15194.492363273188, -14628.121510520163, -187500.02235174447, -187500.02235174447, -0.17400000000000002, 0.76, 0.59, 192.0, 250.0, 144.0, 23.0, 192.0, 18.0, 112.0, 0.0, 0.0, 0.0, 1.7297050497018166E9, 0.0, 2024-10-23 23:07:29.701
75.0, -46754.23911264409, -54288.40867142781, -17779.315147318262, -21691.00453746373, -14329.815129019635, -13732.174185773634, -187500.02235174447, -187500.02235174447, -0.17400000000000002, 0.76, 0.59, 192.0, 0.0, 0.0, 0.0, 0.0, 0.0, 0.0, 0.0, 0.0, 0.0, 1.7297050497068148E9, 0.0, 2024-10-23 23:07:29.706
76.0, -45478.89327751318, -52612.027837279784, -41038.1380961106, -20899.23869362339, -12783.320281901393, -12180.73960313077, -187500.02235174447, -187500.02235174447, -0.17400000000000002, 0.76, 0.59, 192.0, 0.0, 0.0, 0.0, 0.0, 0.0, 0.0, 0.0, 0.0, 0.0, 1.729705049710134E9, 0.0, 2024-10-23 23:07:29.710
77.0, -44290.24985912441, -52573.67224379448, -38853.83622096017, -18987.27047291642, -12469.926472893534, -12036.056761271568, -187500.02235174447, -187500.02235174447, -0.17400000000000002, 0.76, 0.59, 192.0, 0.0, 0.0, 0.0, 0.0, 0.0, 0.0, 0.0, 0.0, 0.0, 1.72970504971493E9, 0.0, 2024-10-23 23:07:29.714
78.0, -46000.27006867767, -54627.88696621502, -15940.213613535598, -20012.09795619225, -14427.13462437804, -13961.436028651719, -187500.02235174447, -187500.02235174447, -0.17400000000000002, 0.76, 0.59, 192.0, 0.0, 0.0, 0.0, 0.0, 0.0, 0.0, 0.0, 0.0, 0.0, 1.7297050497182128E9, 0.0, 2024-10-23 23:07:29.718
79.0, -47227.42554276295, -55282.144878166306, -8308.45633846001, -21618.04844356161, -15217.894639717895, -14680.558703012313, -187500.02235174447, -187500.02235174447, -0.17400000000000002, 0.76, 0.59, 192.0, 0.0, 0.0, 0.0, 0.0, 0.0, 0.0, 0.0, 0.0, 0.0, 1.7297050497208645E9, 0.0, 2024-10-23 23:07:29.720
80.0, -46759.357662124356, -54284.251246959124, -17702.22398069191, -21696.301900899638, -14366.851969582078, -13799.452936584108, -187500.02235174447, -187500.02235174447, -0.17400000000000002, 0.76, 0.59, 192.0, 0.0, 0.0, 0.0, 0.0, 0.0, 0.0, 0.0, 0.0, 0.0, 1.729705049723903E9, 0.0, 2024-10-23 23:07:29.723
81.0, -45491.65612359716, -52612.877203569085, -40961.62807484008, -20922.752728790372, -12832.337657491882, -12252.913385976957, -187500.02235174447, -187500.02235174447, -0.17400000000000002, 0.76, 0.59, 192.0, 0.0, 0.0, 0.0, 0.0, 0.0, 0.0, 0.0, 0.0, 0.0, 1.7297050497279E9, 0.0, 2024-10-23 23:07:29.727
82.0, -44282.33734158723, -52550.44878130541, -39131.2884248839, -19007.521153392932, -12497.642636018114, -12079.19562807031, -187500.02235174447, -187500.02235174447, -0.17400000000000002, 0.76, 0.59, 192.0, 0.0, 0.0, 0.0, 0.0, 0.0, 0.0, 0.0, 0.0, 0.0, 1.7297050497318933E9, 0.0, 2024-10-23 23:07:29.731
83.0, -45978.18654515583, -54607.34571306059, -16145.581441590959, -20012.34382538126, -14455.856616003111, -13996.550619191006, -187500.02235174447, -187500.02235174447, -0.17400000000000002, 0.76, 0.59, 192.0, 0.0, 0.0, 0.0, 0.0, 0.0, 0.0, 0.0, 0.0, 0.0, 1.729705049735937E9, 0.0, 2024-10-23 23:07:29.735
84.0, -47213.142778056004, -55276.91456996377, -8301.907277334605, -21626.877382621453, -15248.002439499192, -14717.5731918303, -187500.02235174447, -187500.02235174447, -0.17200000000000001, 0.756, 0.586, 192.0, 250.0, 160.0, 23.0, 160.0, 18.0, 80.0, 0.0, 0.0, 0.0, 1.729705049739906E9, 0.0, 2024-10-23 23:07:29.739
85.0, -46760.005862713566, -54289.727424350676, -17585.637281613028, -21714.92090403091, -14397.675025185947, -13836.60153586883, -187500.02235174447, -187500.02235174447, -0.17200000000000001, 0.756, 0.586, 192.0, 0.0, 0.0, 0.0, 0.0, 0.0, 0.0, 0.0, 0.0, 0.0, 1.7297050497439313E9, 0.0, 2024-10-23 23:07:29.743
86.0, -45510.1410162617, -52625.3718287196, -40848.528247896225, -20952.569955893752, -12860.947890394675, -12285.837505559624, -187500.02235174447, -187500.02235174447, -0.17200000000000001, 0.756, 0.586, 192.0, 0.0, 0.0, 0.0, 0.0, 0.0, 0.0, 0.0, 0.0, 0.0, 1.7297050497468965E9, 0.0, 2024-10-23 23:07:29.746
87.0, -44283.81255672128, -52541.82100794566, -39338.95848261815, -19030.63285715972, -12498.559057540782, -12082.816610672071, -187500.02235174447, -187500.02235174447, -0.17200000000000001, 0.756, 0.586, 192.0, 0.0, 0.0, 0.0, 0.0, 0.0, 0.0, 0.0, 0.0, 0.0, 1.729705049750908E9, 0.0, 2024-10-23 23:07:29.750
88.0, -45958.78523096863, -54590.76071867475, -16285.838638048011, -20005.9735782115, -14432.409636069493, -13975.517627658563, -187500.02235174447, -187500.02235174447, -0.17200000000000001, 0.756, 0.586, 192.0, 0.0, 0.0, 0.0, 0.0, 0.0, 0.0, 0.0, 0.0, 0.0, 1.7297050497549071E9, 0.0, 2024-10-23 23:07:29.754
89.0, -47208.4936152093, -55277.85334323089, -8222.782101962817, -21621.244743018717, -15234.949020737295, -14701.591694544757, -187500.02235174447, -187500.02235174447, -0.17200000000000001, 0.756, 0.586, 192.0, 0.0, 0.0, 0.0, 0.0, 0.0, 0.0, 0.0, 0.0, 0.0, 1.7297050497600803E9, 0.0, 2024-10-23 23:07:29.760
90.0, -46771.00292098557, -54306.55828792552, -17392.562913008085, -21725.314465202628, -14391.952978605388, -13830.611268354807, -187500.02235174447, -187500.02235174447, -0.17200000000000001, 0.756, 0.586, 192.0, 0.0, 0.0, 0.0, 0.0, 0.0, 0.0, 0.0, 0.0, 0.0, 1.7297050497639475E9, 0.0, 2024-10-23 23:07:29.763
91.0, -45527.73183914803, -52649.019974353316, -40677.49269932422, -20976.799246883304, -12855.11408509184, -12277.165028710966, -187500.02235174447, -187500.02235174447, -0.17200000000000001, 0.756, 0.586, 192.0, 0.0, 0.0, 0.0, 0.0, 0.0, 0.0, 0.0, 0.0, 0.0, 1.7297050497680235E9, 0.0, 2024-10-23 23:07:29.768
92.0, -44285.04190266632, -52543.74325796882, -39542.04643273907, -19041.875784620737, -12463.913853635057, -12045.936232320813, -187500.02235174447, -187500.02235174447, -0.17200000000000001, 0.756, 0.586, 192.0, 0.0, 0.0, 0.0, 0.0, 0.0, 0.0, 0.0, 0.0, 0.0, 1.72970504977189E9, 0.0, 2024-10-23 23:07:29.771
93.0, -45949.039870386114, -54591.453622752866, -16447.665267904435, -19979.57616800978, -14397.026824596744, -13932.445816093186, -187500.02235174447, -187500.02235174447, -0.17200000000000001, 0.756, 0.586, 192.0, 0.0, 0.0, 0.0, 0.0, 0.0, 0.0, 0.0, 0.0, 0.0, 1.7297050497749894E9, 0.0, 2024-10-23 23:07:29.774
94.0, -47218.70836242537, -55299.24396267462, -8208.298171555778, -21601.03876603112, -15217.447604828789, -14673.339089553248, -187500.02235174447, -187500.02235174447, -0.168, 0.758, 0.588, 192.0, 250.0, 192.0, 23.0, 176.0, 18.0, 96.0, 0.0, 0.0, 0.0, 1.729705049778929E9, 0.0, 2024-10-23 23:07:29.778
95.0, -46783.78811881401, -54327.14424456886, -17253.356248540433, -21716.552581376145, -14373.825713852135, -13795.16140164869, -187500.02235174447, -187500.02235174447, -0.168, 0.758, 0.588, 192.0, 0.0, 0.0, 0.0, 0.0, 0.0, 0.0, 0.0, 0.0, 0.0, 1.729705049782956E9, 0.0, 2024-10-23 23:07:29.782
96.0, -45546.46260100158, -52666.32022456172, -40475.634095148336, -20979.503807962396, -12838.439683728182, -12240.463464315351, -187500.02235174447, -187500.02235174447, -0.168, 0.758, 0.588, 192.0, 0.0, 0.0, 0.0, 0.0, 0.0, 0.0, 0.0, 0.0, 0.0, 1.7297050497879148E9, 0.0, 2024-10-23 23:07:29.787
97.0, -44283.96901893247, -52533.30499330819, -39605.92771839234, -19037.941877596604, -12432.956687564456, -11991.08505142749, -187500.02235174447, -187500.02235174447, -0.168, 0.758, 0.588, 192.0, 0.0, 0.0, 0.0, 0.0, 0.0, 0.0, 0.0, 0.0, 0.0, 1.7297050497919776E9, 0.0, 2024-10-23 23:07:29.791
98.0, -45931.24788179969, -54572.38758473249, -16537.18400444794, -19962.00769686791, -14355.184358976408, -13876.611158443828, -187500.02235174447, -187500.02235174447, -0.168, 0.758, 0.588, 192.0, 0.0, 0.0, 0.0, 0.0, 0.0, 0.0, 0.0, 0.0, 0.0, 1.7297050497959592E9, 0.0, 2024-10-23 23:07:29.795
99.0, -47212.24870827779, -55292.53843933802, -8201.704406941462, -21598.378908440936, -15193.173610350324, -14645.019429328375, -187500.02235174447, -187500.02235174447, -0.168, 0.758, 0.588, 192.0, 0.0, 0.0, 0.0, 0.0, 0.0, 0.0, 0.0, 0.0, 0.0, 1.729705049800132E9, 0.0, 2024-10-23 23:07:29.800
100.0, -46793.466424163154, -54335.3249830395, -17161.267061384566, -21732.265857728227, -14375.83737085311, -13799.676454028662, -187500.02235174447, -187500.02235174447, -0.168, 0.758, 0.588, 192.0, 0.0, 0.0, 0.0, 0.0, 0.0, 0.0, 0.0, 0.0, 0.0, 1.7297050498029745E9, 0.0, 2024-10-23 23:07:29.802
101.0, -45571.96594142508, -52684.9839311819, -40327.82200906539, -21017.45707004751, -12869.553312009968, -12272.940549008912, -187500.02235174447, -187500.02235174447, -0.168, 0.758, 0.588, 192.0, 0.0, 0.0, 0.0, 0.0, 0.0, 0.0, 0.0, 0.0, 0.0, 1.7297050498069491E9, 0.0, 2024-10-23 23:07:29.806
102.0, -44291.456853325, -52523.15730132548, -39823.231377986835, -19069.748409956504, -12446.948879593478, -12010.508717359153, -187500.02235174447, -187500.02235174447, -0.168, 0.758, 0.588, 192.0, 0.0, 0.0, 0.0, 0.0, 0.0, 0.0, 0.0, 0.0, 0.0, 1.729705049811114E9, 0.0, 2024-10-23 23:07:29.811
103.0, -45914.37231473593, -54554.93087231289, -16767.630489782154, -19961.158330578608, -14357.12896074402, -13894.55960924144, -187500.02235174447, -187500.02235174447, -0.168, 0.758, 0.588, 192.0, 0.0, 0.0, 0.0, 0.0, 0.0, 0.0, 0.0, 0.0, 0.0, 1.7297050498150003E9, 0.0, 2024-10-23 23:07:29.815
104.0, -47201.49751919479, -55287.50929683558, -8267.172666451057, -21601.41874568686, -15227.77411076714, -14686.19134261505, -187500.02235174447, -187500.02235174447, -0.166, 0.762, 0.588, 192.0, 250.0, 208.0, 23.0, 208.0, 18.0, 96.0, 0.0, 0.0, 0.0, 1.7297050498201685E9, 0.0, 2024-10-23 23:07:29.820
105.0, -46794.60636313038, -54342.45518952074, -17092.75896462905, -21748.515575947236, -14426.508775533293, -13857.992155312557, -187500.02235174447, -187500.02235174447, -0.166, 0.762, 0.588, 192.0, 0.0, 0.0, 0.0, 0.0, 0.0, 0.0, 0.0, 0.0, 0.0, 1.729705049823964E9, 0.0, 2024-10-23 23:07:29.823
106.0, -45578.872630461774, -52691.153012651564, -40175.89720200267, -21040.658180792117, -12916.60373408839, -12331.68093343746, -187500.02235174447, -187500.02235174447, -0.166, 0.762, 0.588, 192.0, 0.0, 0.0, 0.0, 0.0, 0.0, 0.0, 0.0, 0.0, 0.0, 1.729705049828022E9, 0.0, 2024-10-23 23:07:29.828
107.0, -44274.46952753896, -52499.10682429157, -39968.651827413065, -19078.77851471645, -12467.110153092164, -12044.393961953398, -187500.02235174447, -187500.02235174447, -0.166, 0.762, 0.588, 192.0, 0.0, 0.0, 0.0, 0.0, 0.0, 0.0, 0.0, 0.0, 0.0, 1.7297050498310254E9, 0.0, 2024-10-23 23:07:29.831
108.0, -45887.50551790065, -54527.99702024425, -16938.062541253872, -19947.18849029404, -14371.635242895514, -13915.61495251834, -187500.02235174447, -187500.02235174447, -0.166, 0.762, 0.588, 192.0, 0.0, 0.0, 0.0, 0.0, 0.0, 0.0, 0.0, 0.0, 0.0, 1.7297050498349977E9, 0.0, 2024-10-23 23:07:29.834
109.0, -47190.12048126703, -55279.12739266484, -8307.964600081992, -21582.822094300045, -15239.35231439499, -14704.34095911276, -187500.02235174447, -187500.02235174447, -0.166, 0.762, 0.588, 192.0, 0.0, 0.0, 0.0, 0.0, 0.0, 0.0, 0.0, 0.0, 0.0, 1.7297050498390083E9, 0.0, 2024-10-23 23:07:29.839
110.0, -46795.90276430878, -54345.159750599836, -17027.827146986383, -21734.366921707027, -14443.898432719521, -13873.526617708996, -187500.02235174447, -187500.02235174447, -0.166, 0.762, 0.588, 192.0, 0.0, 0.0, 0.0, 0.0, 0.0, 0.0, 0.0, 0.0, 0.0, 1.7297050498430276E9, 0.0, 2024-10-23 23:07:29.843
111.0, -45593.065988190894, -52702.66416104605, -40040.42327885905, -21030.286971364854, -12933.144024985317, -12340.398113775029, -187500.02235174447, -187500.02235174447, -0.166, 0.762, 0.588, 192.0, 0.0, 0.0, 0.0, 0.0, 0.0, 0.0, 0.0, 0.0, 0.0, 1.7297050498480315E9, 0.0, 2024-10-23 23:07:29.848
112.0, -44286.49476605592, -52500.13500453651, -40116.77683791838, -19064.406343031686, -12445.585423181705, -12020.567002364041, -187500.02235174447, -187500.02235174447, -0.166, 0.762, 0.588, 192.0, 0.0, 0.0, 0.0, 0.0, 0.0, 0.0, 0.0, 0.0, 0.0, 1.7297050498520436E9, 0.0, 2024-10-23 23:07:29.852
113.0, -45882.476375398204, -54526.47710162128, -17081.180761001204, -19912.78915557732, -14335.35836164455, -13880.746231168061, -187500.02235174447, -187500.02235174447, -0.166, 0.762, 0.588, 192.0, 0.0, 0.0, 0.0, 0.0, 0.0, 0.0, 0.0, 0.0, 0.0, 1.7297050498560772E9, 0.0, 2024-10-23 23:07:29.856
114.0, -47185.180745742415, -55286.414061357274, -8299.73915812244, -21549.138015405897, -15209.669197758341, -14678.234121588961, -187500.02235174447, -187500.02235174447, -0.166, 0.762, 0.588, 192.0, 0.0, 0.0, 0.0, 0.0, 0.0, 0.0, 0.0, 0.0, 0.0, 1.729705049859058E9, 0.0, 2024-10-23 23:07:29.859
115.0, -46800.55192715549, -54363.30936709754, -16911.19574441859, -21712.909247029933, -14416.56224925068, -13851.398390698241, -187500.02235174447, -187500.02235174447, -0.178, 0.754, 0.5760000000000001, 192.0, 250.0, 112.0, 23.0, 144.0, 18.0, 0.0, 0.0, 0.0, 0.0, 1.729705049863053E9, 0.0, 2024-10-23 23:07:29.863
116.0, -45606.8123110309, -52723.38422815612, -39854.92615162446, -21022.57561952777, -12909.518231096057, -12323.187270544442, -187500.02235174447, -187500.02235174447, -0.178, 0.754, 0.5760000000000001, 192.0, 0.0, 0.0, 0.0, 0.0, 0.0, 0.0, 0.0, 0.0, 0.0, 1.7297050498670497E9, 0.0, 2024-10-23 23:07:29.867
117.0, -44278.58224851874, -52492.15543176597, -40242.17012431266, -19052.604621959286, -12407.855678541146, -11982.680795512295, -187500.02235174447, -187500.02235174447, -0.178, 0.754, 0.5760000000000001, 192.0, 0.0, 0.0, 0.0, 0.0, 0.0, 0.0, 0.0, 0.0, 0.0, 1.7297050498710675E9, 0.0, 2024-10-23 23:07:29.871
118.0, -45859.342319886964, -54507.478118834275, -17179.327270904454, -19873.65125103608, -14292.73358496828, -13836.668591102194, -187500.02235174447, -187500.02235174447, -0.178, 0.754, 0.5760000000000001, 192.0, 0.0, 0.0, 0.0, 0.0, 0.0, 0.0, 0.0, 0.0, 0.0, 1.7297050498761046E9, 0.0, 2024-10-23 23:07:29.876
119.0, -47181.98444628531, -55284.82708750095, -8268.893750774116, -21525.10989011644, -15188.658557970353, -14652.708429421, -187500.02235174447, -187500.02235174447, -0.178, 0.754, 0.5760000000000001, 192.0, 0.0, 0.0, 0.0, 0.0, 0.0, 0.0, 0.0, 0.0, 0.0, 1.7297050498800848E9, 0.0, 2024-10-23 23:07:29.880
120.0, -46797.802662587485, -54361.81180021904, -16794.117306961693, -21697.084211955575, -14401.161897320975, -13837.227384713577, -187500.02235174447, -187500.02235174447, -0.178, 0.754, 0.5760000000000001, 192.0, 0.0, 0.0, 0.0, 0.0, 0.0, 0.0, 0.0, 0.0, 0.0, 1.7297050498841057E9, 0.0, 2024-10-23 23:07:29.884
121.0, -45615.574194857385, -52731.96729802696, -39701.749646872246, -21027.582410285762, -12909.451175862692, -12325.780072901258, -187500.02235174447, -187500.02235174447, -0.178, 0.754, 0.5760000000000001, 192.0, 0.0, 0.0, 0.0, 0.0, 0.0, 0.0, 0.0, 0.0, 0.0, 1.7297050498871171E9, 0.0, 2024-10-23 23:07:29.887
122.0, -44278.80576596329, -52482.1865537389, -40398.34176282189, -19067.602642488797, -12397.149192947054, -11971.348461073454, -187500.02235174447, -187500.02235174447, -0.178, 0.754, 0.5760000000000001, 192.0, 0.0, 0.0, 0.0, 0.0, 0.0, 0.0, 0.0, 0.0, 0.0, 1.7297050498910975E9, 0.0, 2024-10-23 23:07:29.891
123.0, -45847.048860436546, -54491.898952948926, -17326.826432565027, -19874.858245236665, -14275.858017904524, -13822.11760546179, -187500.02235174447, -187500.02235174447, -0.178, 0.754, 0.5760000000000001, 192.0, 0.0, 0.0, 0.0, 0.0, 0.0, 0.0, 0.0, 0.0, 0.0, 1.7297050498951106E9, 0.0, 2024-10-23 23:07:29.895
124.0, -47178.29640845018, -55280.960235710176, -8275.375756666155, -21533.491794287183, -15191.273712071625, -14660.620946958179, -187500.02235174447, -187500.02235174447, -0.178, 0.754, 0.5760000000000001, 192.0, 0.0, 0.0, 0.0, 0.0, 0.0, 0.0, 0.0, 0.0, 0.0, 1.7297050498991747E9, 0.0, 2024-10-23 23:07:29.899
125.0, -46814.27589825105, -54376.675710281816, -16711.617018177156, -21733.137575761983, -14418.037464384732, -13866.1728937832, -187500.02235174447, -187500.02235174447, -0.18, 0.76, 0.5740000000000001, 192.0, 250.0, 96.0, 23.0, 192.0, 17.0, 240.0, 0.0, 0.0, 0.0, 1.7297050499031303E9, 0.0, 2024-10-23 23:07:29.903
126.0, -45633.23207297708, -52748.1499610126, -39569.20380225227, -21078.522035899405, -12938.664905865779, -12368.270739110798, -187500.02235174447, -187500.02235174447, -0.18, 0.76, 0.5740000000000001, 192.0, 0.0, 0.0, 0.0, 0.0, 0.0, 0.0, 0.0, 0.0, 0.0, 1.72970504990814E9, 0.0, 2024-10-23 23:07:29.908
127.0, -44281.979713675944, -52471.97180652283, -40594.29950646157, -19114.07191921138, -12416.617562367626, -12005.412519623342, -187500.02235174447, -187500.02235174447, -0.18, 0.76, 0.5740000000000001, 192.0, 0.0, 0.0, 0.0, 0.0, 0.0, 0.0, 0.0, 0.0, 0.0, 1.7297050499121451E9, 0.0, 2024-10-23 23:07:29.912
128.0, -45842.33264235647, -54482.46651678879, -17610.11244179159, -19904.876638040143, -14302.814221717623, -13860.339088480365, -187500.02235174447, -187500.02235174447, -0.18, 0.76, 0.5740000000000001, 192.0, 0.0, 0.0, 0.0, 0.0, 0.0, 0.0, 0.0, 0.0, 0.0, 1.7297050499151697E9, 0.0, 2024-10-23 23:07:29.915
129.0, -47173.04374850318, -55269.136162893315, -8862.734897462715, -21570.729800549725, -15211.859668714962, -14691.57811302878, -187500.02235174447, -187500.02235174447, -0.18, 0.76, 0.5740000000000001, 192.0, 0.0, 0.0, 0.0, 0.0, 0.0, 0.0, 0.0, 0.0, 0.0, 1.729705049919201E9, 0.0, 2024-10-23 23:07:29.919
130.0, -46777.30611292197, -54347.70784946774, -17463.619108631505, -21728.7789855932, -14425.882926688544, -13876.387640999275, -187500.02235174447, -187500.02235174447, -0.18, 0.76, 0.5740000000000001, 192.0, 0.0, 0.0, 0.0, 0.0, 0.0, 0.0, 0.0, 0.0, 0.0, 1.729705049923151E9, 0.0, 2024-10-23 23:07:29.923
131.0, -45611.68499132216, -52783.75628992991, -39019.52970260736, -21031.091634165245, -12991.415022780302, -12425.871184572123, -187500.02235174447, -187500.02235174447, -0.18, 0.76, 0.5740000000000001, 192.0, 0.0, 0.0, 0.0, 0.0, 0.0, 0.0, 0.0, 0.0, 0.0, 1.7297050499271824E9, 0.0, 2024-10-23 23:07:29.927
132.0, -44379.00863635643, -52604.540002887254, -38708.05814362266, -19170.13009430529, -12556.450075680028, -12144.440370135353, -187500.02235174447, -187500.02235174447, -0.18, 0.76, 0.5740000000000001, 192.0, 0.0, 0.0, 0.0, 0.0, 0.0, 0.0, 0.0, 0.0, 0.0, 1.7297050499311607E9, 0.0, 2024-10-23 23:07:29.931
133.0, -45946.33530930702, -54541.251604706245, -16963.901157844204, -20041.91518329563, -14377.200827264885, -13925.628534034317, -187500.02235174447, -187500.02235174447, -0.18, 0.76, 0.5740000000000001, 192.0, 0.0, 0.0, 0.0, 0.0, 0.0, 0.0, 0.0, 0.0, 0.0, 1.7297050499361558E9, 0.0, 2024-10-23 23:07:29.936
134.0, -47122.193529867356, -55188.11108924283, -9609.909011114718, -21566.572376081036, -15141.049342280548, -14611.760033578877, -187500.02235174447, -187500.02235174447, -0.18, 0.76, 0.5740000000000001, 192.0, 0.0, 0.0, 0.0, 0.0, 0.0, 0.0, 0.0, 0.0, 0.0, 1.7297050499401855E9, 0.0, 2024-10-23 23:07:29.940
135.0, -46700.52787071799, -54291.76143309611, -17870.085581551266, -21641.987161873243, -14368.170722504941, -13813.020445468479, -187500.02235174447, -187500.02235174447, -0.182, 0.762, 0.584, 192.0, 250.0, 80.0, 23.0, 208.0, 18.0, 64.0, 0.0, 0.0, 0.0, 1.7297050499432E9, 0.0, 2024-10-23 23:07:29.943
136.0, -45602.31961039539, -52813.46175831101, -38260.352702182856, -20978.922662606557, -13010.704578245233, -12443.014972569345, -187500.02235174447, -187500.02235174447, -0.182, 0.762, 0.584, 192.0, 0.0, 0.0, 0.0, 0.0, 0.0, 0.0, 0.0, 0.0, 0.0, 1.7297050499472055E9, 0.0, 2024-10-23 23:07:29.947
137.0, -44430.57411081483, -52641.77800914979, -37928.2504830659, -19207.99394941258, -12589.932988874078, -12171.061297781624, -187500.02235174447, -187500.02235174447, -0.182, 0.762, 0.584, 192.0, 0.0, 0.0, 0.0, 0.0, 0.0, 0.0, 0.0, 0.0, 0.0, 1.7297050499511917E9, 0.0, 2024-10-23 23:07:29.951
138.0, -45939.741544692704, -54509.98151421327, -16962.381239221246, -20043.435101918592, -14343.472044881826, -13886.065946348423, -187500.02235174447, -187500.02235174447, -0.182, 0.762, 0.584, 192.0, 0.0, 0.0, 0.0, 0.0, 0.0, 0.0, 0.0, 0.0, 0.0, 1.729705049955162E9, 0.0, 2024-10-23 23:07:29.955
139.0, -47091.45988124131, -55146.7156585116, -9656.467694815123, -21522.24886682616, -15090.266178878092, -14557.288832341294, -187500.02235174447, -187500.02235174447, -0.182, 0.762, 0.584, 192.0, 0.0, 0.0, 0.0, 0.0, 0.0, 0.0, 0.0, 0.0, 0.0, 1.729705049959155E9, 0.0, 2024-10-23 23:07:29.959
140.0, -46680.008969308015, -54261.25130191461, -17737.047998553277, -21595.719050850756, -14322.260239393741, -13762.72902044404, -187500.02235174447, -187500.02235174447, -0.182, 0.762, 0.584, 192.0, 0.0, 0.0, 0.0, 0.0, 0.0, 0.0, 0.0, 0.0, 0.0, 1.7297050499641838E9, 0.0, 2024-10-23 23:07:29.964
