%OpenBCI Raw EXG Data
%Number of channels = 8
%Sample Rate = 250 Hz
%Board = OpenBCI_GUI$BoardCytonSerial
Sample Index, EXG Channel 0, EXG Channel 1, EXG Channel 2, EXG Channel 3, EXG Channel 4, EXG Channel 5, EXG Channel 6, EXG Channel 7, Accel Channel 0, Accel Channel 1, Accel Channel 2, Other, Other, Other, Other, Other, Other, Other, Analog Channel 0, Analog Channel 1, Analog Channel 2, Timestamp, Other, Timestamp (Formatted)
0.0, 0.0, 0.0, 0.0, 0.0, 0.0, 0.0, 0.0, 0.0, 0.0, 0.0, 0.0, 192.0, 0.0, 0.0, 0.0, 0.0, 0.0, 0.0, 0.0, 0.0, 0.0, 1.7296915660118904E9, 0.0, 2024-10-23 19:22:46.011
1.0, 22271.41228573469, -100821.76784536456, 40912.94597541642, 26361.870928033703, 19724.252191096806, 23910.756279320274, 122373.65512533845, 6184.146545427626, 0.16, 0.9480000000000001, -0.146, 192.0, 5.0, 0.0, 29.0, 160.0, 251.0, 112.0, 0.0, 0.0, 0.0, 1.7296915660339267E9, 0.0, 2024-10-23 19:22:46.033
2.0, 21579.8940157764, 62380.14249564916, 40080.231735733956, 27204.6211009766, 18774.884197102096, 23091.095458399708, 133615.35324041286, 17269.829484203994, 0.16, 0.9480000000000001, -0.146, 192.0, 0.0, 0.0, 0.0, 0.0, 0.0, 0.0, 0.0, 0.0, 0.0, 1.7296915660368216E9, 0.0, 2024-10-23 19:22:46.036
3.0, 21657.34281031404, 100640.74106702102, 40484.82066211947, 26489.23116794004, 19505.272150668163, 23460.860366923855, 136368.10468055066, 20020.77043304091, 0.16, 0.9480000000000001, -0.146, 192.0, 0.0, 0.0, 0.0, 0.0, 0.0, 0.0, 0.0, 0.0, 0.0, 1.7296915660398805E9, 0.0, 2024-10-23 19:22:46.039
4.0, 22089.469085868488, 27892.3842778664, 41067.93297146952, 25788.794551944084, 20274.663898308743, 24023.587885330664, 131345.42183225416, 15025.4461199577, 0.16, 0.9480000000000001, -0.146, 192.0, 0.0, 0.0, 0.0, 0.0, 0.0, 0.0, 0.0, 0.0, 0.0, 1.7296915660438633E9, 0.0, 2024-10-23 19:22:46.043
5.0, 22461.603279304898, -103863.79556224294, 41546.014433624085, 25259.348781031225, 20933.61567659565, 24542.75185379408, 122259.86239431649, 5911.79053923971, 0.16, 0.9480000000000001, -0.146, 192.0, 0.0, 0.0, 0.0, 0.0, 0.0, 0.0, 0.0, 0.0, 0.0, 1.7296915660468845E9, 0.0, 2024-10-23 19:22:46.046
6.0, 22262.2033670191, -99796.02394056607, 40892.27061179526, 26381.74162885447, 19714.886810170032, 23928.883544073527, 122424.50534397428, 5931.191853426916, 0.16, 0.9480000000000001, -0.146, 192.0, 0.0, 0.0, 0.0, 0.0, 0.0, 0.0, 0.0, 0.0, 0.0, 1.729691566049904E9, 0.0, 2024-10-23 19:22:46.049
7.0, 21566.46061735876, 63102.37206248904, 40054.46017437699, 27215.461697037423, 18768.446894698965, 23110.38501386464, 133676.9546481317, 17062.002964258547, 0.16, 0.9480000000000001, -0.146, 192.0, 0.0, 0.0, 0.0, 0.0, 0.0, 0.0, 0.0, 0.0, 0.0, 1.7296915660539038E9, 0.0, 2024-10-23 19:22:46.053
8.0, 21651.173728844373, 100254.48057108886, 40462.62537987535, 26495.780229065447, 19509.273112925664, 23488.55417830398, 136336.7228313354, 19729.393092321527, 0.162, 0.9500000000000001, -0.146, 192.0, 5.0, 16.0, 29.0, 176.0, 251.0, 112.0, 0.0, 0.0, 0.0, 1.729691566056876E9, 0.0, 2024-10-23 19:22:46.056
9.0, 22075.722763028476, 27250.732749787898, 41032.103125107664, 25797.847008448483, 20273.6357180638, 24045.179670474492, 131302.26061371097, 14733.755854815943, 0.162, 0.9500000000000001, -0.146, 192.0, 0.0, 0.0, 0.0, 0.0, 0.0, 0.0, 0.0, 0.0, 0.0, 1.729691566059862E9, 0.0, 2024-10-23 19:22:46.059
10.0, 22440.413825561267, -104754.80315146485, 41505.825997093445, 25260.28755429835, 20931.916944017048, 24545.523470106542, 122176.02100086464, 5630.404428291849, 0.162, 0.9500000000000001, -0.146, 192.0, 0.0, 0.0, 0.0, 0.0, 0.0, 0.0, 0.0, 0.0, 0.0, 1.7296915660648773E9, 0.0, 2024-10-23 19:22:46.064
11.0, 22227.088776479814, -98835.9271092328, 40837.46413439085, 26385.161445756134, 19679.727516141837, 23889.477418598824, 122458.41294031298, 5821.243622451261, 0.162, 0.9500000000000001, -0.146, 192.0, 0.0, 0.0, 0.0, 0.0, 0.0, 0.0, 0.0, 0.0, 0.0, 1.7296915660729115E9, 0.0, 2024-10-23 19:22:46.072
12.0, 21537.783329222602, 63884.191380046774, 40010.42723780003, 27194.27224329379, 18743.61410660912, 23064.563937731262, 133696.24420359664, 16955.340439717824, 0.162, 0.9500000000000001, -0.146, 192.0, 0.0, 0.0, 0.0, 0.0, 0.0, 0.0, 0.0, 0.0, 0.0, 1.7296915660759041E9, 0.0, 2024-10-23 19:22:46.075
13.0, 21633.6052577025, 99969.07114613905, 40434.95392023968, 26472.914394487667, 19516.403319406905, 23484.664974768755, 136303.86576698613, 19578.340003292564, 0.162, 0.9500000000000001, -0.146, 192.0, 0.0, 0.0, 0.0, 0.0, 0.0, 0.0, 0.0, 0.0, 0.0, 1.7296915660789323E9, 0.0, 2024-10-23 19:22:46.078
14.0, 22061.529405299356, 26665.22880378113, 41012.21007254244, 25773.640069203386, 20279.804799533464, 24045.09026349667, 131232.0761361213, 14537.149910587063, 0.162, 0.9500000000000001, -0.146, 192.0, 0.0, 0.0, 0.0, 0.0, 0.0, 0.0, 0.0, 0.0, 0.0, 1.7296915660829124E9, 0.0, 2024-10-23 19:22:46.082
15.0, 22423.91823815325, -105468.27083447824, 41477.79690954649, 25225.5529434148, 20909.632254795106, 24507.771373721527, 122113.79374430106, 5389.318512596907, 0.162, 0.9500000000000001, -0.146, 192.0, 0.0, 0.0, 0.0, 0.0, 0.0, 0.0, 0.0, 0.0, 0.0, 1.7296915660860267E9, 0.0, 2024-10-23 19:22:46.086
16.0, 22211.48725885001, -97828.22106220973, 40810.776151511214, 26359.814567543814, 19660.23679497681, 23870.970174189828, 122513.50999039531, 5624.436512522282, 0.162, 0.9500000000000001, -0.146, 192.0, 0.0, 0.0, 0.0, 0.0, 0.0, 0.0, 0.0, 0.0, 0.0, 1.7296915660889788E9, 0.0, 2024-10-23 19:22:46.088
17.0, 21528.59676225147, 64423.6060289867, 40002.96175515196, 27157.816548087187, 18754.588813136677, 23046.36961774464, 133684.10720635738, 16653.01074421534, 0.162, 0.9500000000000001, -0.146, 192.0, 0.0, 0.0, 0.0, 0.0, 0.0, 0.0, 0.0, 0.0, 0.0, 1.7296915660929463E9, 0.0, 2024-10-23 19:22:46.092
18.0, 21632.04063559063, 99541.90695785367, 40437.7925917855, 26436.726920214525, 19514.43636589484, 23476.148960131286, 136205.4063326605, 19175.047478085457, 0.164, 0.9480000000000001, -0.15, 192.0, 5.0, 32.0, 29.0, 160.0, 251.0, 80.0, 0.0, 0.0, 0.0, 1.7296915660959606E9, 0.0, 2024-10-23 19:22:46.095
19.0, 22061.46235006599, 25934.3714635815, 41015.048744088264, 25741.408853698835, 20269.07596219492, 24023.3196643972, 131116.76348647638, 14117.942943327778, 0.164, 0.9480000000000001, -0.15, 192.0, 0.0, 0.0, 0.0, 0.0, 0.0, 0.0, 0.0, 0.0, 0.0, 1.7296915660989375E9, 0.0, 2024-10-23 19:22:46.098
20.0, 22431.875459179337, -106317.90534471338, 41492.43730216471, 25205.525780382846, 20908.738185016893, 24513.80634472446, 121987.12640847283, 4972.592588972162, 0.164, 0.9480000000000001, -0.15, 192.0, 0.0, 0.0, 0.0, 0.0, 0.0, 0.0, 0.0, 0.0, 0.0, 1.7296915661029415E9, 0.0, 2024-10-23 19:22:46.102
21.0, 22218.05867171987, -96904.40111212744, 40821.14736093848, 26359.322829165798, 19644.8364430471, 23867.326839843612, 122535.88408659508, 5372.174724599687, 0.164, 0.9480000000000001, -0.15, 192.0, 0.0, 0.0, 0.0, 0.0, 0.0, 0.0, 0.0, 0.0, 0.0, 1.729691566106975E9, 0.0, 2024-10-23 19:22:46.106
22.0, 21541.22549786872, 65187.163971324444, 40028.77801999784, 27153.27914396276, 18760.064990528226, 23068.631955222125, 133714.3044131165, 16422.094872247562, 0.164, 0.9480000000000001, -0.15, 192.0, 0.0, 0.0, 0.0, 0.0, 0.0, 0.0, 0.0, 0.0, 0.0, 1.729691566111972E9, 0.0, 2024-10-23 19:22:46.111
23.0, 21642.501251995713, 99381.04145300883, 40467.028673533045, 26429.79787943338, 19532.921258559378, 23473.042067651997, 136163.60857052906, 18880.02680301986, 0.164, 0.9480000000000001, -0.15, 192.0, 0.0, 0.0, 0.0, 0.0, 0.0, 0.0, 0.0, 0.0, 0.0, 1.7296915661149807E9, 0.0, 2024-10-23 19:22:46.114
24.0, 22071.542986815333, 25334.472994145515, 41041.11087812315, 25737.586705396978, 20282.44230537919, 24015.74242302685, 131021.09802020766, 13762.594909977308, 0.164, 0.9480000000000001, -0.15, 192.0, 0.0, 0.0, 0.0, 0.0, 0.0, 0.0, 0.0, 0.0, 0.0, 1.7296915661189647E9, 0.0, 2024-10-23 19:22:46.118
25.0, 22441.844337206407, -107178.20163705369, 41514.25260475309, 25213.639463620122, 20918.215324665944, 24498.875379428315, 121850.26667717299, 4561.722822394708, 0.164, 0.9480000000000001, -0.15, 192.0, 0.0, 0.0, 0.0, 0.0, 0.0, 0.0, 0.0, 0.0, 0.0, 1.7296915661240044E9, 0.0, 2024-10-23 19:22:46.124
26.0, 22215.421165874144, -95866.11787868952, 40831.607977343556, 26384.98263180049, 19644.389408157997, 23860.28604034019, 122482.2622516468, 5021.632316307106, 0.164, 0.9480000000000001, -0.15, 192.0, 0.0, 0.0, 0.0, 0.0, 0.0, 0.0, 0.0, 0.0, 0.0, 1.7296915661270056E9, 0.0, 2024-10-23 19:22:46.127
27.0, 21541.337256590996, 66046.32032469753, 40045.206552172494, 27176.636716918554, 18766.32347897571, 23081.104228628188, 133669.86914513935, 16065.115161551854, 0.164, 0.9480000000000001, -0.15, 192.0, 0.0, 0.0, 0.0, 0.0, 0.0, 0.0, 0.0, 0.0, 0.0, 1.72969156613102E9, 0.0, 2024-10-23 19:22:46.131
28.0, 21652.5595370006, 99138.9497088134, 40489.805101133, 26448.66275175366, 19542.44310169734, 23469.577547261426, 136025.13951362844, 18427.35927431098, 0.17, 0.9540000000000001, -0.152, 192.0, 5.0, 80.0, 29.0, 208.0, 251.0, 64.0, 0.0, 0.0, 0.0, 1.7296915661370149E9, 0.0, 2024-10-23 19:22:46.137
29.0, 22082.5623968318, 24748.56671673855, 41065.98836970191, 25776.121112837925, 20306.24691322409, 24066.749103873863, 130861.99830317478, 13278.456125075356, 0.17, 0.9540000000000001, -0.152, 192.0, 0.0, 0.0, 0.0, 0.0, 0.0, 0.0, 0.0, 0.0, 0.0, 1.7296915661410084E9, 0.0, 2024-10-23 19:22:46.141
30.0, 22448.505157054085, -107932.79652986486, 41530.23410203864, 25252.643257694635, 20932.654551584073, 24565.841205816414, 121675.3195733213, 4045.196359777017, 0.17, 0.9540000000000001, -0.152, 192.0, 0.0, 0.0, 0.0, 0.0, 0.0, 0.0, 0.0, 0.0, 0.0, 1.7296915661440334E9, 0.0, 2024-10-23 19:22:46.144
31.0, 22211.219037916548, -94967.19777193044, 40828.21051218635, 26428.456774766062, 19637.773291799225, 23879.776761505218, 122434.42951851244, 4617.736293999707, 0.17, 0.9540000000000001, -0.152, 192.0, 0.0, 0.0, 0.0, 0.0, 0.0, 0.0, 0.0, 0.0, 0.0, 1.729691566149006E9, 0.0, 2024-10-23 19:22:46.149
32.0, 21537.760977478145, 66738.86677490077, 40041.67497654855, 27197.62500496209, 18762.680144629496, 23081.774780961845, 133571.767338725, 15598.008405924846, 0.17, 0.9540000000000001, -0.152, 192.0, 0.0, 0.0, 0.0, 0.0, 0.0, 0.0, 0.0, 0.0, 0.0, 1.7296915661530173E9, 0.0, 2024-10-23 19:22:46.153
33.0, 21648.24565032073, 98878.59658939799, 40480.08209229494, 26455.725903001538, 19548.723941889282, 23496.846675496898, 135881.93188690327, 17898.941683643065, 0.17, 0.9540000000000001, -0.152, 192.0, 0.0, 0.0, 0.0, 0.0, 0.0, 0.0, 0.0, 0.0, 0.0, 1.729691566156028E9, 0.0, 2024-10-23 19:22:46.156
34.0, 22075.096914183727, 24110.782040450817, 41044.12836362462, 25763.24650803167, 20296.859180552863, 24060.13298751509, 130691.87917612544, 12721.025970104452, 0.17, 0.9540000000000001, -0.152, 192.0, 0.0, 0.0, 0.0, 0.0, 0.0, 0.0, 0.0, 0.0, 0.0, 1.729691566159085E9, 0.0, 2024-10-23 19:22:46.159
35.0, 22447.141700642314, -108756.83829269867, 41507.68119188323, 25230.447975450516, 20924.47381311343, 24534.23583915661, 121469.63882084357, 3463.581617305472, 0.17, 0.9540000000000001, -0.152, 192.0, 0.0, 0.0, 0.0, 0.0, 0.0, 0.0, 0.0, 0.0, 0.0, 1.729691566163099E9, 0.0, 2024-10-23 19:22:46.163
36.0, 22201.607787800764, -93896.14688112104, 40787.3291715776, 26401.969957586523, 19607.889009462477, 23816.09664155205, 122341.84859297855, 4178.971550342029, 0.17, 0.9540000000000001, -0.152, 192.0, 0.0, 0.0, 0.0, 0.0, 0.0, 0.0, 0.0, 0.0, 0.0, 1.7296915661701632E9, 0.0, 2024-10-23 19:22:46.170
37.0, 21528.194430851276, 67427.14404191304, 40005.353391808676, 27150.015789272285, 18747.3244961887, 23022.49795466637, 133459.38276760373, 15185.976348635717, 0.17, 0.9540000000000001, -0.152, 192.0, 0.0, 0.0, 0.0, 0.0, 0.0, 0.0, 0.0, 0.0, 0.0, 1.7296915661741152E9, 0.0, 2024-10-23 19:22:46.174
38.0, 21640.46724325028, 98625.64189739728, 40447.046213990005, 26411.51415246894, 19518.213810707788, 23491.996346950098, 135702.1344545048, 17490.977643844803, 0.166, 0.9580000000000001, -0.154, 192.0, 5.0, 48.0, 29.0, 240.0, 251.0, 48.0, 0.0, 0.0, 0.0, 1.7296915661770525E9, 0.0, 2024-10-23 19:22:46.177
39.0, 22070.738324014943, 23546.08756853194, 41017.48508423389, 25729.830650070984, 20272.696944796677, 24058.993048547873, 130487.27130738155, 12367.756648988325, 0.166, 0.9580000000000001, -0.154, 192.0, 0.0, 0.0, 0.0, 0.0, 0.0, 0.0, 0.0, 0.0, 0.0, 1.7296915661801465E9, 0.0, 2024-10-23 19:22:46.180
40.0, 22443.855994207384, -109710.56487686216, 41490.67151435274, 25199.490809379913, 20913.499106585874, 24520.668330272238, 121254.95031535035, 3164.5376282379184, 0.166, 0.9580000000000001, -0.154, 192.0, 0.0, 0.0, 0.0, 0.0, 0.0, 0.0, 0.0, 0.0, 0.0, 1.7296915661841803E9, 0.0, 2024-10-23 19:22:46.184
41.0, 22194.455229575065, -92989.02368414684, 40777.27088657271, 26395.80087611686, 19606.480849561794, 23840.39298777497, 122273.49695843423, 4055.455810482003, 0.166, 0.9580000000000001, -0.154, 192.0, 0.0, 0.0, 0.0, 0.0, 0.0, 0.0, 0.0, 0.0, 0.0, 1.7296915661870546E9, 0.0, 2024-10-23 19:22:46.187
42.0, 21519.901933658355, 68247.83304307856, 39997.08324636021, 27120.802059269197, 18744.686990342976, 23031.818632104234, 133366.84654555877, 15035.906736362784, 0.166, 0.9580000000000001, -0.154, 192.0, 0.0, 0.0, 0.0, 0.0, 0.0, 0.0, 0.0, 0.0, 0.0, 1.7296915661910708E9, 0.0, 2024-10-23 19:22:46.191
43.0, 21640.936629883843, 98402.57148773331, 40450.041347747014, 26373.024448516902, 19529.166165490886, 23476.730105487124, 135535.14457167918, 17233.664361675306, 0.166, 0.9580000000000001, -0.154, 192.0, 0.0, 0.0, 0.0, 0.0, 0.0, 0.0, 0.0, 0.0, 0.0, 1.7296915661950853E9, 0.0, 2024-10-23 19:22:46.195
44.0, 22069.352515858714, 22875.95991801738, 41019.09440983467, 25691.787981008052, 20274.39567737528, 24018.536391083766, 130300.41072373519, 12053.535825435618, 0.166, 0.9580000000000001, -0.154, 192.0, 0.0, 0.0, 0.0, 0.0, 0.0, 0.0, 0.0, 0.0, 0.0, 1.729691566200136E9, 0.0, 2024-10-23 19:22:46.200
45.0, 22440.3467703279, -110591.89416073491, 41491.7443980866, 25166.387875841603, 20902.70321401396, 24497.31075731644, 121061.56302232303, 2845.511179627321, 0.166, 0.9580000000000001, -0.154, 192.0, 0.0, 0.0, 0.0, 0.0, 0.0, 0.0, 0.0, 0.0, 0.0, 1.7296915662041185E9, 0.0, 2024-10-23 19:22:46.204
46.0, 22185.425124815123, -92014.24175670645, 40766.00560736723, 26381.853387576746, 19575.031945113176, 23798.371708198993, 122225.53011483313, 3962.9642919259422, 0.166, 0.9580000000000001, -0.154, 192.0, 0.0, 0.0, 0.0, 0.0, 0.0, 0.0, 0.0, 0.0, 0.0, 1.7296915662071338E9, 0.0, 2024-10-23 19:22:46.207
47.0, 21523.25469532665, 69014.74374708459, 40008.03560114332, 27112.755431265286, 18753.493577658366, 23029.158774514053, 133354.70954831954, 15120.016350748105, 0.166, 0.9580000000000001, -0.154, 192.0, 0.0, 0.0, 0.0, 0.0, 0.0, 0.0, 0.0, 0.0, 0.0, 1.7296915662121964E9, 0.0, 2024-10-23 19:22:46.212
48.0, 21643.216507818284, 98049.10100091709, 40459.29496995151, 26352.41614012911, 19536.11755801649, 23453.79721567598, 135470.03394008087, 17401.458907301298, 0.168, 0.9540000000000001, -0.15, 192.0, 5.0, 64.0, 29.0, 208.0, 251.0, 80.0, 0.0, 0.0, 0.0, 1.7296915662151632E9, 0.0, 2024-10-23 19:22:46.215
49.0, 22074.493417083435, 22166.537900750387, 41031.186703584994, 25683.249614626126, 20289.997195005082, 24035.344902914156, 130222.22432163052, 12330.496290981328, 0.168, 0.9540000000000001, -0.15, 192.0, 0.0, 0.0, 0.0, 0.0, 0.0, 0.0, 0.0, 0.0, 0.0, 1.7296915662211027E9, 0.0, 2024-10-23 19:22:46.221
50.0, 22445.53237504153, -111371.05362070247, 41501.914441813766, 25173.451027089483, 20916.628350809617, 24514.52160054703, 121001.57094020498, 3226.787236545949, 0.168, 0.9540000000000001, -0.15, 192.0, 0.0, 0.0, 0.0, 0.0, 0.0, 0.0, 0.0, 0.0, 0.0, 1.7296915662252593E9, 0.0, 2024-10-23 19:22:46.225
51.0, 22177.512607277946, -90794.06002689124, 40760.238857297765, 26399.131286040698, 19575.233110813275, 23798.46111517681, 122298.44150524634, 4501.931905976761, 0.168, 0.9540000000000001, -0.15, 192.0, 0.0, 0.0, 0.0, 0.0, 0.0, 0.0, 0.0, 0.0, 0.0, 1.7296915662282927E9, 0.0, 2024-10-23 19:22:46.228
52.0, 21520.058395869542, 69592.96102439893, 40015.434028558026, 27115.907027233487, 18766.435237697988, 23032.42212920453, 133361.66094084515, 15576.014289380824, 0.168, 0.9540000000000001, -0.15, 192.0, 0.0, 0.0, 0.0, 0.0, 0.0, 0.0, 0.0, 0.0, 0.0, 1.7296915662332273E9, 0.0, 2024-10-23 19:22:46.233
53.0, 21648.513871254192, 97579.5802568889, 40477.26577249358, 26366.050704246845, 19559.25161352773, 23471.07511413993, 135391.60166878722, 17761.344344776197, 0.168, 0.9540000000000001, -0.15, 192.0, 0.0, 0.0, 0.0, 0.0, 0.0, 0.0, 0.0, 0.0, 0.0, 1.7296915662372491E9, 0.0, 2024-10-23 19:22:46.237
54.0, 22073.062905438295, 21540.17496587932, 41042.69785197948, 25704.66258581431, 20300.994253277095, 24052.555746144742, 130168.71424540452, 12709.403062987694, 0.168, 0.9540000000000001, -0.15, 192.0, 0.0, 0.0, 0.0, 0.0, 0.0, 0.0, 0.0, 0.0, 0.0, 1.7296915662421808E9, 0.0, 2024-10-23 19:22:46.242
55.0, 22444.97358143015, -112069.21035876399, 41511.86096809637, 25192.382954643126, 20915.443708353487, 24517.360272092854, 120935.83445976191, 3596.2392206477193, 0.168, 0.9540000000000001, -0.15, 192.0, 0.0, 0.0, 0.0, 0.0, 0.0, 0.0, 0.0, 0.0, 0.0, 1.7296915662461767E9, 0.0, 2024-10-23 19:22:46.246
56.0, 22178.697249734076, -89769.50076454888, 40767.88315390148, 26434.60350449127, 19572.72971543428, 23790.168617983894, 122366.14493920148, 5011.819900491226, 0.168, 0.9540000000000001, -0.15, 192.0, 0.0, 0.0, 0.0, 0.0, 0.0, 0.0, 0.0, 0.0, 0.0, 1.7296915662491243E9, 0.0, 2024-10-23 19:22:46.249
57.0, 21530.362550063437, 70494.22806432583, 40034.94710146751, 27149.211126471895, 18780.91916810503, 23070.42009477855, 133449.88327621022, 16114.266647609074, 0.168, 0.9540000000000001, -0.15, 192.0, 0.0, 0.0, 0.0, 0.0, 0.0, 0.0, 0.0, 0.0, 0.0, 1.7296915662522326E9, 0.0, 2024-10-23 19:22:46.252
58.0, 21664.67418249538, 97402.77795824742, 40493.98487734615, 26387.106047523743, 19567.9687938653, 23495.282053385028, 135416.09918071024, 18237.972943541165, 0.16, 0.9520000000000001, -0.15, 192.0, 5.0, 0.0, 29.0, 192.0, 251.0, 80.0, 0.0, 0.0, 0.0, 1.729691566256201E9, 0.0, 2024-10-23 19:22:46.256
59.0, 22092.79949579233, 20795.59365458413, 41052.42086081754, 25719.61590285491, 20305.509305657066, 24054.85797582364, 130127.00589025092, 13115.243687062704, 0.16, 0.9520000000000001, -0.15, 192.0, 0.0, 0.0, 0.0, 0.0, 0.0, 0.0, 0.0, 0.0, 0.0, 1.729691566259172E9, 0.0, 2024-10-23 19:22:46.259
60.0, 22462.095017682914, -112750.15625359492, 41510.31869772896, 25210.17494322955, 20909.90047572857, 24529.60902805436, 120925.91028522377, 4039.4296097075476, 0.16, 0.9520000000000001, -0.15, 192.0, 0.0, 0.0, 0.0, 0.0, 0.0, 0.0, 0.0, 0.0, 0.0, 1.729691566262175E9, 0.0, 2024-10-23 19:22:46.262
61.0, 22179.501912534466, -88527.70489784538, 40747.81128738062, 26448.32747558683, 19539.090340029044, 23789.22984471677, 122493.0134407298, 5623.989477633176, 0.16, 0.9520000000000001, -0.15, 192.0, 0.0, 0.0, 0.0, 0.0, 0.0, 0.0, 0.0, 0.0, 0.0, 1.72969156626715E9, 0.0, 2024-10-23 19:22:46.267
62.0, 21532.17304136432, 71076.66982134222, 40020.239653615914, 27135.37539665406, 18759.66265912803, 23057.366676016652, 133515.8656258423, 16719.238963036416, 0.16, 0.9520000000000001, -0.15, 192.0, 0.0, 0.0, 0.0, 0.0, 0.0, 0.0, 0.0, 0.0, 0.0, 1.7296915662711823E9, 0.0, 2024-10-23 19:22:46.271
63.0, 21661.880214438464, 96985.60499973358, 40483.613667918886, 26364.284916434877, 19571.746238678246, 23508.82721052494, 135399.13420666865, 18818.33598832321, 0.16, 0.9520000000000001, -0.15, 192.0, 0.0, 0.0, 0.0, 0.0, 0.0, 0.0, 0.0, 0.0, 0.0, 1.7296915662752194E9, 0.0, 2024-10-23 19:22:46.275
64.0, 22076.16979791758, 20013.170839926104, 41033.086601863695, 25685.015402438094, 20295.629834607822, 24024.99604523135, 130096.29459336933, 13750.212043549067, 0.16, 0.9520000000000001, -0.15, 192.0, 0.0, 0.0, 0.0, 0.0, 0.0, 0.0, 0.0, 0.0, 0.0, 1.729691566282209E9, 0.0, 2024-10-23 19:22:46.282
65.0, 22443.364255829365, -113389.4161450167, 41490.157424230274, 25178.83779750321, 20887.12404812861, 24499.79180095098, 120882.12321783582, 4737.3628303245105, 0.16, 0.9520000000000001, -0.15, 192.0, 0.0, 0.0, 0.0, 0.0, 0.0, 0.0, 0.0, 0.0, 0.0, 1.7296915662862527E9, 0.0, 2024-10-23 19:22:46.286
66.0, 22154.356200022245, -87449.43439357691, 40723.85021732452, 26425.57339973133, 19516.51507812918, 23767.21337642829, 122550.09979606865, 6472.551104134453, 0.16, 0.9520000000000001, -0.15, 192.0, 0.0, 0.0, 0.0, 0.0, 0.0, 0.0, 0.0, 0.0, 0.0, 1.7296915662892225E9, 0.0, 2024-10-23 19:22:46.289
67.0, 21511.40827076534, 71669.88511918606, 40009.80138895528, 27105.200541639395, 18762.23310974039, 23042.927449098523, 133568.30281833446, 17581.032822255234, 0.16, 0.9520000000000001, -0.15, 192.0, 0.0, 0.0, 0.0, 0.0, 0.0, 0.0, 0.0, 0.0, 0.0, 1.7296915662922215E9, 0.0, 2024-10-23 19:22:46.292
68.0, 21649.13972009894, 96622.2103383792, 40476.595220159914, 26332.67954977507, 19556.569404193095, 23484.329698601927, 135404.76684627138, 19649.46325414935, 0.164, 0.9580000000000001, -0.152, 192.0, 5.0, 32.0, 29.0, 240.0, 251.0, 64.0, 0.0, 0.0, 0.0, 1.7296915662952435E9, 0.0, 2024-10-23 19:22:46.295
69.0, 22074.13578917215, 19341.38916032185, 41030.06911636223, 25667.826910951964, 20281.101200711873, 24023.252609163836, 130101.59195680523, 14583.97681522093, 0.164, 0.9580000000000001, -0.152, 192.0, 0.0, 0.0, 0.0, 0.0, 0.0, 0.0, 0.0, 0.0, 0.0, 1.7296915663002343E9, 0.0, 2024-10-23 19:22:46.300
70.0, 22447.63343902033, -114169.51437825136, 41493.89016555431, 25174.83683524571, 20891.974376675415, 24520.37775759432, 120880.87152014632, 5507.8945169323115, 0.164, 0.9580000000000001, -0.152, 192.0, 0.0, 0.0, 0.0, 0.0, 0.0, 0.0, 0.0, 0.0, 0.0, 1.7296915663043077E9, 0.0, 2024-10-23 19:22:46.304
71.0, 22159.832377413797, -86367.29703751768, 40726.08539177005, 26440.884344683214, 19519.91254328639, 23763.771207782174, 122680.76809415438, 7291.899000632644, 0.164, 0.9580000000000001, -0.152, 192.0, 0.0, 0.0, 0.0, 0.0, 0.0, 0.0, 0.0, 0.0, 0.0, 1.729691566309342E9, 0.0, 2024-10-23 19:22:46.309
72.0, 21513.129355088397, 72257.78070184955, 40007.454455787476, 27097.958576435874, 18766.412885953534, 23033.092681538186, 133653.06063330898, 18299.619054748902, 0.164, 0.9580000000000001, -0.152, 192.0, 0.0, 0.0, 0.0, 0.0, 0.0, 0.0, 0.0, 0.0, 0.0, 1.7296915663122592E9, 0.0, 2024-10-23 19:22:46.312
73.0, 21653.498310267725, 96256.42404036809, 40480.12679578386, 26328.320959606288, 19572.841474156558, 23493.560969061968, 135403.76101777088, 20237.314133323925, 0.164, 0.9580000000000001, -0.152, 192.0, 0.0, 0.0, 0.0, 0.0, 0.0, 0.0, 0.0, 0.0, 0.0, 1.7296915663152432E9, 0.0, 2024-10-23 19:22:46.315
74.0, 22077.779123518365, 18730.448929124945, 41038.7862966998, 25674.75595173311, 20306.783355091018, 24048.66654260952, 130058.65425570658, 15086.779306743063, 0.164, 0.9580000000000001, -0.152, 192.0, 0.0, 0.0, 0.0, 0.0, 0.0, 0.0, 0.0, 0.0, 0.0, 1.7296915663202891E9, 0.0, 2024-10-23 19:22:46.320
75.0, 22448.326343098444, -114843.59828753452, 41495.92417429974, 25188.158474941072, 20906.27949312681, 24539.130871192323, 120817.07964147087, 5967.602845144612, 0.164, 0.9580000000000001, -0.152, 192.0, 0.0, 0.0, 0.0, 0.0, 0.0, 0.0, 0.0, 0.0, 0.0, 1.7296915663233604E9, 0.0, 2024-10-23 19:22:46.323
76.0, 22145.013170839928, -85082.76463541563, 40706.08058048256, 26458.586926291817, 19507.306159413598, 23761.737199036743, 122741.18485941707, 7875.2124756827925, 0.164, 0.9580000000000001, -0.152, 192.0, 0.0, 0.0, 0.0, 0.0, 0.0, 0.0, 0.0, 0.0, 0.0, 1.7296915663273237E9, 0.0, 2024-10-23 19:22:46.327
77.0, 21509.530724231092, 72733.7163965364, 40006.2921650758, 27110.006166697287, 18773.990127323883, 23073.07995236873, 133642.95764481518, 18803.226209071425, 0.164, 0.9580000000000001, -0.152, 192.0, 0.0, 0.0, 0.0, 0.0, 0.0, 0.0, 0.0, 0.0, 0.0, 1.7296915663314157E9, 0.0, 2024-10-23 19:22:46.331
78.0, 21659.019191148185, 95729.32520262305, 40483.72542664116, 26343.207221413522, 19583.68207021738, 23519.265475185573, 135344.70770891997, 20673.240205435777, 0.164, 0.9540000000000001, -0.154, 192.0, 5.0, 32.0, 29.0, 208.0, 251.0, 48.0, 0.0, 0.0, 0.0, 1.7296915663353128E9, 0.0, 2024-10-23 19:22:46.335
79.0, 22087.300966656323, 18024.782004926445, 41040.73089846741, 25685.08245767146, 20305.151677745784, 24043.23506870688, 129958.4737370579, 15484.506247580797, 0.164, 0.9540000000000001, -0.154, 192.0, 0.0, 0.0, 0.0, 0.0, 0.0, 0.0, 0.0, 0.0, 0.0, 1.7296915663393152E9, 0.0, 2024-10-23 19:22:46.339
80.0, 22456.44002633572, -115238.3971498486, 41493.04079926501, 25198.66379483507, 20893.33783308719, 24503.94922541967, 120725.7951171154, 6411.240269093546, 0.164, 0.9540000000000001, -0.154, 192.0, 0.0, 0.0, 0.0, 0.0, 0.0, 0.0, 0.0, 0.0, 0.0, 1.729691566342301E9, 0.0, 2024-10-23 19:22:46.342
81.0, 22151.204604054048, -83301.73293372786, 40701.27495542466, 26490.080534229342, 19499.05836570959, 23749.019056441673, 122791.05160129686, 8515.053512460412, 0.164, 0.9540000000000001, -0.154, 192.0, 0.0, 0.0, 0.0, 0.0, 0.0, 0.0, 0.0, 0.0, 0.0, 1.72969156634628E9, 0.0, 2024-10-23 19:22:46.346
82.0, 21529.960218663244, 72972.58948953026, 40022.45247631699, 27128.602818084102, 18792.407964755057, 23077.550301259795, 133593.47088259112, 19400.151896494855, 0.164, 0.9540000000000001, -0.154, 192.0, 0.0, 0.0, 0.0, 0.0, 0.0, 0.0, 0.0, 0.0, 0.0, 1.7296915663513563E9, 0.0, 2024-10-23 19:22:46.351
83.0, 21678.331098357572, 95190.40229206113, 40496.13064481386, 26360.730989066484, 19589.851151687046, 23539.22558298416, 135220.38730625957, 21236.638276176247, 0.164, 0.9540000000000001, -0.154, 192.0, 0.0, 0.0, 0.0, 0.0, 0.0, 0.0, 0.0, 0.0, 0.0, 1.7296915663553448E9, 0.0, 2024-10-23 19:22:46.355
84.0, 22089.290271912847, 17500.54419047167, 41035.053555375765, 25699.81225726751, 20297.976767775628, 24060.736484615387, 129866.63041909105, 16089.27739730804, 0.164, 0.9540000000000001, -0.154, 192.0, 0.0, 0.0, 0.0, 0.0, 0.0, 0.0, 0.0, 0.0, 0.0, 1.729691566359355E9, 0.0, 2024-10-23 19:22:46.359
85.0, 22447.096997153403, -113548.87348996085, 41469.325598397925, 25225.50823992589, 20856.055123335736, 24499.031841639502, 120802.19337966364, 7164.672871193036, 0.164, 0.9540000000000001, -0.154, 192.0, 0.0, 0.0, 0.0, 0.0, 0.0, 0.0, 0.0, 0.0, 0.0, 1.7296915663633523E9, 0.0, 2024-10-23 19:22:46.363
86.0, 22122.013225795417, -79716.89310275235, 40673.201164388796, 26477.42944686764, 19473.778542730637, 23719.090070616017, 123002.78967652199, 9376.065060623296, 0.164, 0.9540000000000001, -0.154, 192.0, 0.0, 0.0, 0.0, 0.0, 0.0, 0.0, 0.0, 0.0, 0.0, 1.7296915663663878E9, 0.0, 2024-10-23 19:22:46.366
87.0, 21528.932038418297, 65272.882911310546, 40044.156020183094, 27017.71581384132, 18827.120223894148, 23084.747562974404, 133044.13205911304, 19472.906824696878, 0.164, 0.9540000000000001, -0.154, 192.0, 0.0, 0.0, 0.0, 0.0, 0.0, 0.0, 0.0, 0.0, 0.0, 1.729691566370375E9, 0.0, 2024-10-23 19:22:46.370
88.0, 21644.93759214134, 94187.01013171794, 40445.45924013368, 26359.859271032725, 19521.879496798458, 23461.329753557417, 135127.06877315865, 21732.623485639513, 0.164, 0.9540000000000001, -0.154, 192.0, 0.0, 0.0, 0.0, 0.0, 0.0, 0.0, 0.0, 0.0, 0.0, 1.7296915663743575E9, 0.0, 2024-10-23 19:22:46.374
89.0, 22063.004620433407, 19866.386934088103, 41009.2819940188, 25695.47601884318, 20263.91270922574, 24014.110745681613, 129980.28903964628, 16786.785934780353, 0.16, 0.9560000000000001, -0.154, 192.0, 5.0, 0.0, 29.0, 224.0, 251.0, 48.0, 0.0, 0.0, 0.0, 1.7296915663805056E9, 0.0, 2024-10-23 19:22:46.380
90.0, 22408.026147845525, -98384.15365030213, 41403.23149004358, 25326.605180097245, 20745.235174326324, 24426.567486115397, 121783.45731299608, 8745.745866983636, 0.16, 0.9560000000000001, -0.154, 192.0, 0.0, 0.0, 0.0, 0.0, 0.0, 0.0, 0.0, 0.0, 0.0, 1.7296915663843849E9, 0.0, 2024-10-23 19:22:46.384
91.0, 22091.65955682511, -64998.425841143835, 40678.18560340233, 26441.599600505782, 19503.931046000846, 23718.08424211553, 123955.13045252925, 10962.725992527723, 0.16, 0.9560000000000001, -0.154, 192.0, 0.0, 0.0, 0.0, 0.0, 0.0, 0.0, 0.0, 0.0, 0.0, 1.7296915663885057E9, 0.0, 2024-10-23 19:22:46.388
92.0, 21583.291480933607, 64140.208261037864, 40129.40557353563, 26923.883190617944, 18922.182193062567, 23139.375226423173, 132846.05089975012, 19951.882356629652, 0.16, 0.9560000000000001, -0.154, 192.0, 0.0, 0.0, 0.0, 0.0, 0.0, 0.0, 0.0, 0.0, 0.0, 1.7296915663925014E9, 0.0, 2024-10-23 19:22:46.392
93.0, 21671.826740721077, 94720.16629221039, 40469.82264158996, 26353.243154673954, 19526.729825345257, 23446.55525047246, 135015.6676787934, 22330.2197253966, 0.16, 0.9560000000000001, -0.154, 192.0, 0.0, 0.0, 0.0, 0.0, 0.0, 0.0, 0.0, 0.0, 0.0, 1.7296915663953946E9, 0.0, 2024-10-23 19:22:46.395
94.0, 22081.80243752032, 20231.81560418792, 41029.62208147313, 25691.452704841224, 20272.09344769638, 24022.93968474146, 129884.84709082212, 17433.265439661198, 0.16, 0.9560000000000001, -0.154, 192.0, 0.0, 0.0, 0.0, 0.0, 0.0, 0.0, 0.0, 0.0, 0.0, 1.7296915663984745E9, 0.0, 2024-10-23 19:22:46.398
95.0, 22420.788993929506, -98264.37065176615, 41414.29560354896, 25325.845220785766, 20742.10593010258, 24445.342951457853, 121699.2806433774, 9426.088264714273, 0.16, 0.9560000000000001, -0.154, 192.0, 0.0, 0.0, 0.0, 0.0, 0.0, 0.0, 0.0, 0.0, 0.0, 1.729691566402485E9, 0.0, 2024-10-23 19:22:46.402
96.0, 22090.832542280263, -63403.47241204649, 40677.29153362412, 26451.121443643744, 19482.56277830157, 23718.151297348893, 123989.84271166835, 11730.37430410079, 0.16, 0.9560000000000001, -0.154, 192.0, 0.0, 0.0, 0.0, 0.0, 0.0, 0.0, 0.0, 0.0, 0.0, 1.7296915664083648E9, 0.0, 2024-10-23 19:22:46.408
97.0, 21587.448905402292, 65566.13779856417, 40141.45316379704, 26925.22429528526, 18917.80125114933, 23163.828034857277, 132870.8613360955, 20604.93327438036, 0.16, 0.9560000000000001, -0.154, 192.0, 0.0, 0.0, 0.0, 0.0, 0.0, 0.0, 0.0, 0.0, 0.0, 1.7296915664113824E9, 0.0, 2024-10-23 19:22:46.411
98.0, 21679.940423958353, 95360.87904702176, 40488.352237743406, 26353.77959654088, 19541.68314238586, 23490.49878007159, 134971.6570939609, 22797.393536256975, 0.16, 0.9560000000000001, -0.154, 192.0, 0.0, 0.0, 0.0, 0.0, 0.0, 0.0, 0.0, 0.0, 0.0, 1.729691566415429E9, 0.0, 2024-10-23 19:22:46.415
99.0, 22090.161989946606, 20284.85629378036, 41048.665767749044, 25692.011498452604, 20287.694965326187, 24041.6257431061, 129767.90276383195, 17701.709890569437, 0.164, 0.9580000000000001, -0.15, 192.0, 5.0, 32.0, 29.0, 240.0, 251.0, 80.0, 0.0, 0.0, 0.0, 1.72969156642266E9, 0.0, 2024-10-23 19:22:46.422
100.0, 22426.06400562096, -98746.69894536721, 41428.712478722635, 25328.370967909214, 20741.658895213473, 24423.840573291847, 121543.06430137924, 9527.83340547483, 0.164, 0.9580000000000001, -0.15, 192.0, 0.0, 0.0, 0.0, 0.0, 0.0, 0.0, 0.0, 0.0, 0.0, 1.7296915664254794E9, 0.0, 2024-10-23 19:22:46.425
101.0, 22093.581806848266, -62382.64589102816, 40688.40035061841, 26471.75210377599, 19493.89511274041, 23720.207657838782, 123937.65138836521, 11853.48771256062, 0.164, 0.9580000000000001, -0.15, 192.0, 0.0, 0.0, 0.0, 0.0, 0.0, 0.0, 0.0, 0.0, 0.0, 1.7296915664294477E9, 0.0, 2024-10-23 19:22:46.429
102.0, 21591.963957782264, 66828.16199399972, 40152.00318717995, 26943.53037399416, 18931.83814666726, 23186.939738624067, 132816.03250694662, 20704.86792384004, 0.164, 0.9580000000000001, -0.15, 192.0, 0.0, 0.0, 0.0, 0.0, 0.0, 0.0, 0.0, 0.0, 0.0, 1.7296915664325528E9, 0.0, 2024-10-23 19:22:46.432
103.0, 21689.75283977423, 95618.90758501382, 40497.516452970085, 26368.710561837026, 19550.802654123625, 23513.99046349412, 134874.85168872497, 22844.108682168568, 0.164, 0.9580000000000001, -0.15, 192.0, 0.0, 0.0, 0.0, 0.0, 0.0, 0.0, 0.0, 0.0, 0.0, 1.7296915664355388E9, 0.0, 2024-10-23 19:22:46.435
104.0, 22093.112420214704, 20144.26382115648, 41046.02826190332, 25705.4672486147, 20294.176971218225, 24049.67237111001, 129674.87480340897, 17758.52802497483, 0.164, 0.9580000000000001, -0.15, 192.0, 0.0, 0.0, 0.0, 0.0, 0.0, 0.0, 0.0, 0.0, 0.0, 1.729691566439399E9, 0.0, 2024-10-23 19:22:46.439
105.0, 22429.841450433905, -98908.81614790155, 41426.83493218839, 25346.989971040486, 20756.72397097635, 24451.89201258326, 121435.32889310467, 9609.417272736702, 0.164, 0.9580000000000001, -0.15, 192.0, 0.0, 0.0, 0.0, 0.0, 0.0, 0.0, 0.0, 0.0, 0.0, 1.7296915664433815E9, 0.0, 2024-10-23 19:22:46.443
106.0, 22084.641109066142, -61227.82066200026, 40667.76969048616, 26490.3040516739, 19479.880568966935, 23715.759660692176, 123921.75929805748, 12090.3044450646, 0.164, 0.9580000000000001, -0.15, 192.0, 0.0, 0.0, 0.0, 0.0, 0.0, 0.0, 0.0, 0.0, 0.0, 1.7296915664474244E9, 0.0, 2024-10-23 19:22:46.447
107.0, 21573.70258256228, 67907.41597502423, 40126.70101245654, 26938.858859403, 18921.399882006634, 23133.67553158707, 132820.5922628155, 21017.524125280874, 0.164, 0.9580000000000001, -0.15, 192.0, 0.0, 0.0, 0.0, 0.0, 0.0, 0.0, 0.0, 0.0, 0.0, 1.7296915664504664E9, 0.0, 2024-10-23 19:22:46.450
108.0, 21670.887967453953, 95834.44545679635, 40471.81194684648, 26351.16444243961, 19539.604430151514, 23489.224730637638, 134827.7342114132, 23149.366456194693, 0.164, 0.9580000000000001, -0.15, 192.0, 0.0, 0.0, 0.0, 0.0, 0.0, 0.0, 0.0, 0.0, 0.0, 1.729691566454427E9, 0.0, 2024-10-23 19:22:46.454
109.0, 22083.16589393209, 19869.113846911652, 41026.82811341621, 25697.95706247772, 20286.756192059063, 24077.165016790037, 129579.27639237362, 18044.8091679584, 0.164, 0.9540000000000001, -0.152, 192.0, 5.0, 32.0, 29.0, 208.0, 251.0, 64.0, 0.0, 0.0, 0.0, 1.729691566458459E9, 0.0, 2024-10-23 19:22:46.458
110.0, 22428.09801436639, -99426.59430820875, 41410.76402792502, 25349.7839390974, 20741.234212068823, 24461.905594099237, 121311.36611835554, 9850.391429709367, 0.164, 0.9540000000000001, -0.152, 192.0, 0.0, 0.0, 0.0, 0.0, 0.0, 0.0, 0.0, 0.0, 0.0, 1.7296915664626017E9, 0.0, 2024-10-23 19:22:46.462
111.0, 22079.589614819244, -60130.57352668924, 40649.28479782162, 26509.414793183183, 19453.79608318759, 23710.50700074518, 123932.9575220296, 12409.330893675196, 0.164, 0.9540000000000001, -0.152, 192.0, 0.0, 0.0, 0.0, 0.0, 0.0, 0.0, 0.0, 0.0, 0.0, 1.7296915664675019E9, 0.0, 2024-10-23 19:22:46.467
112.0, 21576.451847130284, 68798.13299156821, 40119.995489119945, 26957.611973001003, 18906.401861477123, 23166.912575592112, 132858.14319350044, 21311.002529979054, 0.164, 0.9540000000000001, -0.152, 192.0, 0.0, 0.0, 0.0, 0.0, 0.0, 0.0, 0.0, 0.0, 0.0, 1.7296915664715257E9, 0.0, 2024-10-23 19:22:46.471
113.0, 21683.717868771302, 95886.77089056623, 40484.28422025254, 26366.60949785823, 19546.622877910482, 23514.79512629451, 134805.82950184698, 23344.98892366754, 0.164, 0.9540000000000001, -0.152, 192.0, 0.0, 0.0, 0.0, 0.0, 0.0, 0.0, 0.0, 0.0, 0.0, 1.7296915664764676E9, 0.0, 2024-10-23 19:22:46.476
114.0, 22094.632338837666, 19479.7464585002, 41041.51320952335, 25706.38367013737, 20284.275148424524, 24037.93770527097, 129513.49520844164, 18160.993535637088, 0.164, 0.9540000000000001, -0.152, 192.0, 0.0, 0.0, 0.0, 0.0, 0.0, 0.0, 0.0, 0.0, 0.0, 1.729691566480587E9, 0.0, 2024-10-23 19:22:46.480
115.0, 22430.10967136737, -99910.88955532189, 41417.58130998389, 25352.10852052075, 20737.68028470043, 24435.664646108708, 121247.59659142455, 9948.82851229054, 0.164, 0.9540000000000001, -0.152, 192.0, 0.0, 0.0, 0.0, 0.0, 0.0, 0.0, 0.0, 0.0, 0.0, 1.7296915664834855E9, 0.0, 2024-10-23 19:22:46.483
116.0, 22073.197015905025, -59162.5641778188, 40647.608416987474, 26508.520723404974, 19446.867042406448, 23706.55074197659, 123931.97404527356, 12574.309119499818, 0.164, 0.9540000000000001, -0.152, 192.0, 0.0, 0.0, 0.0, 0.0, 0.0, 0.0, 0.0, 0.0, 0.0, 1.7296915664895124E9, 0.0, 2024-10-23 19:22:46.489
117.0, 21574.484893618213, 69781.45328539054, 40125.2705008114, 26945.787900184143, 18904.121983542682, 23169.25950875992, 132817.8877017364, 21442.989580987643, 0.164, 0.9540000000000001, -0.152, 192.0, 0.0, 0.0, 0.0, 0.0, 0.0, 0.0, 0.0, 0.0, 0.0, 1.729691566492601E9, 0.0, 2024-10-23 19:22:46.492
118.0, 21681.974432703788, 96008.47613912537, 40488.285182510044, 26344.436567358563, 19546.466415699295, 23511.442364626215, 134698.07174182794, 23402.477610406593, 0.164, 0.9540000000000001, -0.152, 192.0, 0.0, 0.0, 0.0, 0.0, 0.0, 0.0, 0.0, 0.0, 0.0, 1.729691566496519E9, 0.0, 2024-10-23 19:22:46.496
119.0, 22088.57501609028, 19068.20613958909, 41040.50738102286, 25681.550882047522, 20279.380116388813, 24034.964923258416, 129389.06304705895, 18187.390945838804, 0.166, 0.9500000000000001, -0.156, 192.0, 5.0, 48.0, 29.0, 176.0, 251.0, 32.0, 0.0, 0.0, 0.0, 1.729691566500572E9, 0.0, 2024-10-23 19:22:46.500
120.0, 22431.16020335677, -100382.17608716204, 41421.55992049693, 25328.683892331588, 20730.326560774633, 24417.40327088872, 121114.335490982, 9950.795465802606, 0.166, 0.9500000000000001, -0.156, 192.0, 0.0, 0.0, 0.0, 0.0, 0.0, 0.0, 0.0, 0.0, 0.0, 1.7296915665045984E9, 0.0, 2024-10-23 19:22:46.504
121.0, 22071.587690304244, -58109.059406406814, 40648.56954199905, 26494.77440056496, 19438.28397253561, 23694.234930781717, 123888.47755056353, 12646.482902346004, 0.166, 0.9500000000000001, -0.156, 192.0, 0.0, 0.0, 0.0, 0.0, 0.0, 0.0, 0.0, 0.0, 0.0, 1.7296915665076427E9, 0.0, 2024-10-23 19:22:46.507
122.0, 21576.049515730087, 70695.05848825675, 40131.90896891463, 26926.61010344149, 18910.089899312246, 23162.30811623432, 132784.15891935336, 21509.821296909013, 0.166, 0.9500000000000001, -0.156, 192.0, 0.0, 0.0, 0.0, 0.0, 0.0, 0.0, 0.0, 0.0, 0.0, 1.72969156651056E9, 0.0, 2024-10-23 19:22:46.510
123.0, 21690.75866827472, 96041.48966568586, 40503.88670013985, 26321.481325802964, 19557.575232693584, 23508.760155291577, 134599.8581766913, 23409.63016863229, 0.166, 0.9500000000000001, -0.156, 192.0, 0.0, 0.0, 0.0, 0.0, 0.0, 0.0, 0.0, 0.0, 0.0, 1.7296915665145888E9, 0.0, 2024-10-23 19:22:46.514
124.0, 22101.382565663167, 18603.334558407612, 41057.897038209085, 25671.537300531545, 20295.741593330098, 24065.29624048427, 129226.4541061466, 18148.58831746439, 0.166, 0.9500000000000001, -0.156, 192.0, 0.0, 0.0, 0.0, 0.0, 0.0, 0.0, 0.0, 0.0, 0.0, 1.7296915665186229E9, 0.0, 2024-10-23 19:22:46.518
125.0, 22445.73354074163, -100736.98767864559, 41438.72606023861, 25341.469090160026, 20752.96887790786, 24461.36915223231, 120961.51661414107, 9943.709962810275, 0.166, 0.9500000000000001, -0.156, 192.0, 0.0, 0.0, 0.0, 0.0, 0.0, 0.0, 0.0, 0.0, 0.0, 1.7296915665235221E9, 0.0, 2024-10-23 19:22:46.523
126.0, 22076.125094428673, -57081.192085885064, 40654.29158857961, 26515.29330197493, 19445.302420294574, 23711.199904823294, 123841.96357035203, 12774.491342841548, 0.166, 0.9500000000000001, -0.156, 192.0, 0.0, 0.0, 0.0, 0.0, 0.0, 0.0, 0.0, 0.0, 0.0, 1.729691566543646E9, 0.0, 2024-10-23 19:22:46.543
127.0, 21577.055344230575, 71588.59182460212, 40137.78747770637, 26938.031844858153, 18918.717672671995, 23182.514093221915, 132709.90642427283, 21646.748083442224, 0.166, 0.9500000000000001, -0.156, 192.0, 0.0, 0.0, 0.0, 0.0, 0.0, 0.0, 0.0, 0.0, 0.0, 1.7296915665466905E9, 0.0, 2024-10-23 19:22:46.546
128.0, 21690.490447341257, 95994.2604296518, 40506.70301994122, 26329.036215428856, 19577.40123002544, 23531.93891429173, 134458.7292622005, 23521.724167075656, 0.166, 0.9500000000000001, -0.156, 192.0, 0.0, 0.0, 0.0, 0.0, 0.0, 0.0, 0.0, 0.0, 0.0, 1.7296915665506716E9, 0.0, 2024-10-23 19:22:46.550
129.0, 22098.81211505081, 18184.17229463724, 41058.45583182047, 25675.06887615548, 20316.886343584818, 24056.534356657787, 129044.39914755811, 18253.999144315618, 0.168, 0.9540000000000001, -0.164, 192.0, 5.0, 64.0, 29.0, 208.0, 250.0, 224.0, 0.0, 0.0, 0.0, 1.7296915665537148E9, 0.0, 2024-10-23 19:22:46.553
130.0, 22437.597505759895, -101343.1669882735, 41427.796057199965, 25346.49823266247, 20752.991229652314, 24458.619887664307, 120758.67453320915, 10022.946896904337, 0.168, 0.9540000000000001, -0.164, 192.0, 0.0, 0.0, 0.0, 0.0, 0.0, 0.0, 0.0, 0.0, 0.0, 1.7296915665577736E9, 0.0, 2024-10-23 19:22:46.557
131.0, 22061.529405299356, -56111.43930094711, 40629.48115223422, 26522.222342756075, 19428.56096369755, 23668.843349080485, 123760.67027576808, 12974.47240048318, 0.168, 0.9540000000000001, -0.164, 192.0, 0.0, 0.0, 0.0, 0.0, 0.0, 0.0, 0.0, 0.0, 0.0, 1.7296915665605593E9, 0.0, 2024-10-23 19:22:46.560
132.0, 21575.825998285534, 72423.25066605219, 40131.41723053661, 26949.453586274816, 18933.84980366824, 23201.468372520016, 132645.28753105254, 21915.86308668412, 0.168, 0.9540000000000001, -0.164, 192.0, 0.0, 0.0, 0.0, 0.0, 0.0, 0.0, 0.0, 0.0, 0.0, 1.7296915665635664E9, 0.0, 2024-10-23 19:22:46.563
133.0, 21686.73535427277, 95917.12455953653, 40501.852691394415, 26324.92349444908, 19601.228189614798, 23541.036074285043, 134313.10764707418, 23805.5689699136, 0.168, 0.9540000000000001, -0.164, 192.0, 0.0, 0.0, 0.0, 0.0, 0.0, 0.0, 0.0, 0.0, 0.0, 1.7296915665676703E9, 0.0, 2024-10-23 19:22:46.567
134.0, 22094.207655693015, 17711.63406510759, 41045.49182003639, 25675.69472500023, 20327.50342220109, 24073.365220232634, 128914.66962273952, 18666.12060858257, 0.168, 0.9540000000000001, -0.164, 192.0, 0.0, 0.0, 0.0, 0.0, 0.0, 0.0, 0.0, 0.0, 0.0, 1.7296915665706964E9, 0.0, 2024-10-23 19:22:46.570
135.0, 22432.546011512997, -101874.31149176497, 41412.39570527026, 25346.900564062664, 20753.05828488568, 24454.35070447334, 120631.11312760272, 10534.13129259721, 0.168, 0.9540000000000001, -0.164, 192.0, 0.0, 0.0, 0.0, 0.0, 0.0, 0.0, 0.0, 0.0, 0.0, 1.729691566574685E9, 0.0, 2024-10-23 19:22:46.574
136.0, 22050.64410574962, -55103.733253924045, 40606.4812071897, 26527.11737479179, 19424.962332840245, 23660.14852048737, 123733.08822311023, 13598.376643464166, 0.168, 0.9540000000000001, -0.164, 192.0, 0.0, 0.0, 0.0, 0.0, 0.0, 0.0, 0.0, 0.0, 0.0, 1.7296915665777001E9, 0.0, 2024-10-23 19:22:46.577
137.0, 21569.187530182306, 73276.97554552264, 40110.98773610446, 26934.343807023026, 18930.899373400138, 23165.14678778014, 132588.93878328073, 22462.229128149644, 0.168, 0.9540000000000001, -0.164, 192.0, 0.0, 0.0, 0.0, 0.0, 0.0, 0.0, 0.0, 0.0, 0.0, 1.729691566580682E9, 0.0, 2024-10-23 19:22:46.580
138.0, 21695.631348565978, 95886.21209695484, 40498.18700530374, 26320.54255253584, 19600.423526814408, 23520.159544963783, 134197.7726456848, 24184.341631453233, 0.168, 0.9540000000000001, -0.164, 192.0, 0.0, 0.0, 0.0, 0.0, 0.0, 0.0, 0.0, 0.0, 0.0, 1.7296915665846436E9, 0.0, 2024-10-23 19:22:46.584
139.0, 22101.002586007427, 17134.176747104735, 41038.540427510794, 25676.097056400427, 20318.473317441145, 24046.878403053095, 128756.88865862951, 18873.097762238714, 0.16, 0.9520000000000001, -0.156, 192.0, 5.0, 0.0, 29.0, 192.0, 251.0, 32.0, 0.0, 0.0, 0.0, 1.729691566587844E9, 0.0, 2024-10-23 19:22:46.587
140.0, 22433.3953778023, -102355.72336384337, 41398.38116149678, 25355.617744400235, 20741.949467891394, 24443.51010841252, 120494.36515502515, 10685.363195581818, 0.16, 0.9520000000000001, -0.156, 192.0, 0.0, 0.0, 0.0, 0.0, 0.0, 0.0, 0.0, 0.0, 0.0, 1.7296915665906177E9, 0.0, 2024-10-23 19:22:46.590
141.0, 22039.132957355137, -54044.03704929794, 40585.247049957165, 26540.461366231608, 19407.773841354116, 23645.038741235585, 123699.00181281588, 13845.609288884318, 0.16, 0.9520000000000001, -0.156, 192.0, 0.0, 0.0, 0.0, 0.0, 0.0, 0.0, 0.0, 0.0, 0.0, 1.729691566594633E9, 0.0, 2024-10-23 19:22:46.594
142.0, 21552.46842532974, 74169.81597778988, 40092.50284343992, 26939.551763481115, 18922.07043434029, 23164.25271800193, 132545.6434542708, 22673.140188829922, 0.16, 0.9520000000000001, -0.156, 192.0, 0.0, 0.0, 0.0, 0.0, 0.0, 0.0, 0.0, 0.0, 0.0, 1.729691566597902E9, 0.0, 2024-10-23 19:22:46.597
143.0, 21675.917109956397, 95910.46373968884, 40478.2045457607, 26314.97696816647, 19593.516837777715, 23523.109975231884, 134128.2140169399, 24301.397717165677, 0.16, 0.9520000000000001, -0.156, 192.0, 0.0, 0.0, 0.0, 0.0, 0.0, 0.0, 0.0, 0.0, 0.0, 1.7296915666007493E9, 0.0, 2024-10-23 19:22:46.600
144.0, 22083.300004398825, 16662.3314216532, 41026.1352093381, 25678.823969223973, 20329.760948391075, 24072.024115565317, 128666.65466626344, 18889.41453569109, 0.16, 0.9520000000000001, -0.156, 192.0, 0.0, 0.0, 0.0, 0.0, 0.0, 0.0, 0.0, 0.0, 0.0, 1.7296915666047363E9, 0.0, 2024-10-23 19:22:46.604
145.0, 22418.01737761705, -103045.38643901187, 41387.65232415823, 25360.177500269117, 20743.603496981086, 24442.548983400942, 120381.22062459239, 10593.966912504067, 0.16, 0.9520000000000001, -0.156, 192.0, 0.0, 0.0, 0.0, 0.0, 0.0, 0.0, 0.0, 0.0, 0.0, 1.729691566607788E9, 0.0, 2024-10-23 19:22:46.607
146.0, 22017.719986166954, -53107.02956998701, 40568.41618638232, 26550.318485536398, 19400.777745339605, 23632.76763352962, 123719.07367933675, 13805.376148864765, 0.16, 0.9520000000000001, -0.156, 192.0, 0.0, 0.0, 0.0, 0.0, 0.0, 0.0, 0.0, 0.0, 0.0, 1.7296915666116834E9, 0.0, 2024-10-23 19:22:46.611
147.0, 21537.380997822405, 74995.66823192457, 40082.84688983523, 26929.13585056494, 18927.054873353823, 23128.892258273634, 132555.5452770645, 22580.156931895846, 0.16, 0.9520000000000001, -0.156, 192.0, 0.0, 0.0, 0.0, 0.0, 0.0, 0.0, 0.0, 0.0, 0.0, 1.7296915666146283E9, 0.0, 2024-10-23 19:22:46.614
148.0, 21674.039563422153, 95798.39209298993, 40485.33475224194, 26304.985738394946, 19618.26021888974, 23542.04190278553, 134063.0363301082, 24152.57980258224, 0.16, 0.9520000000000001, -0.156, 192.0, 0.0, 0.0, 0.0, 0.0, 0.0, 0.0, 0.0, 0.0, 0.0, 1.7296915666178544E9, 0.0, 2024-10-23 19:22:46.617
149.0, 22083.32235614328, 16157.986659763654, 41029.28680530629, 25669.235070852646, 20333.58309669293, 24077.544996445777, 128581.49451988871, 18769.18450226599, 0.158, 0.9460000000000001, -0.154, 192.0, 4.0, 240.0, 29.0, 144.0, 251.0, 48.0, 0.0, 0.0, 0.0, 1.7296915666216753E9, 0.0, 2024-10-23 19:22:46.621
150.0, 22421.839525918906, -103499.79740378827, 41391.25095501554, 25362.01034331445, 20745.97278189335, 24437.676303109685, 120313.83011505964, 10549.621051504739, 0.158, 0.9460000000000001, -0.154, 192.0, 0.0, 0.0, 0.0, 0.0, 0.0, 0.0, 0.0, 0.0, 0.0, 1.729691566624782E9, 0.0, 2024-10-23 19:22:46.624
151.0, 22021.78800365782, -52029.51902503002, 40570.785471294585, 26571.418532302207, 19402.565884896027, 23656.706351841254, 123746.52162152788, 13901.958036656146, 0.158, 0.9460000000000001, -0.154, 192.0, 0.0, 0.0, 0.0, 0.0, 0.0, 0.0, 0.0, 0.0, 0.0, 1.729691566627973E9, 0.0, 2024-10-23 19:22:46.627
152.0, 21546.209936882253, 75765.2387935208, 40095.47562545248, 26951.174670597873, 18937.917821159106, 23171.628793672182, 132579.46164363166, 22709.43942182534, 0.158, 0.9460000000000001, -0.154, 192.0, 0.0, 0.0, 0.0, 0.0, 0.0, 0.0, 0.0, 0.0, 0.0, 1.7296915666317112E9, 0.0, 2024-10-23 19:22:46.631
153.0, 21675.939461700855, 95655.76561162062, 40487.97225808767, 26313.658215243606, 19619.891896234978, 23540.365521951382, 134030.84981809257, 24264.785559747885, 0.158, 0.9460000000000001, -0.154, 192.0, 0.0, 0.0, 0.0, 0.0, 0.0, 0.0, 0.0, 0.0, 0.0, 1.729691566636675E9, 0.0, 2024-10-23 19:22:46.636
154.0, 22083.523521843377, 15635.738150565405, 41031.56668324074, 25683.5625390485, 20340.825061896452, 24072.85113011016, 128539.11561240145, 18907.206524277513, 0.158, 0.9460000000000001, -0.154, 192.0, 0.0, 0.0, 0.0, 0.0, 0.0, 0.0, 0.0, 0.0, 0.0, 1.7296915666396964E9, 0.0, 2024-10-23 19:22:46.639
155.0, 22422.73359569712, -103934.02474332151, 41394.82723412839, 25385.971413370542, 20749.05732262818, 24453.948373073148, 120283.02941120023, 10712.274695906008, 0.158, 0.9460000000000001, -0.154, 192.0, 0.0, 0.0, 0.0, 0.0, 0.0, 0.0, 0.0, 0.0, 0.0, 1.729691566643861E9, 0.0, 2024-10-23 19:22:46.643
156.0, 22018.658759434078, -50897.559630579904, 40567.902096259844, 26593.345593612863, 19404.801059341557, 23667.59165139099, 123837.1802970386, 14175.789257978113, 0.158, 0.9460000000000001, -0.154, 192.0, 0.0, 0.0, 0.0, 0.0, 0.0, 0.0, 0.0, 0.0, 0.0, 1.72969156664685E9, 0.0, 2024-10-23 19:22:46.646
157.0, 21545.31586710404, 76508.47900014865, 40095.47562545248, 26952.94045840984, 18945.875042185195, 23188.102029335743, 132644.10288859642, 22948.35721830812, 0.158, 0.9460000000000001, -0.154, 192.0, 0.0, 0.0, 0.0, 0.0, 0.0, 0.0, 0.0, 0.0, 0.0, 1.7296915666508071E9, 0.0, 2024-10-23 19:22:46.650
158.0, 21688.09881068454, 95416.98192560457, 40498.96931635968, 26310.327805319765, 19632.27476266322, 23559.923298349775, 134030.62630064803, 24407.836724261848, 0.158, 0.9460000000000001, -0.154, 192.0, 0.0, 0.0, 0.0, 0.0, 0.0, 0.0, 0.0, 0.0, 0.0, 1.729691566655769E9, 0.0, 2024-10-23 19:22:46.655
159.0, 22098.298024928336, 15034.74444565111, 41037.24402633239, 25674.13010288836, 20338.187556050725, 24083.267043026335, 128485.18085303079, 18951.41827481011, 0.162, 0.9480000000000001, -0.15, 192.0, 5.0, 16.0, 29.0, 160.0, 251.0, 80.0, 0.0, 0.0, 0.0, 1.7296915666617544E9, 0.0, 2024-10-23 19:22:46.661
160.0, 22431.96486615716, -104339.30657378514, 41386.91471659121, 25370.280488762917, 20722.81637463765, 24438.011579276514, 120247.35602704955, 10741.488425909094, 0.162, 0.9480000000000001, -0.15, 192.0, 0.0, 0.0, 0.0, 0.0, 0.0, 0.0, 0.0, 0.0, 0.0, 1.7296915666647897E9, 0.0, 2024-10-23 19:22:46.664
161.0, 22019.396367001103, -49988.98357021613, 40550.49008732916, 26568.535157267474, 19368.099494945945, 23596.781324956577, 123892.61262328776, 14293.292378579663, 0.162, 0.9480000000000001, -0.15, 192.0, 0.0, 0.0, 0.0, 0.0, 0.0, 0.0, 0.0, 0.0, 0.0, 1.7296915666737475E9, 0.0, 2024-10-23 19:22:46.673
162.0, 21547.863965971945, 77074.46987324595, 40083.80801484681, 26918.496420204214, 18917.98006510497, 23117.984606979444, 132702.35153464694, 23076.23154833693, 0.162, 0.9480000000000001, -0.15, 192.0, 0.0, 0.0, 0.0, 0.0, 0.0, 0.0, 0.0, 0.0, 0.0, 1.729691566676777E9, 0.0, 2024-10-23 19:22:46.676
163.0, 21687.405906606426, 95079.53763956281, 40487.9052028543, 26275.77200839186, 19616.472079333314, 23546.981638310153, 134039.05290830767, 24493.510960759042, 0.162, 0.9480000000000001, -0.15, 192.0, 0.0, 0.0, 0.0, 0.0, 0.0, 0.0, 0.0, 0.0, 0.0, 1.7296915666807623E9, 0.0, 2024-10-23 19:22:46.680
164.0, 22100.309681929313, 14449.285203133251, 41034.18183734201, 25649.78905317653, 20351.50919574609, 24080.406019736056, 128463.67847486479, 19025.022569301436, 0.162, 0.9480000000000001, -0.15, 192.0, 0.0, 0.0, 0.0, 0.0, 0.0, 0.0, 0.0, 0.0, 0.0, 1.7296915666837788E9, 0.0, 2024-10-23 19:22:46.683
165.0, 22437.284581337524, -104640.07164717575, 41388.635800914264, 25367.955907339565, 20736.741511433305, 24449.902707326735, 120243.46682351433, 10853.850645285922, 0.162, 0.9480000000000001, -0.15, 192.0, 0.0, 0.0, 0.0, 0.0, 0.0, 0.0, 0.0, 0.0, 0.0, 1.7296915666868093E9, 0.0, 2024-10-23 19:22:46.686
166.0, 22016.17771579954, -48890.39533023779, 40551.18299140728, 26581.36505858482, 19373.55332059304, 23619.803621745545, 123986.19937732213, 14525.147023814563, 0.162, 0.9480000000000001, -0.15, 192.0, 0.0, 0.0, 0.0, 0.0, 0.0, 0.0, 0.0, 0.0, 0.0, 1.7296915666898997E9, 0.0, 2024-10-23 19:22:46.689
167.0, 21545.69584675978, 77773.34186713003, 40090.87116609469, 26924.531391207147, 18931.74873968944, 23148.002999782922, 132738.15902926435, 23272.65867861017, 0.162, 0.9480000000000001, -0.15, 192.0, 0.0, 0.0, 0.0, 0.0, 0.0, 0.0, 0.0, 0.0, 0.0, 1.7296915666938384E9, 0.0, 2024-10-23 19:22:46.693
168.0, 21683.069668182095, 94815.96586894583, 40494.655429679806, 26269.11118854418, 19627.089157949587, 23529.949609035208, 133986.1686809264, 24624.045148378034, 0.162, 0.9480000000000001, -0.15, 192.0, 0.0, 0.0, 0.0, 0.0, 0.0, 0.0, 0.0, 0.0, 0.0, 1.7296915666967905E9, 0.0, 2024-10-23 19:22:46.696
169.0, 22086.742173044942, 13880.41095500123, 41028.37038378363, 25644.245820551616, 20331.459680969678, 24063.105769527647, 128406.43565731475, 19151.779312107483, 0.164, 0.9540000000000001, -0.152, 192.0, 5.0, 32.0, 29.0, 208.0, 251.0, 64.0, 0.0, 0.0, 0.0, 1.729691566699876E9, 0.0, 2024-10-23 19:22:46.699
170.0, 22422.510078252566, -105045.59934682839, 41383.45019620063, 25370.615764929746, 20723.978665349325, 24423.37118665829, 120198.62922413698, 10988.139925973408, 0.164, 0.9540000000000001, -0.152, 192.0, 0.0, 0.0, 0.0, 0.0, 0.0, 0.0, 0.0, 0.0, 0.0, 1.7296915667039201E9, 0.0, 2024-10-23 19:22:46.703
171.0, 21999.279796991326, -47931.57254833848, 40544.99155819316, 26593.0773726794, 19365.149064677844, 23626.084461937484, 124024.26439812953, 14750.67612536861, 0.164, 0.9540000000000001, -0.152, 192.0, 0.0, 0.0, 0.0, 0.0, 0.0, 0.0, 0.0, 0.0, 0.0, 1.7296915667068665E9, 0.0, 2024-10-23 19:22:46.706
172.0, 21536.039893155088, 78439.9602937651, 40095.31916324129, 26932.84624014452, 18938.99070489296, 23171.137055294163, 132769.16089882384, 23494.79031500701, 0.164, 0.9540000000000001, -0.152, 192.0, 0.0, 0.0, 0.0, 0.0, 0.0, 0.0, 0.0, 0.0, 0.0, 1.7296915667118948E9, 0.0, 2024-10-23 19:22:46.711
173.0, 21676.587662290058, 94597.6787325953, 40499.41635124879, 26272.553357190296, 19634.197012686374, 23543.51711791958, 133976.64683778846, 24781.267318876664, 0.164, 0.9540000000000001, -0.152, 192.0, 0.0, 0.0, 0.0, 0.0, 0.0, 0.0, 0.0, 0.0, 0.0, 1.7296915667148511E9, 0.0, 2024-10-23 19:22:46.714
174.0, 22082.60710032071, 13224.208441282326, 41034.293596064286, 25647.97856187565, 20345.809500909985, 24068.3807812191, 128366.91777311776, 19241.253345162077, 0.164, 0.9540000000000001, -0.152, 192.0, 0.0, 0.0, 0.0, 0.0, 0.0, 0.0, 0.0, 0.0, 0.0, 1.729691566717883E9, 0.0, 2024-10-23 19:22:46.717
175.0, 22416.922142138737, -105453.49633139328, 41380.85739384382, 25373.36502949775, 20719.307150758166, 24425.561657614908, 120138.39127282993, 11027.210775281284, 0.164, 0.9540000000000001, -0.152, 192.0, 0.0, 0.0, 0.0, 0.0, 0.0, 0.0, 0.0, 0.0, 0.0, 1.7296915667228594E9, 0.0, 2024-10-23 19:22:46.722
176.0, 21986.382840440612, -46902.05119872704, 40530.48527604166, 26594.954919213644, 19346.68652375776, 23602.14574362585, 124059.20017471316, 14863.641841845732, 0.164, 0.9540000000000001, -0.152, 192.0, 0.0, 0.0, 0.0, 0.0, 0.0, 0.0, 0.0, 0.0, 0.0, 1.7296915667268803E9, 0.0, 2024-10-23 19:22:46.726
177.0, 21533.40238730936, 79160.15585185956, 40091.22879400597, 26933.29327503363, 18936.822585680795, 23164.92327033559, 132781.05202687407, 23580.732772437666, 0.164, 0.9540000000000001, -0.152, 192.0, 0.0, 0.0, 0.0, 0.0, 0.0, 0.0, 0.0, 0.0, 0.0, 1.729691566730996E9, 0.0, 2024-10-23 19:22:46.730
178.0, 21678.778133246677, 94417.47896879661, 40501.49506348313, 26269.11118854418, 19646.82574830362, 23542.243068485626, 133910.5527294341, 24817.834772805545, 0.164, 0.9540000000000001, -0.152, 192.0, 0.0, 0.0, 0.0, 0.0, 0.0, 0.0, 0.0, 0.0, 0.0, 1.7296915667348757E9, 0.0, 2024-10-23 19:22:46.734
179.0, 22090.94430100254, 12641.498463332471, 41036.77463969882, 25657.36629454688, 20364.562614507988, 24105.887008415106, 128265.50790852403, 19290.62834866385, 0.16, 0.9520000000000001, -0.152, 192.0, 5.0, 0.0, 29.0, 192.0, 251.0, 64.0, 0.0, 0.0, 0.0, 1.7296915667399652E9, 0.0, 2024-10-23 19:22:46.739
180.0, 22424.20881083117, -105579.5154666323, 41374.62125714079, 25397.25904432047, 20725.051549083182, 24473.08146632689, 120082.60131866949, 11167.78089616071, 0.16, 0.9520000000000001, -0.152, 192.0, 0.0, 0.0, 0.0, 0.0, 0.0, 0.0, 0.0, 0.0, 0.0, 1.729691566745972E9, 0.0, 2024-10-23 19:22:46.745
181.0, 21986.58400614071, -45488.30336192887, 40510.14518858733, 26616.74787005757, 19339.73513123216, 23622.932865969287, 124134.61496050537, 15158.48370295569, 0.16, 0.9520000000000001, -0.152, 192.0, 0.0, 0.0, 0.0, 0.0, 0.0, 0.0, 0.0, 0.0, 0.0, 1.7296915667490523E9, 0.0, 2024-10-23 19:22:46.749
182.0, 21548.288649116595, 79653.92823862175, 40083.293924724334, 26934.992007612233, 18940.93530666057, 23181.44120948806, 132774.81589017104, 23820.90226660994, 0.16, 0.9520000000000001, -0.152, 192.0, 0.0, 0.0, 0.0, 0.0, 0.0, 0.0, 0.0, 0.0, 0.0, 1.729691566753968E9, 0.0, 2024-10-23 19:22:46.753
183.0, 21703.230941680784, 94078.73828157643, 40497.583508203454, 26271.793397878817, 19647.362190170552, 23557.866937859886, 133847.47610658122, 25066.29676417074, 0.16, 0.9520000000000001, -0.152, 192.0, 0.0, 0.0, 0.0, 0.0, 0.0, 0.0, 0.0, 0.0, 0.0, 1.7296915667579565E9, 0.0, 2024-10-23 19:22:46.757
184.0, 22103.103649986228, 12115.114881409989, 41021.776619169315, 25644.290524040523, 20332.800785637, 24069.6324789086, 128208.35449795182, 19627.469137605327, 0.16, 0.9520000000000001, -0.152, 192.0, 0.0, 0.0, 0.0, 0.0, 0.0, 0.0, 0.0, 0.0, 0.0, 1.7296915667629116E9, 0.0, 2024-10-23 19:22:46.762
185.0, 22435.362331314365, -105571.73705956186, 41358.08096624386, 25377.50010222198, 20682.896159040472, 24404.662776549194, 120089.55271119508, 11626.841023783807, 0.16, 0.9520000000000001, -0.152, 192.0, 0.0, 0.0, 0.0, 0.0, 0.0, 0.0, 0.0, 0.0, 0.0, 1.7296915667658699E9, 0.0, 2024-10-23 19:22:46.765
186.0, 22003.772497626844, -44351.471287187494, 40512.73799094415, 26596.31837562542, 19326.34643630343, 23585.739563195653, 124208.2192549967, 15714.416291048086, 0.16, 0.9520000000000001, -0.152, 192.0, 0.0, 0.0, 0.0, 0.0, 0.0, 0.0, 0.0, 0.0, 0.0, 1.729691566768868E9, 0.0, 2024-10-23 19:22:46.768
187.0, 21556.9387742208, 80047.11777533505, 40091.94404982854, 26898.26809147216, 18934.050969368338, 23155.826110342277, 132813.57381505656, 24307.276225957423, 0.16, 0.9520000000000001, -0.152, 192.0, 0.0, 0.0, 0.0, 0.0, 0.0, 0.0, 0.0, 0.0, 0.0, 1.7296915667719364E9, 0.0, 2024-10-23 19:22:46.771
188.0, 21711.434031895882, 93836.89240657001, 40516.58249099046, 26232.297865426288, 19651.18433847241, 23550.312048233995, 133831.15933312886, 25398.8460181768, 0.16, 0.9520000000000001, -0.152, 192.0, 0.0, 0.0, 0.0, 0.0, 0.0, 0.0, 0.0, 0.0, 0.0, 1.729691566775932E9, 0.0, 2024-10-23 19:22:46.775
189.0, 22113.407804180122, 11517.630400375176, 41046.162372370054, 25612.26047423607, 20350.41396026778, 24056.84728108016, 128159.4041775947, 19821.16935505502, 0.162, 0.9540000000000001, -0.15, 192.0, 5.0, 16.0, 29.0, 208.0, 251.0, 80.0, 0.0, 0.0, 0.0, 1.729691566778908E9, 0.0, 2024-10-23 19:22:46.778
190.0, 22439.050369149492, -105681.88645623761, 41379.33747522086, 25360.043389802384, 20687.880598054006, 24402.315843381388, 120042.85991702795, 11731.022504689992, 0.162, 0.9540000000000001, -0.15, 192.0, 0.0, 0.0, 0.0, 0.0, 0.0, 0.0, 0.0, 0.0, 0.0, 1.729691566783004E9, 0.0, 2024-10-23 19:22:46.783
191.0, 21988.707421863965, -42794.47112017526, 40519.10823811391, 26589.948128455657, 19316.9587036322, 23585.918377151298, 124248.40769152733, 15861.557824797372, 0.162, 0.9540000000000001, -0.15, 192.0, 0.0, 0.0, 0.0, 0.0, 0.0, 0.0, 0.0, 0.0, 0.0, 1.729691566787022E9, 0.0, 2024-10-23 19:22:46.787
192.0, 21549.562698550548, 80634.90159927626, 40104.483378467965, 26892.680155358335, 18930.49704199994, 23151.9145550626, 132794.30661133607, 24416.956235999613, 0.162, 0.9540000000000001, -0.15, 192.0, 0.0, 0.0, 0.0, 0.0, 0.0, 0.0, 0.0, 0.0, 0.0, 1.7296915667919116E9, 0.0, 2024-10-23 19:22:46.791
193.0, 21710.025871995196, 93742.18806531288, 40533.033374909566, 26244.166641732056, 19652.07840825062, 23557.911641348797, 133780.80085287106, 25518.964292879617, 0.162, 0.9540000000000001, -0.15, 192.0, 0.0, 0.0, 0.0, 0.0, 0.0, 0.0, 0.0, 0.0, 0.0, 1.7296915667949047E9, 0.0, 2024-10-23 19:22:46.794
194.0, 22110.211504723015, 11161.187131546394, 41063.55202955628, 25637.473241981657, 20359.421713283267, 24084.451685482465, 128083.3858947022, 19912.99032127742, 0.162, 0.9540000000000001, -0.15, 192.0, 0.0, 0.0, 0.0, 0.0, 0.0, 0.0, 0.0, 0.0, 0.0, 1.7296915667999835E9, 0.0, 2024-10-23 19:22:46.799
195.0, 22429.97556090064, -105568.7642775493, 41383.60665841182, 25397.013175131462, 20687.858246309548, 24416.084517965857, 120015.63549228139, 11829.839566926905, 0.162, 0.9540000000000001, -0.15, 192.0, 0.0, 0.0, 0.0, 0.0, 0.0, 0.0, 0.0, 0.0, 0.0, 1.7296915668039396E9, 0.0, 2024-10-23 19:22:46.803
196.0, 21974.223491456927, -41292.56800324536, 40516.15780784581, 26620.97234975962, 19311.63898845184, 23558.313972748994, 124322.95075928578, 15989.678024015193, 0.162, 0.9540000000000001, -0.15, 192.0, 0.0, 0.0, 0.0, 0.0, 0.0, 0.0, 0.0, 0.0, 0.0, 1.7296915668079515E9, 0.0, 2024-10-23 19:22:46.807
197.0, 21538.92326818982, 81173.9586203049, 40111.07714308228, 26908.281672988138, 18939.75066420444, 23152.92038356309, 132794.17250086935, 24391.519950809474, 0.162, 0.9540000000000001, -0.15, 192.0, 0.0, 0.0, 0.0, 0.0, 0.0, 0.0, 0.0, 0.0, 0.0, 1.7296915668109612E9, 0.0, 2024-10-23 19:22:46.810
198.0, 21693.396174120448, 93472.06723357049, 40532.049898153535, 26246.625333622138, 19664.684792123415, 23571.501501977626, 133729.6153580684, 25369.92286085163, 0.162, 0.9540000000000001, -0.15, 192.0, 0.0, 0.0, 0.0, 0.0, 0.0, 0.0, 0.0, 0.0, 0.0, 1.7296915668169198E9, 0.0, 2024-10-23 19:22:46.816
199.0, 22094.162952204104, 10520.429673246106, 41060.08750916571, 25631.72884365664, 20367.803617454007, 24074.34869698867, 128002.85255942972, 19711.735214201835, 0.164, 0.9560000000000001, -0.156, 192.0, 5.0, 32.0, 29.0, 224.0, 251.0, 32.0, 0.0, 0.0, 0.0, 1.7296915668199697E9, 0.0, 2024-10-23 19:22:46.819
200.0, 22414.999892115582, -105980.59516913834, 41379.42688219868, 25398.98012864353, 20692.306243456154, 24410.96596848559, 119961.38780848835, 11688.062451846892, 0.164, 0.9560000000000001, -0.156, 192.0, 0.0, 0.0, 0.0, 0.0, 0.0, 0.0, 0.0, 0.0, 0.0, 1.7296915668240416E9, 0.0, 2024-10-23 19:22:46.824
201.0, 21960.141892450083, -40400.88986168979, 40512.84974966643, 26637.110309256354, 19319.238581566642, 23611.4217175748, 124398.27613810018, 16036.12494899332, 0.164, 0.9560000000000001, -0.156, 192.0, 0.0, 0.0, 0.0, 0.0, 0.0, 0.0, 0.0, 0.0, 0.0, 1.7296915668270168E9, 0.0, 2024-10-23 19:22:46.827
202.0, 21528.328541318006, 81656.80100402844, 40110.94303261555, 26913.26611200167, 18961.99064993747, 23195.25458756144, 132862.81470809158, 24493.354498547855, 0.164, 0.9560000000000001, -0.156, 192.0, 0.0, 0.0, 0.0, 0.0, 0.0, 0.0, 0.0, 0.0, 0.0, 1.729691566830934E9, 0.0, 2024-10-23 19:22:46.830
203.0, 21686.981223461775, 93034.7553533024, 40531.24523535314, 26239.428071907532, 19679.660460908468, 23592.57919699898, 133728.31895689, 25460.402722406714, 0.164, 0.9560000000000001, -0.156, 192.0, 0.0, 0.0, 0.0, 0.0, 0.0, 0.0, 0.0, 0.0, 0.0, 1.7296915668349674E9, 0.0, 2024-10-23 19:22:46.834
204.0, 22090.474914368977, 9742.54426271251, 41055.326587596726, 25627.25849476558, 20379.761800737597, 24106.110525859658, 127971.4036549811, 19809.81466887172, 0.164, 0.9560000000000001, -0.156, 192.0, 0.0, 0.0, 0.0, 0.0, 0.0, 0.0, 0.0, 0.0, 0.0, 1.7296915668389993E9, 0.0, 2024-10-23 19:22:46.838
205.0, 22414.061118848458, -106173.9601104212, 41369.18978323815, 25399.762439699465, 20695.234321979802, 24416.375090643774, 119946.76976761459, 11821.34590403389, 0.164, 0.9560000000000001, -0.156, 192.0, 0.0, 0.0, 0.0, 0.0, 0.0, 0.0, 0.0, 0.0, 0.0, 1.72969156684296E9, 0.0, 2024-10-23 19:22:46.842
206.0, 21952.542299335277, -39361.6902067292, 40492.889641867834, 26634.003416777065, 19312.667168696782, 23589.494656264145, 124449.50633639174, 16252.60159404297, 0.164, 0.9560000000000001, -0.156, 192.0, 0.0, 0.0, 0.0, 0.0, 0.0, 0.0, 0.0, 0.0, 0.0, 1.7296915668460147E9, 0.0, 2024-10-23 19:22:46.846
207.0, 21534.78819546559, 82399.23654785592, 40101.28707901086, 26909.823943355554, 18955.709809745527, 23183.519921722404, 132882.7524641457, 24687.814675309026, 0.164, 0.9560000000000001, -0.156, 192.0, 0.0, 0.0, 0.0, 0.0, 0.0, 0.0, 0.0, 0.0, 0.0, 1.729691566850964E9, 0.0, 2024-10-23 19:22:46.850
208.0, 21702.15805794693, 92770.26716116276, 40524.40560154982, 26226.776984545828, 19669.110437525564, 23550.84849010092, 133691.14800586083, 25582.19737794368, 0.164, 0.9560000000000001, -0.156, 192.0, 0.0, 0.0, 0.0, 0.0, 0.0, 0.0, 0.0, 0.0, 0.0, 1.7296915668551035E9, 0.0, 2024-10-23 19:22:46.855
209.0, 22109.47389715599, 9111.8003859282, 41045.603578758666, 25615.92616032674, 20352.000934124106, 24067.464359696434, 127922.34157590171, 19894.57248384625, 0.164, 0.9520000000000001, -0.154, 192.0, 5.0, 32.0, 29.0, 192.0, 251.0, 48.0, 0.0, 0.0, 0.0, 1.7296915668589935E9, 0.0, 2024-10-23 19:22:46.858
210.0, 22434.132985369324, -106819.29967633482, 41357.27630344347, 25394.55448324138, 20660.36560062952, 24405.243921905032, 119902.93799673773, 11882.902608263805, 0.164, 0.9520000000000001, -0.154, 192.0, 0.0, 0.0, 0.0, 0.0, 0.0, 0.0, 0.0, 0.0, 0.0, 1.729691566863009E9, 0.0, 2024-10-23 19:22:46.863
211.0, 21973.575290867724, -38648.40133767144, 40481.17732777326, 26631.65648360926, 19289.53311318554, 23563.18665304025, 124510.30308131016, 16377.212569381307, 0.164, 0.9520000000000001, -0.154, 192.0, 0.0, 0.0, 0.0, 0.0, 0.0, 0.0, 0.0, 0.0, 0.0, 1.7296915668669841E9, 0.0, 2024-10-23 19:22:46.866
212.0, 21555.016524197643, 83112.92774831389, 40088.4124742046, 26883.113608731463, 18936.64377172515, 23116.151763934107, 132931.45691531384, 24754.84755693049, 0.164, 0.9520000000000001, -0.154, 192.0, 0.0, 0.0, 0.0, 0.0, 0.0, 0.0, 0.0, 0.0, 0.0, 1.7296915668710046E9, 0.0, 2024-10-23 19:22:46.871
213.0, 21727.43788092588, 92534.94799553728, 40523.2656625826, 26200.67014702203, 19663.142521756, 23548.56861216648, 133655.96636008818, 25541.070168145918, 0.164, 0.9520000000000001, -0.154, 192.0, 0.0, 0.0, 0.0, 0.0, 0.0, 0.0, 0.0, 0.0, 0.0, 1.7296915668740122E9, 0.0, 2024-10-23 19:22:46.874
214.0, 22133.233801511982, 8471.95934915058, 41054.767793985346, 25603.5432938985, 20360.762817950585, 24117.956950420972, 127849.49724072186, 19802.572703668204, 0.164, 0.9520000000000001, -0.154, 192.0, 0.0, 0.0, 0.0, 0.0, 0.0, 0.0, 0.0, 0.0, 0.0, 1.7296915668810136E9, 0.0, 2024-10-23 19:22:46.881
215.0, 22449.91331695477, -107192.48440176064, 41367.44634717063, 25389.950023883586, 20657.95161222835, 24414.74341329854, 119853.07125485793, 11804.425633481222, 0.164, 0.9520000000000001, -0.154, 192.0, 0.0, 0.0, 0.0, 0.0, 0.0, 0.0, 0.0, 0.0, 0.0, 1.7296915668850827E9, 0.0, 2024-10-23 19:22:46.885
216.0, 21971.809503055752, -37670.15488984047, 40483.457205707695, 26626.426175406716, 19260.47584539364, 23540.678446373757, 124549.70920678487, 16387.136743919462, 0.164, 0.9520000000000001, -0.154, 192.0, 0.0, 0.0, 0.0, 0.0, 0.0, 0.0, 0.0, 0.0, 0.0, 1.7296915668881612E9, 0.0, 2024-10-23 19:22:46.888
217.0, 21558.07871318802, 83715.24020615104, 40108.55139595883, 26886.712239588767, 18930.60880072222, 23151.847499829233, 132952.624017313, 24747.18090858232, 0.164, 0.9520000000000001, -0.154, 192.0, 0.0, 0.0, 0.0, 0.0, 0.0, 0.0, 0.0, 0.0, 0.0, 1.7296915668930433E9, 0.0, 2024-10-23 19:22:46.893
218.0, 21732.467023428326, 92199.80593917442, 40555.74274727616, 26210.75078377137, 19679.056963808176, 23575.03307760156, 133588.79936799998, 25446.52228909997, 0.164, 0.9520000000000001, -0.154, 192.0, 0.0, 0.0, 0.0, 0.0, 0.0, 0.0, 0.0, 0.0, 0.0, 1.7296915668972852E9, 0.0, 2024-10-23 19:22:46.897
219.0, 22133.367911978712, 7844.881158456941, 41083.981523988434, 25616.30613998248, 20375.291451846537, 24094.308804787255, 127759.62087626707, 19687.036536578722, 0.164, 0.9520000000000001, -0.154, 192.0, 0.0, 0.0, 0.0, 0.0, 0.0, 0.0, 0.0, 0.0, 0.0, 1.7296915669000597E9, 0.0, 2024-10-23 19:22:46.900
220.0, 22449.53333729903, -107458.44780903433, 41396.32480100689, 25420.571913787357, 20671.630879834996, 24416.017462732492, 119791.31338492793, 11721.902992952228, 0.162, 0.9500000000000001, -0.148, 192.0, 5.0, 16.0, 29.0, 176.0, 251.0, 96.0, 0.0, 0.0, 0.0, 1.729691566905086E9, 0.0, 2024-10-23 19:22:46.905
221.0, 21961.751218050864, -36606.77064737924, 40501.11508382739, 26663.41831248025, 19268.343659441907, 23541.192536496226, 124590.81406483818, 16404.459345872325, 0.162, 0.9500000000000001, -0.148, 192.0, 0.0, 0.0, 0.0, 0.0, 0.0, 0.0, 0.0, 0.0, 0.0, 1.729691566908059E9, 0.0, 2024-10-23 19:22:46.908
222.0, 21547.461634571748, 84292.54106194271, 40135.03821313837, 26917.267074259173, 18951.95471667704, 23164.72210463549, 132964.47044187432, 24734.060434587056, 0.162, 0.9500000000000001, -0.148, 192.0, 0.0, 0.0, 0.0, 0.0, 0.0, 0.0, 0.0, 0.0, 0.0, 1.729691566912065E9, 0.0, 2024-10-23 19:22:46.912
223.0, 21722.92282854591, 91920.05150557178, 40583.16833772282, 26238.735167829414, 19699.575865218147, 23603.39744131535, 133568.54868752346, 25399.673032721643, 0.162, 0.9500000000000001, -0.148, 192.0, 0.0, 0.0, 0.0, 0.0, 0.0, 0.0, 0.0, 0.0, 0.0, 1.7296915669161096E9, 0.0, 2024-10-23 19:22:46.916
224.0, 22122.549667662344, 7138.856606347157, 41104.388666676125, 25642.88236413984, 20392.904626477317, 24130.63038952713, 127713.93391060042, 19607.486678062283, 0.162, 0.9500000000000001, -0.148, 192.0, 0.0, 0.0, 0.0, 0.0, 0.0, 0.0, 0.0, 0.0, 0.0, 1.7296915669201324E9, 0.0, 2024-10-23 19:22:46.920
225.0, 22434.021226647048, -107976.29302457489, 41401.91273712072, 25447.952800745108, 20677.889368282482, 24432.78127107397, 119747.83924196236, 11637.569861122354, 0.162, 0.9500000000000001, -0.148, 192.0, 0.0, 0.0, 0.0, 0.0, 0.0, 0.0, 0.0, 0.0, 0.0, 1.7296915669261165E9, 0.0, 2024-10-23 19:22:46.926
226.0, 21937.365464850125, -35663.12469996508, 40489.268659266076, 26686.038277869022, 19265.594394873904, 23508.536637847024, 124614.35045174962, 16392.43410735537, 0.162, 0.9500000000000001, -0.148, 192.0, 0.0, 0.0, 0.0, 0.0, 0.0, 0.0, 0.0, 0.0, 0.0, 1.7296915669291165E9, 0.0, 2024-10-23 19:22:46.929
227.0, 21525.31105581654, 84914.12072350034, 40117.335631529764, 26917.84821961501, 18961.923594704105, 23115.19063892253, 132948.71246203335, 24690.832160810492, 0.162, 0.9500000000000001, -0.148, 192.0, 0.0, 0.0, 0.0, 0.0, 0.0, 0.0, 0.0, 0.0, 0.0, 1.7296915669330888E9, 0.0, 2024-10-23 19:22:46.933
228.0, 21710.96464526232, 91568.92795192337, 40570.6737125723, 26240.72447308594, 19717.501964271305, 23616.00382518814, 133489.62467785177, 25293.412839581113, 0.162, 0.9500000000000001, -0.148, 192.0, 0.0, 0.0, 0.0, 0.0, 0.0, 0.0, 0.0, 0.0, 0.0, 1.729691566936108E9, 0.0, 2024-10-23 19:22:46.936
229.0, 22113.94424604705, 6449.238234667568, 41090.1506054581, 25653.36533228938, 20413.244713931646, 24170.34943942421, 127641.08957542057, 19503.662825067382, 0.162, 0.9500000000000001, -0.148, 192.0, 0.0, 0.0, 0.0, 0.0, 0.0, 0.0, 0.0, 0.0, 0.0, 1.7296915669391472E9, 0.0, 2024-10-23 19:22:46.939
230.0, 22427.159241099267, -108300.37096743238, 41380.1644897657, 25455.641800837733, 20681.152722972958, 24460.475082454097, 119707.31552926487, 11557.416505505624, 0.164, 0.9460000000000001, -0.148, 192.0, 5.0, 32.0, 29.0, 144.0, 251.0, 96.0, 0.0, 0.0, 0.0, 1.7296915669431791E9, 0.0, 2024-10-23 19:22:46.943
231.0, 21929.38589207958, -34737.67307253755, 40461.083109507934, 26681.9479086337, 19256.05019999149, 23531.26836195807, 124665.69240876347, 16388.880179986976, 0.164, 0.9460000000000001, -0.148, 192.0, 0.0, 0.0, 0.0, 0.0, 0.0, 0.0, 0.0, 0.0, 0.0, 1.7296915669474688E9, 0.0, 2024-10-23 19:22:46.947
232.0, 21521.39950053686, 85642.00528168742, 40090.24531724994, 26900.41385893987, 18942.052893883338, 23152.272182973884, 132995.65112538947, 24671.69906755675, 0.164, 0.9460000000000001, -0.148, 192.0, 0.0, 0.0, 0.0, 0.0, 0.0, 0.0, 0.0, 0.0, 0.0, 1.7296915669671476E9, 0.0, 2024-10-23 19:22:46.967
233.0, 21708.7741743057, 91224.30875591145, 40541.45998256922, 26197.98793768739, 19703.8003449202, 23617.09906066645, 133452.18550588912, 25182.12350393814, 0.164, 0.9460000000000001, -0.148, 192.0, 0.0, 0.0, 0.0, 0.0, 0.0, 0.0, 0.0, 0.0, 0.0, 1.7296915669701595E9, 0.0, 2024-10-23 19:22:46.970
234.0, 22111.038519267862, 5700.231277970229, 41053.56079978476, 25590.40046815878, 20383.092210661438, 24106.423450282033, 127526.46982985376, 19310.052014595512, 0.164, 0.9460000000000001, -0.148, 192.0, 0.0, 0.0, 0.0, 0.0, 0.0, 0.0, 0.0, 0.0, 0.0, 1.7296915669741757E9, 0.0, 2024-10-23 19:22:46.974
235.0, 22428.813270188963, -108691.81706807818, 41343.217056181085, 25400.83532343332, 20644.249992877245, 24399.477171835562, 119595.51210349944, 11361.905796755053, 0.164, 0.9460000000000001, -0.148, 192.0, 0.0, 0.0, 0.0, 0.0, 0.0, 0.0, 0.0, 0.0, 0.0, 1.7296915669771657E9, 0.0, 2024-10-23 19:22:46.977
236.0, 21937.63368578359, -33770.4683864675, 40435.490362106604, 26648.33088497292, 19233.407882858264, 23515.957417006186, 124672.19676639997, 16317.93574308583, 0.164, 0.9460000000000001, -0.148, 192.0, 0.0, 0.0, 0.0, 0.0, 0.0, 0.0, 0.0, 0.0, 0.0, 1.7296915669811816E9, 0.0, 2024-10-23 19:22:46.981
237.0, 21537.336294333494, 86296.2184901498, 40084.12093926918, 26864.85223351148, 18935.973219391493, 23140.559868879303, 132962.16821219542, 24582.761476369084, 0.164, 0.9460000000000001, -0.148, 192.0, 0.0, 0.0, 0.0, 0.0, 0.0, 0.0, 0.0, 0.0, 0.0, 1.729691566984315E9, 0.0, 2024-10-23 19:22:46.984
238.0, 21730.365959449526, 90917.64282198463, 40543.6728052703, 26159.386475013078, 19685.6954319114, 23562.89608036233, 133339.62212081222, 25058.85363326712, 0.164, 0.9460000000000001, -0.148, 192.0, 0.0, 0.0, 0.0, 0.0, 0.0, 0.0, 0.0, 0.0, 0.0, 1.7296915669871788E9, 0.0, 2024-10-23 19:22:46.987
239.0, 22132.51854568941, 5023.174586674522, 41064.02141618984, 25570.418008615736, 20367.356582564902, 24084.67520292702, 127424.56822688202, 19249.94817375519, 0.164, 0.9460000000000001, -0.148, 192.0, 0.0, 0.0, 0.0, 0.0, 0.0, 0.0, 0.0, 0.0, 0.0, 1.729691566990221E9, 0.0, 2024-10-23 19:22:46.990
240.0, 22442.87251745135, -109047.65683980666, 41353.74472781953, 25394.845055919297, 20619.238390831757, 24367.96121215358, 119528.79214630034, 11388.370262190136, 0.164, 0.9480000000000001, -0.15, 192.0, 5.0, 32.0, 29.0, 160.0, 251.0, 80.0, 0.0, 0.0, 0.0, 1.7296915669941988E9, 0.0, 2024-10-23 19:22:46.994
241.0, 21943.66865678652, -32862.67463715967, 40447.06856573446, 26654.298800742486, 19210.586751769395, 23491.83988473891, 124686.680696807, 16474.286195550703, 0.164, 0.9480000000000001, -0.15, 192.0, 0.0, 0.0, 0.0, 0.0, 0.0, 0.0, 0.0, 0.0, 0.0, 1.729691566997234E9, 0.0, 2024-10-23 19:22:46.997
242.0, 21551.84257648499, 86743.5216001894, 40107.67967792507, 26882.04072499761, 18925.870230897694, 23147.824185827278, 132997.08163703463, 24801.33918539753, 0.164, 0.9480000000000001, -0.15, 192.0, 0.0, 0.0, 0.0, 0.0, 0.0, 0.0, 0.0, 0.0, 0.0, 1.7296915670001814E9, 0.0, 2024-10-23 19:22:47.000
243.0, 21747.30858174665, 90524.54269224915, 40575.70285507475, 26177.46903627742, 19694.7478884158, 23582.453856760723, 133342.03610921337, 25267.685981713057, 0.164, 0.9480000000000001, -0.15, 192.0, 0.0, 0.0, 0.0, 0.0, 0.0, 0.0, 0.0, 0.0, 0.0, 1.729691567004194E9, 0.0, 2024-10-23 19:22:47.004
244.0, 22147.53891796338, 4435.770742389052, 41096.23027994994, 25593.77558157153, 20382.600472283422, 24106.132877604115, 127389.1630636648, 19454.936022154812, 0.164, 0.9480000000000001, -0.15, 192.0, 0.0, 0.0, 0.0, 0.0, 0.0, 0.0, 0.0, 0.0, 0.0, 1.7296915670071929E9, 0.0, 2024-10-23 19:22:47.007
245.0, 22454.987162946127, -108970.3198039913, 41388.434635214166, 25437.64864655121, 20641.679542264887, 24407.389689372743, 119558.67642863709, 11736.632792548275, 0.164, 0.9480000000000001, -0.15, 192.0, 0.0, 0.0, 0.0, 0.0, 0.0, 0.0, 0.0, 0.0, 0.0, 1.7296915670102313E9, 0.0, 2024-10-23 19:22:47.010
246.0, 21941.656999785544, -31815.71892687308, 40475.9023160818, 26687.513493003073, 19231.507984579563, 23512.55995184898, 124775.32771531674, 16970.78549513644, 0.164, 0.9480000000000001, -0.15, 192.0, 0.0, 0.0, 0.0, 0.0, 0.0, 0.0, 0.0, 0.0, 0.0, 1.7296915670142665E9, 0.0, 2024-10-23 19:22:47.014
247.0, 21546.07582641552, 87101.88711904135, 40137.049870139344, 26902.336108963027, 18955.396885323153, 23162.53163367887, 133029.33520428362, 25315.608121825233, 0.164, 0.9480000000000001, -0.15, 192.0, 0.0, 0.0, 0.0, 0.0, 0.0, 0.0, 0.0, 0.0, 0.0, 1.7296915670172217E9, 0.0, 2024-10-23 19:22:47.017
248.0, 21740.96068632134, 90147.06643188793, 40603.9331083218, 26198.680841765505, 19726.688531242435, 23597.988319157164, 133323.26064387092, 25787.855778676963, 0.164, 0.9480000000000001, -0.15, 192.0, 0.0, 0.0, 0.0, 0.0, 0.0, 0.0, 0.0, 0.0, 0.0, 1.7296915670202525E9, 0.0, 2024-10-23 19:22:47.020
249.0, 22135.223106768502, 3823.0870751246307, 41119.789018605836, 25615.993215560105, 20414.876391276885, 24114.514781774855, 127380.82586298298, 20015.897752749654, 0.164, 0.9480000000000001, -0.15, 192.0, 0.0, 0.0, 0.0, 0.0, 0.0, 0.0, 0.0, 0.0, 0.0, 1.7296915670242963E9, 0.0, 2024-10-23 19:22:47.024
250.0, 22444.30302909649, -108954.62887938367, 41407.29950753445, 25475.534853402958, 20666.065295465625, 24445.722931113592, 119605.99507164897, 12342.141549842543, 0.166, 0.9520000000000001, -0.146, 192.0, 5.0, 48.0, 29.0, 192.0, 251.0, 112.0, 0.0, 0.0, 0.0, 1.7296915670272412E9, 0.0, 2024-10-23 19:22:47.027
251.0, 21928.24595311236, -30675.377628252227, 40484.91006909729, 26725.824382999468, 19255.044371491, 23522.394719409316, 124907.24771109197, 17636.0628171042, 0.166, 0.9520000000000001, -0.146, 192.0, 0.0, 0.0, 0.0, 0.0, 0.0, 0.0, 0.0, 0.0, 0.0, 1.7296915670302627E9, 0.0, 2024-10-23 19:22:47.030
252.0, 21536.576335022015, 87533.96869110689, 40155.154783148144, 26929.202905798305, 18986.264644415933, 23192.59472997126, 133102.3583534191, 25898.854541642017, 0.166, 0.9520000000000001, -0.146, 192.0, 0.0, 0.0, 0.0, 0.0, 0.0, 0.0, 0.0, 0.0, 0.0, 1.729691567034259E9, 0.0, 2024-10-23 19:22:47.034
253.0, 21728.86839257102, 89721.33275524768, 40614.70664914926, 26219.155039686568, 19747.274487885774, 23647.519784870125, 133340.42678361258, 26300.3589272927, 0.166, 0.9520000000000001, -0.146, 192.0, 0.0, 0.0, 0.0, 0.0, 0.0, 0.0, 0.0, 0.0, 0.0, 1.729691567037254E9, 0.0, 2024-10-23 19:22:47.037
254.0, 22124.695435130052, 3151.327747264832, 41118.47026568297, 25628.64430292181, 20432.198993229747, 24154.5020526054, 127392.89580498885, 20515.526296559132, 0.166, 0.9520000000000001, -0.146, 192.0, 0.0, 0.0, 0.0, 0.0, 0.0, 0.0, 0.0, 0.0, 0.0, 1.7296915670402713E9, 0.0, 2024-10-23 19:22:47.040
255.0, 22428.612104488864, -109149.73725673405, 41381.63970489975, 25468.963440533098, 20648.56387955712, 24419.236113934054, 119640.41675811015, 12866.938157908698, 0.166, 0.9520000000000001, -0.146, 192.0, 0.0, 0.0, 0.0, 0.0, 0.0, 0.0, 0.0, 0.0, 0.0, 1.7296915670432985E9, 0.0, 2024-10-23 19:22:47.043
0.0, 21907.28001681328, -29715.347852152332, 40447.67206283475, 26706.95951067919, 19229.898658978782, 23525.52396363306, 125038.74302372253, 18265.42088573228, 0.166, 0.9520000000000001, -0.146, 192.0, 0.0, 0.0, 0.0, 0.0, 0.0, 0.0, 0.0, 0.0, 0.0, 1.7296915670475464E9, 0.0, 2024-10-23 19:22:47.047
1.0, 21520.907762158844, 87768.32673172078, 40108.50669246992, 26884.27589944314, 18966.058667428337, 23180.7706571544, 133182.4446538025, 26481.22924342504, 0.166, 0.9520000000000001, -0.146, 192.0, 0.0, 0.0, 0.0, 0.0, 0.0, 0.0, 0.0, 0.0, 0.0, 1.7296915670502813E9, 0.0, 2024-10-23 19:22:47.050
2.0, 21717.938389532377, 89247.45342105073, 40563.90113400235, 26155.4749197334, 19723.313417829682, 23609.678281507287, 133346.12647844868, 26812.325634041506, 0.166, 0.9520000000000001, -0.146, 192.0, 0.0, 0.0, 0.0, 0.0, 0.0, 0.0, 0.0, 0.0, 0.0, 1.729691567055512E9, 0.0, 2024-10-23 19:22:47.055
3.0, 22114.23481872497, 2325.073161729951, 41069.49759358139, 25567.15465392526, 20401.912379492805, 24132.68675001702, 127363.68207498576, 21001.319110550776, 0.166, 0.9520000000000001, -0.146, 192.0, 0.0, 0.0, 0.0, 0.0, 0.0, 0.0, 0.0, 0.0, 0.0, 1.7296915670603127E9, 0.0, 2024-10-23 19:22:47.060
4.0, 22414.19522931519, -109454.79386506008, 41327.481428084546, 25416.682710252135, 20609.962416882805, 24411.569465585886, 119655.90651701768, 13403.245914369336, 0.17, 0.9540000000000001, -0.146, 192.0, 5.0, 80.0, 29.0, 208.0, 251.0, 112.0, 0.0, 0.0, 0.0, 1.7296915670644195E9, 0.0, 2024-10-23 19:22:47.064
5.0, 21893.42193525099, -28690.38625840977, 40399.05701864446, 26651.348370474385, 19194.314681805932, 23491.03522193852, 125116.41533570473, 18871.48843663793, 0.17, 0.9540000000000001, -0.146, 192.0, 0.0, 0.0, 0.0, 0.0, 0.0, 0.0, 0.0, 0.0, 0.0, 1.7296915670673826E9, 0.0, 2024-10-23 19:22:47.067
6.0, 21517.331483045993, 88369.09691919052, 40077.32600895477, 26824.529686514103, 18940.622382238198, 23124.24309542693, 133225.2482444344, 27065.190919064396, 0.17, 0.9540000000000001, -0.146, 192.0, 0.0, 0.0, 0.0, 0.0, 0.0, 0.0, 0.0, 0.0, 0.0, 1.7296915670703788E9, 0.0, 2024-10-23 19:22:47.070
7.0, 21722.140517489974, 89091.77352091951, 40547.04791868304, 26110.704375589416, 19700.492286740817, 23591.774534198586, 133361.9738652675, 27378.763542027897, 0.17, 0.9540000000000001, -0.146, 192.0, 0.0, 0.0, 0.0, 0.0, 0.0, 0.0, 0.0, 0.0, 0.0, 1.7296915670743704E9, 0.0, 2024-10-23 19:22:47.074
8.0, 22119.912161816617, 1688.8307558096358, 41059.17108764304, 25528.664949973223, 20380.857036215908, 24108.569217749744, 127368.19712736573, 21558.391637610395, 0.17, 0.9540000000000001, -0.146, 192.0, 0.0, 0.0, 0.0, 0.0, 0.0, 0.0, 0.0, 0.0, 0.0, 1.7296915670813344E9, 0.0, 2024-10-23 19:22:47.081
9.0, 22421.77247068554, -109543.35147659201, 41321.44645708161, 25396.521436753446, 20584.12380029247, 24369.34702030981, 119709.93068336615, 14009.402872252807, 0.17, 0.9540000000000001, -0.146, 192.0, 0.0, 0.0, 0.0, 0.0, 0.0, 0.0, 0.0, 0.0, 0.0, 1.7296915670853486E9, 0.0, 2024-10-23 19:22:47.085
10.0, 21901.803839421733, -27474.45136004107, 40401.35924832335, 26646.56509716095, 19176.433286241685, 23450.846785407877, 125273.99513411465, 19576.238939313764, 0.17, 0.9540000000000001, -0.146, 192.0, 0.0, 0.0, 0.0, 0.0, 0.0, 0.0, 0.0, 0.0, 0.0, 1.7296915670893726E9, 0.0, 2024-10-23 19:22:47.089
11.0, 21536.732797233202, 88926.03533578341, 40101.51059645541, 26833.850363951966, 18939.661257226617, 23139.375226423173, 133354.977769253, 27732.01051139957, 0.17, 0.9540000000000001, -0.146, 192.0, 0.0, 0.0, 0.0, 0.0, 0.0, 0.0, 0.0, 0.0, 0.0, 1.7296915670923915E9, 0.0, 2024-10-23 19:22:47.092
12.0, 21746.034532312697, 88770.48954611893, 40584.50944239014, 26123.668387373495, 19717.546667760216, 23597.7200982237, 133438.77445921596, 27978.974935886257, 0.17, 0.9540000000000001, -0.146, 192.0, 0.0, 0.0, 0.0, 0.0, 0.0, 0.0, 0.0, 0.0, 0.0, 1.7296915670953238E9, 0.0, 2024-10-23 19:22:47.095
13.0, 22145.415502240125, 1013.9421837260943, 41104.14279748712, 25549.183851383194, 20403.47700160468, 24117.889895187607, 127385.22915664068, 22075.633356050654, 0.17, 0.9540000000000001, -0.146, 192.0, 0.0, 0.0, 0.0, 0.0, 0.0, 0.0, 0.0, 0.0, 0.0, 1.7296915670993488E9, 0.0, 2024-10-23 19:22:47.099
14.0, 22447.476976809143, -109794.94271218094, 41367.84867857083, 25443.63891406523, 20600.105297578015, 24390.178846142157, 119739.27852383596, 14502.616465403613, 0.168, 0.9560000000000001, -0.152, 192.0, 5.0, 64.0, 29.0, 224.0, 251.0, 64.0, 0.0, 0.0, 0.0, 1.7296915671023693E9, 0.0, 2024-10-23 19:22:47.102
15.0, 21916.198362850948, -26521.037700299945, 40439.08899296391, 26704.545522278015, 19178.690812431672, 23455.87592791032, 125406.58568222354, 20126.471832570056, 0.168, 0.9560000000000001, -0.152, 192.0, 0.0, 0.0, 0.0, 0.0, 0.0, 0.0, 0.0, 0.0, 0.0, 1.7296915671064303E9, 0.0, 2024-10-23 19:22:47.106
16.0, 21550.948506706776, 89576.76167211076, 40144.694166743066, 26885.41583841036, 18954.681629500585, 23153.23330798546, 133456.47704082454, 28211.72365089937, 0.168, 0.9560000000000001, -0.152, 192.0, 0.0, 0.0, 0.0, 0.0, 0.0, 0.0, 0.0, 0.0, 0.0, 1.7296915671115687E9, 0.0, 2024-10-23 19:22:47.111
17.0, 21756.070465573128, 88466.41641454893, 40624.608471942964, 26172.529300752798, 19734.37753133506, 23634.756938786144, 133450.17384888814, 28331.819573857734, 0.168, 0.9560000000000001, -0.152, 192.0, 0.0, 0.0, 0.0, 0.0, 0.0, 0.0, 0.0, 0.0, 0.0, 1.7296915671153603E9, 0.0, 2024-10-23 19:22:47.115
18.0, 22143.739121405975, 312.1644630628184, 41130.47315245547, 25590.244005947592, 20409.04258597405, 24133.714930261962, 127370.72287448918, 22367.94947003716, 0.168, 0.9560000000000001, -0.152, 192.0, 0.0, 0.0, 0.0, 0.0, 0.0, 0.0, 0.0, 0.0, 0.0, 1.729691567119386E9, 0.0, 2024-10-23 19:22:47.119
19.0, 22431.897810923794, -110133.45988195657, 41384.00898981202, 25477.837083081853, 20600.820553400583, 24393.48690432154, 119724.83929691784, 14754.408866692647, 0.168, 0.9560000000000001, -0.152, 192.0, 0.0, 0.0, 0.0, 0.0, 0.0, 0.0, 0.0, 0.0, 0.0, 1.7296915671223705E9, 0.0, 2024-10-23 19:22:47.122
20.0, 21889.175103804482, -25737.18437399678, 40450.91306578077, 26727.67957778926, 19196.50515276255, 23461.039180879496, 125442.79550824112, 20417.491545378154, 0.168, 0.9560000000000001, -0.152, 192.0, 0.0, 0.0, 0.0, 0.0, 0.0, 0.0, 0.0, 0.0, 0.0, 1.7296915671264002E9, 0.0, 2024-10-23 19:22:47.126
21.0, 21518.58318073549, 89956.51781040643, 40150.43856506808, 26885.92992853283, 18971.66895528662, 23132.848517042225, 133478.38175039075, 28494.473218259005, 0.168, 0.9560000000000001, -0.152, 192.0, 0.0, 0.0, 0.0, 0.0, 0.0, 0.0, 0.0, 0.0, 0.0, 1.7296915671324348E9, 0.0, 2024-10-23 19:22:47.132
22.0, 21735.708026374345, 87993.36409489681, 40645.68616696432, 26173.065742619725, 19779.125723734585, 23651.453691894258, 133413.76285717046, 28575.11831225375, 0.168, 0.9560000000000001, -0.152, 192.0, 0.0, 0.0, 0.0, 0.0, 0.0, 0.0, 0.0, 0.0, 0.0, 1.7296915671354284E9, 0.0, 2024-10-23 19:22:47.135
23.0, 22130.46218519952, -392.9883710132088, 41151.21557130999, 25604.236197976614, 20450.862699849928, 24181.502959907408, 127327.04756582351, 22627.743795841194, 0.168, 0.9560000000000001, -0.152, 192.0, 0.0, 0.0, 0.0, 0.0, 0.0, 0.0, 0.0, 0.0, 0.0, 1.7296915671404023E9, 0.0, 2024-10-23 19:22:47.140
24.0, 22419.783165429017, -110046.75746521444, 41383.18197526717, 25491.09166754385, 20609.560085482608, 24421.426584890676, 119745.17938437217, 15109.265161665102, 0.166, 0.9520000000000001, -0.15, 192.0, 5.0, 48.0, 29.0, 192.0, 251.0, 80.0, 0.0, 0.0, 0.0, 1.7296915671444304E9, 0.0, 2024-10-23 19:22:47.144
25.0, 21875.249967008825, -24558.442778401706, 40431.55645508247, 26725.600865554916, 19190.3807747818, 23483.010945679063, 125530.43669825039, 20856.055123335736, 0.166, 0.9520000000000001, -0.15, 192.0, 0.0, 0.0, 0.0, 0.0, 0.0, 0.0, 0.0, 0.0, 0.0, 1.729691567148424E9, 0.0, 2024-10-23 19:22:47.148
26.0, 21513.19641032176, 90311.30705014552, 40128.46680026851, 26867.422684123838, 18964.538748805375, 23180.927119365588, 133483.03091323745, 28842.646341639324, 0.166, 0.9520000000000001, -0.15, 192.0, 0.0, 0.0, 0.0, 0.0, 0.0, 0.0, 0.0, 0.0, 0.0, 1.729691567152505E9, 0.0, 2024-10-23 19:22:47.152
27.0, 21731.237677483285, 87433.67641373593, 40604.670715888824, 26137.61587591361, 19743.832319239656, 23645.39636914687, 133336.15760042163, 28817.74649831611, 0.166, 0.9520000000000001, -0.15, 192.0, 0.0, 0.0, 0.0, 0.0, 0.0, 0.0, 0.0, 0.0, 0.0, 1.729691567157469E9, 0.0, 2024-10-23 19:22:47.157
28.0, 22126.438871197566, -1097.2247835665685, 41099.98537301843, 25564.941831224183, 20413.535286609567, 24143.370883866657, 127228.94575940917, 22815.1855248434, 0.166, 0.9520000000000001, -0.15, 192.0, 0.0, 0.0, 0.0, 0.0, 0.0, 0.0, 0.0, 0.0, 0.0, 1.7296915671605055E9, 0.0, 2024-10-23 19:22:47.160
29.0, 22411.937703125204, -110090.14220120218, 41328.48725658504, 25456.021780493473, 20577.21711125578, 24378.980622170046, 119676.80539808338, 15293.3094255101, 0.166, 0.9520000000000001, -0.15, 192.0, 0.0, 0.0, 0.0, 0.0, 0.0, 0.0, 0.0, 0.0, 0.0, 1.7296915671635113E9, 0.0, 2024-10-23 19:22:47.163
30.0, 21863.492949425334, -23569.065161831997, 40377.822861411914, 26691.402696538295, 19152.98630630807, 23444.901221382766, 125546.41819553592, 21097.945701831068, 0.166, 0.9520000000000001, -0.15, 192.0, 0.0, 0.0, 0.0, 0.0, 0.0, 0.0, 0.0, 0.0, 0.0, 1.7296915671674187E9, 0.0, 2024-10-23 19:22:47.167
31.0, 21513.710500444235, 90852.97922527543, 40090.446482950036, 26829.380015060906, 18945.092731129258, 23120.085670958244, 133493.42447440917, 29047.83535573904, 0.166, 0.9520000000000001, -0.15, 192.0, 0.0, 0.0, 0.0, 0.0, 0.0, 0.0, 0.0, 0.0, 0.0, 1.729691567171422E9, 0.0, 2024-10-23 19:22:47.171
32.0, 21738.949029320363, 87222.43007688882, 40577.93802952028, 26097.852122527616, 19732.254115611806, 23611.6228832749, 133322.94771944854, 28956.953162783764, 0.166, 0.9520000000000001, -0.15, 192.0, 0.0, 0.0, 0.0, 0.0, 0.0, 0.0, 0.0, 0.0, 0.0, 1.7296915671754792E9, 0.0, 2024-10-23 19:22:47.175
33.0, 22140.788691137874, -1782.1492889105427, 41086.216698433964, 25528.48613601758, 20415.837516288462, 24143.72851177794, 127149.97704624858, 22865.029914978735, 0.166, 0.9520000000000001, -0.15, 192.0, 0.0, 0.0, 0.0, 0.0, 0.0, 0.0, 0.0, 0.0, 0.0, 1.7296915671784537E9, 0.0, 2024-10-23 19:22:47.178
34.0, 22432.925991168737, -110232.03107500447, 41316.283204112435, 25445.963495488584, 20555.4018086674, 24365.323706307856, 119638.80743250936, 15383.677528342907, 0.162, 0.9520000000000001, -0.154, 192.0, 5.0, 16.0, 29.0, 192.0, 251.0, 48.0, 0.0, 0.0, 0.0, 1.7296915671824985E9, 0.0, 2024-10-23 19:22:47.182
35.0, 21881.039068822753, -22547.14340533536, 40370.5808962084, 26684.6971732017, 19138.904707301226, 23421.8789245938, 125590.83111176862, 21277.139637129265, 0.162, 0.9520000000000001, -0.154, 192.0, 0.0, 0.0, 0.0, 0.0, 0.0, 0.0, 0.0, 0.0, 0.0, 1.7296915671865127E9, 0.0, 2024-10-23 19:22:47.186
36.0, 21534.877602443412, 91228.64499433577, 40098.87309060968, 26824.59674174747, 18948.98193466448, 23146.192508482043, 133484.26025918248, 29202.464723880857, 0.162, 0.9520000000000001, -0.154, 192.0, 0.0, 0.0, 0.0, 0.0, 0.0, 0.0, 0.0, 0.0, 0.0, 1.729691567190447E9, 0.0, 2024-10-23 19:22:47.190
37.0, 21759.579689452614, 86751.43411772659, 40596.75819835165, 26100.266110928787, 19746.827452996666, 23638.444976621267, 133246.52710515584, 29081.832359055563, 0.162, 0.9520000000000001, -0.154, 192.0, 0.0, 0.0, 0.0, 0.0, 0.0, 0.0, 0.0, 0.0, 0.0, 1.7296915671945E9, 0.0, 2024-10-23 19:22:47.194
38.0, 22150.62345869821, -2535.69364973231, 41099.583041618236, 25529.871944173807, 20415.65870233282, 24122.986092923416, 127092.55541474289, 23036.26662925084, 0.162, 0.9520000000000001, -0.154, 192.0, 0.0, 0.0, 0.0, 0.0, 0.0, 0.0, 0.0, 0.0, 0.0, 1.729691567199475E9, 0.0, 2024-10-23 19:22:47.199
39.0, 22440.63734300582, -110461.85171149395, 41335.39394562173, 25460.08979798434, 20568.58933789603, 24375.337287823833, 119626.22340038103, 15621.835365514204, 0.162, 0.9520000000000001, -0.154, 192.0, 0.0, 0.0, 0.0, 0.0, 0.0, 0.0, 0.0, 0.0, 0.0, 1.7296915672034943E9, 0.0, 2024-10-23 19:22:47.203
40.0, 21881.307289756216, -21566.50532084767, 40388.462291772645, 26708.85940895789, 19152.159291763222, 23431.289009009484, 125664.10013009312, 21619.881286606942, 0.162, 0.9520000000000001, -0.154, 192.0, 0.0, 0.0, 0.0, 0.0, 0.0, 0.0, 0.0, 0.0, 0.0, 1.7296915672065935E9, 0.0, 2024-10-23 19:22:47.206
41.0, 21538.31977108953, 91943.6549477166, 40128.958538646526, 26847.462576325248, 18974.75349602145, 23162.330467978773, 133520.58184392238, 29518.384280012167, 0.162, 0.9520000000000001, -0.154, 192.0, 0.0, 0.0, 0.0, 0.0, 0.0, 0.0, 0.0, 0.0, 0.0, 1.729691567211664E9, 0.0, 2024-10-23 19:22:47.211
42.0, 21767.335744778604, 86563.18772592398, 40634.0409081031, 26124.473050173885, 19777.114066733608, 23653.95708727325, 133210.40668611607, 29326.62866433009, 0.162, 0.9520000000000001, -0.154, 192.0, 0.0, 0.0, 0.0, 0.0, 0.0, 0.0, 0.0, 0.0, 0.0, 1.7296915672155073E9, 0.0, 2024-10-23 19:22:47.215
43.0, 22155.876118645207, -3286.93578087518, 41133.44593446803, 25549.943810694673, 20437.00461828764, 24137.738244263917, 127005.83064625629, 23233.36431185774, 0.162, 0.9520000000000001, -0.154, 192.0, 0.0, 0.0, 0.0, 0.0, 0.0, 0.0, 0.0, 0.0, 0.0, 1.729691567220617E9, 0.0, 2024-10-23 19:22:47.220
44.0, 22438.804499960483, -111093.86963771221, 41357.56687612139, 25480.787513349955, 20570.1539600079, 24356.405360270186, 119566.29837349635, 15850.9407461811, 0.168, 0.9480000000000001, -0.154, 192.0, 5.0, 64.0, 29.0, 160.0, 251.0, 48.0, 0.0, 0.0, 0.0, 1.729691567223544E9, 0.0, 2024-10-23 19:22:47.223
45.0, 21884.727106657876, -20865.152283329044, 40416.04434443049, 26740.24125817314, 19164.69862040265, 23454.557174987458, 125693.09034265166, 21937.454871827947, 0.168, 0.9480000000000001, -0.154, 192.0, 0.0, 0.0, 0.0, 0.0, 0.0, 0.0, 0.0, 0.0, 0.0, 1.7296915672265353E9, 0.0, 2024-10-23 19:22:47.226
46.0, 21541.40431182436, 92516.083123217, 40153.81367848083, 26866.953297490276, 18986.756382793952, 23187.58793921327, 133567.9675421676, 29853.347522419397, 0.168, 0.9480000000000001, -0.154, 192.0, 0.0, 0.0, 0.0, 0.0, 0.0, 0.0, 0.0, 0.0, 0.0, 1.7296915672325532E9, 0.0, 2024-10-23 19:22:47.232
47.0, 21775.06944836014, 86127.90985440134, 40659.81246946007, 26127.31172171971, 19796.180104753985, 23666.49641591268, 133204.79639825778, 29620.419993450643, 0.168, 0.9480000000000001, -0.154, 192.0, 0.0, 0.0, 0.0, 0.0, 0.0, 0.0, 0.0, 0.0, 0.0, 1.7296915672365668E9, 0.0, 2024-10-23 19:22:47.236
48.0, 22165.733237949997, -4084.3342643182596, 41153.33898703325, 25552.223688629114, 20454.41662721832, 24162.235756186936, 126977.8239104538, 23531.067196257973, 0.168, 0.9480000000000001, -0.154, 192.0, 0.0, 0.0, 0.0, 0.0, 0.0, 0.0, 0.0, 0.0, 0.0, 1.7296915672395837E9, 0.0, 2024-10-23 19:22:47.239
49.0, 22442.783110473527, -111151.2912692179, 41359.57853312237, 25483.76029536251, 20565.01305878318, 24368.341191809322, 119576.31195501232, 16194.39765148135, 0.168, 0.9480000000000001, -0.154, 192.0, 0.0, 0.0, 0.0, 0.0, 0.0, 0.0, 0.0, 0.0, 0.0, 1.7296915672455645E9, 0.0, 2024-10-23 19:22:47.245
50.0, 21881.910786856508, -19875.819370248246, 40403.75088498007, 26728.819516756477, 19149.544137661953, 23419.39788095926, 125772.37198023463, 22361.243946700568, 0.168, 0.9480000000000001, -0.154, 192.0, 0.0, 0.0, 0.0, 0.0, 0.0, 0.0, 0.0, 0.0, 0.0, 1.7296915672496474E9, 0.0, 2024-10-23 19:22:47.249
51.0, 21539.660875756847, 92983.07812012173, 40139.441506796065, 26841.494660555683, 18977.681574545095, 23158.955354566024, 133593.35912386884, 30244.41364340945, 0.168, 0.9480000000000001, -0.154, 192.0, 0.0, 0.0, 0.0, 0.0, 0.0, 0.0, 0.0, 0.0, 0.0, 1.7296915672536795E9, 0.0, 2024-10-23 19:22:47.253
52.0, 21764.921756377433, 85692.20729973404, 40635.940806381805, 26088.911424745493, 19786.322985449195, 23651.185470960794, 133157.81303141272, 29961.93229698328, 0.168, 0.9480000000000001, -0.154, 192.0, 0.0, 0.0, 0.0, 0.0, 0.0, 0.0, 0.0, 0.0, 0.0, 1.7296915672578902E9, 0.0, 2024-10-23 19:22:47.257
53.0, 22152.836281399286, -4875.206038380389, 41130.18257977755, 25512.638749198766, 20454.05899930704, 24143.281476888835, 126895.21186294698, 23835.542659228166, 0.168, 0.9480000000000001, -0.154, 192.0, 0.0, 0.0, 0.0, 0.0, 0.0, 0.0, 0.0, 0.0, 0.0, 1.7296915672696033E9, 0.0, 2024-10-23 19:22:47.269
54.0, 22431.16020335677, -111219.82171771786, 41339.305500901406, 25462.41437940769, 20565.281279716644, 24354.550165480396, 119532.74840506894, 16526.07518745365, 0.162, 0.9520000000000001, -0.154, 192.0, 5.0, 16.0, 29.0, 192.0, 251.0, 48.0, 0.0, 0.0, 0.0, 1.7296915672726068E9, 0.0, 2024-10-23 19:22:47.272
55.0, 21861.03425753525, -18869.812055803784, 40376.97349512261, 26710.312272347484, 19141.341047446855, 23403.908122051733, 125797.56239623576, 22740.798919296136, 0.162, 0.9520000000000001, -0.154, 192.0, 0.0, 0.0, 0.0, 0.0, 0.0, 0.0, 0.0, 0.0, 0.0, 1.7296915672755632E9, 0.0, 2024-10-23 19:22:47.275
56.0, 21519.20902958024, 93303.49037688857, 40112.19473030505, 26812.504447997148, 18977.212187911533, 23140.045778756834, 133596.3319058814, 30562.85894666421, 0.162, 0.9520000000000001, -0.154, 192.0, 0.0, 0.0, 0.0, 0.0, 0.0, 0.0, 0.0, 0.0, 0.0, 1.729691567279611E9, 0.0, 2024-10-23 19:22:47.279
57.0, 21755.757541150757, 85232.45426803283, 40615.82423637203, 26057.01548540777, 19785.741840093357, 23624.72100552571, 133105.28643194278, 30161.756892413723, 0.162, 0.9520000000000001, -0.154, 192.0, 0.0, 0.0, 0.0, 0.0, 0.0, 0.0, 0.0, 0.0, 0.0, 1.7296915672825944E9, 0.0, 2024-10-23 19:22:47.282
58.0, 22146.5777929518, -5664.870818241932, 41109.306050456296, 25486.75542911952, 20445.833557347483, 24118.403985310077, 126833.61045522815, 23952.59874494061, 0.162, 0.9520000000000001, -0.154, 192.0, 0.0, 0.0, 0.0, 0.0, 0.0, 0.0, 0.0, 0.0, 0.0, 1.7296915672867084E9, 0.0, 2024-10-23 19:22:47.286
59.0, 22422.77829918603, -111584.15515233937, 41312.93044244414, 25453.74190255903, 20545.142357962413, 24357.96998238206, 119526.33345441025, 16628.557935781235, 0.162, 0.9520000000000001, -0.154, 192.0, 0.0, 0.0, 0.0, 0.0, 0.0, 0.0, 0.0, 0.0, 0.0, 1.7296915672896988E9, 0.0, 2024-10-23 19:22:47.289
60.0, 21847.578507373157, -18113.58548564738, 40350.06199479842, 26707.406545568294, 19134.546117132442, 23410.188962243672, 125855.76633879737, 22845.89682172499, 0.162, 0.9520000000000001, -0.154, 192.0, 0.0, 0.0, 0.0, 0.0, 0.0, 0.0, 0.0, 0.0, 0.0, 1.7296915672926803E9, 0.0, 2024-10-23 19:22:47.292
61.0, 21506.334424773984, 93839.57461590465, 40092.72636088447, 26804.524875226605, 18971.937176220083, 23129.562810607295, 133618.37072591434, 30611.29517689886, 0.162, 0.9520000000000001, -0.154, 192.0, 0.0, 0.0, 0.0, 0.0, 0.0, 0.0, 0.0, 0.0, 0.0, 1.7296915672967458E9, 0.0, 2024-10-23 19:22:47.296
62.0, 21746.034532312697, 84872.81469974693, 40608.29169849059, 26058.423645308456, 19791.218017484905, 23653.621811106423, 133090.4672253689, 30202.01238417773, 0.162, 0.9520000000000001, -0.154, 192.0, 0.0, 0.0, 0.0, 0.0, 0.0, 0.0, 0.0, 0.0, 0.0, 1.7296915672996051E9, 0.0, 2024-10-23 19:22:47.299
63.0, 22137.793557380865, -6432.206205392624, 41109.306050456296, 25498.445391469646, 20471.09102858198, 24148.91411649157, 126802.429771713, 24010.13213516857, 0.162, 0.9520000000000001, -0.154, 192.0, 0.0, 0.0, 0.0, 0.0, 0.0, 0.0, 0.0, 0.0, 0.0, 1.7296915673026743E9, 0.0, 2024-10-23 19:22:47.302
64.0, 22411.021281602538, -111629.596248817, 41305.17438711815, 25471.198614978628, 20549.724465575753, 24337.652246672184, 119498.1032011632, 16694.719099368944, 0.16, 0.9560000000000001, -0.154, 192.0, 5.0, 0.0, 29.0, 224.0, 251.0, 48.0, 0.0, 0.0, 0.0, 1.7296915673066E9, 0.0, 2024-10-23 19:22:47.306
65.0, 21839.688341580433, -17129.43817728021, 40350.5760849209, 26738.900153505823, 19141.050474768934, 23411.038328532974, 125892.467903193, 22974.8216837432, 0.16, 0.9560000000000001, -0.154, 192.0, 0.0, 0.0, 0.0, 0.0, 0.0, 0.0, 0.0, 0.0, 0.0, 1.7296915673095956E9, 0.0, 2024-10-23 19:22:47.309
66.0, 21512.21293356573, 94255.36176626227, 40111.7700471604, 26840.913515199845, 19000.703871334063, 23153.769749852392, 133621.49997013807, 30680.809102154864, 0.16, 0.9560000000000001, -0.154, 192.0, 0.0, 0.0, 0.0, 0.0, 0.0, 0.0, 0.0, 0.0, 0.0, 1.7296915673126411E9, 0.0, 2024-10-23 19:22:47.312
67.0, 21754.818767883633, 84525.49094265592, 40628.452971989274, 26091.995965480324, 19827.092567335676, 23644.658761579845, 133035.43723051992, 30157.48770922276, 0.16, 0.9560000000000001, -0.154, 192.0, 0.0, 0.0, 0.0, 0.0, 0.0, 0.0, 0.0, 0.0, 0.0, 1.7296915673168626E9, 0.0, 2024-10-23 19:22:47.316
68.0, 22143.225031283502, -7240.154712218608, 41130.76372513339, 25531.302455818946, 20498.091935883993, 24152.35628513769, 126695.05199134971, 23870.321973600625, 0.16, 0.9560000000000001, -0.154, 192.0, 0.0, 0.0, 0.0, 0.0, 0.0, 0.0, 0.0, 0.0, 0.0, 1.729691567319855E9, 0.0, 2024-10-23 19:22:47.319
69.0, 22417.547990983487, -111786.77371582673, 41328.62136705177, 25517.86905740131, 20571.852692586504, 24361.501558006, 119433.48430794291, 16601.825249412686, 0.16, 0.9560000000000001, -0.154, 192.0, 0.0, 0.0, 0.0, 0.0, 0.0, 0.0, 0.0, 0.0, 0.0, 1.7296915673227088E9, 0.0, 2024-10-23 19:22:47.322
70.0, 21843.7563590713, -16150.856453282411, 40370.335027019384, 26771.265479477108, 19155.735570876073, 23412.06650877792, 125914.90905462613, 22988.322137394207, 0.16, 0.9560000000000001, -0.154, 192.0, 0.0, 0.0, 0.0, 0.0, 0.0, 0.0, 0.0, 0.0, 0.0, 1.7296915673267584E9, 0.0, 2024-10-23 19:22:47.326
71.0, 21524.215820338228, 94686.7504342497, 40138.681547484586, 26862.907631743867, 19026.318970479842, 23184.25752928943, 133612.71573456714, 30679.847977143287, 0.16, 0.9560000000000001, -0.154, 192.0, 0.0, 0.0, 0.0, 0.0, 0.0, 0.0, 0.0, 0.0, 0.0, 1.7296915673316808E9, 0.0, 2024-10-23 19:22:47.331
72.0, 21768.341573279093, 84089.67662926634, 40645.32853905303, 26101.316642918187, 19832.524041238314, 23661.511976899146, 132953.56279058015, 30094.0534584586, 0.16, 0.9560000000000001, -0.154, 192.0, 0.0, 0.0, 0.0, 0.0, 0.0, 0.0, 0.0, 0.0, 0.0, 1.7296915673368227E9, 0.0, 2024-10-23 19:22:47.336
73.0, 22153.66329594413, -7964.239473848281, 41133.91532110159, 25535.638694243276, 20490.917025913837, 24152.803320026796, 126613.51282757675, 23796.60592038702, 0.16, 0.9560000000000001, -0.154, 192.0, 0.0, 0.0, 0.0, 0.0, 0.0, 0.0, 0.0, 0.0, 0.0, 1.7296915673397815E9, 0.0, 2024-10-23 19:22:47.339
74.0, 22421.3924910298, -111794.97680604183, 41315.0538581674, 25520.461859758125, 20555.64767785641, 24346.078854331834, 119406.66221459654, 16533.8535945241, 0.166, 0.9500000000000001, -0.154, 192.0, 5.0, 48.0, 29.0, 176.0, 251.0, 48.0, 0.0, 0.0, 0.0, 1.7296915673436933E9, 0.0, 2024-10-23 19:22:47.343
75.0, 21834.145108955516, -15191.586636493998, 40337.74618360355, 26754.322857179985, 19122.096195470833, 23379.879996762276, 125966.3851221067, 22938.410692025507, 0.166, 0.9500000000000001, -0.154, 192.0, 0.0, 0.0, 0.0, 0.0, 0.0, 0.0, 0.0, 0.0, 0.0, 1.729691567346768E9, 0.0, 2024-10-23 19:22:47.346
76.0, 21514.336349288984, 95063.44438355499, 40105.69037266855, 26828.553000516058, 19006.1353452367, 23127.305284417307, 133637.1908947457, 30553.7617866709, 0.166, 0.9500000000000001, -0.154, 192.0, 0.0, 0.0, 0.0, 0.0, 0.0, 0.0, 0.0, 0.0, 0.0, 1.729691567350705E9, 0.0, 2024-10-23 19:22:47.350
77.0, 21764.40766625496, 83496.12605525566, 40621.63568993041, 26070.58299429214, 19827.40549175805, 23644.748168557664, 132906.19944407934, 29839.28827515701, 0.166, 0.9500000000000001, -0.154, 192.0, 0.0, 0.0, 0.0, 0.0, 0.0, 0.0, 0.0, 0.0, 0.0, 1.729691567354723E9, 0.0, 2024-10-23 19:22:47.354
78.0, 22144.90141211765, -8803.703940356248, 41101.03590500783, 25502.826333382887, 20477.4836274962, 24128.059938914772, 126512.95232927232, 23433.792404388478, 0.166, 0.9500000000000001, -0.154, 192.0, 0.0, 0.0, 0.0, 0.0, 0.0, 0.0, 0.0, 0.0, 0.0, 1.72969156735875E9, 0.0, 2024-10-23 19:22:47.358
79.0, 22413.971711870636, -111937.91621183351, 41276.720616426544, 25507.207275296125, 20524.57875306353, 24323.86122034326, 119348.88295517958, 16187.20038976674, 0.166, 0.9500000000000001, -0.154, 192.0, 0.0, 0.0, 0.0, 0.0, 0.0, 0.0, 0.0, 0.0, 0.0, 1.729691567362741E9, 0.0, 2024-10-23 19:22:47.362
80.0, 21832.89341126602, -14191.614293052471, 40312.08638096886, 26751.171261211784, 19116.508259357008, 23385.982022998574, 125984.19946243758, 22669.4521509948, 0.166, 0.9500000000000001, -0.154, 192.0, 0.0, 0.0, 0.0, 0.0, 0.0, 0.0, 0.0, 0.0, 0.0, 1.7296915673668585E9, 0.0, 2024-10-23 19:22:47.366
81.0, 21517.48794525718, 95552.14292432582, 40088.345418971236, 26821.512201012636, 18997.95460676606, 23166.62200291419, 133622.21522596065, 30265.960725064368, 0.166, 0.9500000000000001, -0.154, 192.0, 0.0, 0.0, 0.0, 0.0, 0.0, 0.0, 0.0, 0.0, 0.0, 1.72969156737185E9, 0.0, 2024-10-23 19:22:47.371
82.0, 21769.59327096859, 83092.54295737064, 40605.1848060113, 26057.57427901915, 19823.87391613411, 23655.544061129578, 132819.63113780392, 29502.581596682263, 0.166, 0.9500000000000001, -0.154, 192.0, 0.0, 0.0, 0.0, 0.0, 0.0, 0.0, 0.0, 0.0, 0.0, 1.729691567374887E9, 0.0, 2024-10-23 19:22:47.374
83.0, 22151.495176731965, -9574.41444091969, 41092.96692525946, 25501.79815313794, 20486.29021481159, 24149.763482780872, 126416.52690369212, 23086.46864729746, 0.166, 0.9500000000000001, -0.154, 192.0, 0.0, 0.0, 0.0, 0.0, 0.0, 0.0, 0.0, 0.0, 0.0, 1.729691567377754E9, 0.0, 2024-10-23 19:22:47.377
84.0, 22413.30115953698, -111913.99984526633, 41266.68468316611, 25520.417156269214, 20521.87419198444, 24335.461775715565, 119315.89178036354, 15869.38093535673, 0.166, 0.9520000000000001, -0.148, 192.0, 5.0, 48.0, 29.0, 192.0, 251.0, 96.0, 0.0, 0.0, 0.0, 1.7296915673828263E9, 0.0, 2024-10-23 19:22:47.382
85.0, 21825.40557687349, -13190.770231577186, 40301.33519188585, 26761.274249705584, 19111.38970987674, 23385.132656709273, 126022.57740766734, 22399.53248495251, 0.166, 0.9520000000000001, -0.148, 192.0, 0.0, 0.0, 0.0, 0.0, 0.0, 0.0, 0.0, 0.0, 0.0, 1.72969156738671E9, 0.0, 2024-10-23 19:22:47.386
86.0, 21514.045776611063, 95895.82334707062, 40088.50188118242, 26821.959235901744, 19003.43078415761, 23163.515110434906, 133588.79936799998, 29908.221055057176, 0.166, 0.9520000000000001, -0.148, 192.0, 0.0, 0.0, 0.0, 0.0, 0.0, 0.0, 0.0, 0.0, 0.0, 1.7296915673917837E9, 0.0, 2024-10-23 19:22:47.391
87.0, 21769.88384364651, 82679.61683030329, 40619.06523931804, 26067.72197100186, 19835.49682325087, 23668.59747989148, 132739.0307472981, 29071.192928694836, 0.166, 0.9520000000000001, -0.148, 192.0, 0.0, 0.0, 0.0, 0.0, 0.0, 0.0, 0.0, 0.0, 0.0, 1.7296915673967414E9, 0.0, 2024-10-23 19:22:47.396
88.0, 22153.171557566115, -10319.778063270816, 41113.217605735976, 25516.729118434087, 20500.52827602962, 24144.309657133777, 126340.08393765497, 22675.129494086446, 0.166, 0.9520000000000001, -0.148, 192.0, 0.0, 0.0, 0.0, 0.0, 0.0, 0.0, 0.0, 0.0, 0.0, 1.729691567401826E9, 0.0, 2024-10-23 19:22:47.401
89.0, 22414.73167118212, -111577.00259411367, 41286.376570031236, 25549.183851383194, 20528.713825787763, 24340.245049029, 119313.52249545128, 15566.738315431872, 0.166, 0.9520000000000001, -0.148, 192.0, 0.0, 0.0, 0.0, 0.0, 0.0, 0.0, 0.0, 0.0, 0.0, 1.7296915674057937E9, 0.0, 2024-10-23 19:22:47.405
90.0, 21824.109175695085, -12020.924630275325, 40331.621805622795, 26791.15853204233, 19130.098119985836, 23413.45231693415, 126075.81926295988, 22153.19390931057, 0.166, 0.9520000000000001, -0.148, 192.0, 0.0, 0.0, 0.0, 0.0, 0.0, 0.0, 0.0, 0.0, 0.0, 1.72969156740878E9, 0.0, 2024-10-23 19:22:47.408
91.0, 21521.108927858942, 96261.43083112608, 40134.45706778253, 26853.899878728378, 19035.99727582899, 23195.16518058362, 133608.64771707627, 29609.24412122299, 0.166, 0.9520000000000001, -0.148, 192.0, 0.0, 0.0, 0.0, 0.0, 0.0, 0.0, 0.0, 0.0, 0.0, 1.7296915674117532E9, 0.0, 2024-10-23 19:22:47.411
92.0, 21782.06554437465, 82288.84128199116, 40666.85326896349, 26097.06981147168, 19862.49773055288, 23695.844256382497, 132719.76354357763, 28743.24813404657, 0.166, 0.9520000000000001, -0.148, 192.0, 0.0, 0.0, 0.0, 0.0, 0.0, 0.0, 0.0, 0.0, 0.0, 1.729691567415756E9, 0.0, 2024-10-23 19:22:47.415
93.0, 22168.81777868483, -10949.31494585454, 41164.13487960516, 25550.39084558378, 20523.55057281859, 24186.5097506654, 126296.5650912005, 22347.967010494114, 0.166, 0.9520000000000001, -0.148, 192.0, 0.0, 0.0, 0.0, 0.0, 0.0, 0.0, 0.0, 0.0, 0.0, 1.7296915674188013E9, 0.0, 2024-10-23 19:22:47.418
94.0, 22433.3953778023, -110941.22957482691, 41334.99161422153, 25604.370308443347, 20540.49319511571, 24362.373276039754, 119368.79835948926, 15377.28492942869, 0.166, 0.9520000000000001, -0.148, 192.0, 0.0, 0.0, 0.0, 0.0, 0.0, 0.0, 0.0, 0.0, 0.0, 1.7296915674227643E9, 0.0, 2024-10-23 19:22:47.422
95.0, 21840.582411358646, -10522.262516291443, 40372.4807944871, 26826.36252955944, 19139.485852657064, 23402.81288657342, 126200.36318306485, 22066.647954779623, 0.166, 0.962, -0.148, 192.0, 5.0, 48.0, 30.0, 16.0, 251.0, 96.0, 0.0, 0.0, 0.0, 1.7296915674267821E9, 0.0, 2024-10-23 19:22:47.426
96.0, 21549.339181105996, 96350.61429150276, 40178.020617725924, 26870.708390558768, 19062.77466568645, 23208.64328249017, 133599.05881870494, 29434.028796437837, 0.166, 0.962, -0.148, 192.0, 0.0, 0.0, 0.0, 0.0, 0.0, 0.0, 0.0, 0.0, 0.0, 1.729691567430812E9, 0.0, 2024-10-23 19:22:47.430
97.0, 21808.5970650431, 81854.85981164692, 40699.48681586824, 26110.68202384496, 19885.296509897293, 23713.479782757735, 132652.01540613358, 28566.26702144945, 0.166, 0.962, -0.148, 192.0, 0.0, 0.0, 0.0, 0.0, 0.0, 0.0, 0.0, 0.0, 0.0, 1.7296915674338975E9, 0.0, 2024-10-23 19:22:47.433
98.0, 22189.11316265025, -11552.722639170008, 41177.14359487815, 25553.34127585188, 20532.73713978972, 24179.625413373164, 126211.87433145933, 22244.411378432676, 0.166, 0.962, -0.148, 192.0, 0.0, 0.0, 0.0, 0.0, 0.0, 0.0, 0.0, 0.0, 0.0, 1.7296915674389832E9, 0.0, 2024-10-23 19:22:47.438
99.0, 22433.708302224673, -110441.39986531733, 41316.17144539016, 25601.889264808808, 20516.4427180818, 24328.935066334616, 119359.74590298485, 15494.16220118549, 0.166, 0.962, -0.148, 192.0, 0.0, 0.0, 0.0, 0.0, 0.0, 0.0, 0.0, 0.0, 0.0, 1.729691567442958E9, 0.0, 2024-10-23 19:22:47.442
100.0, 21834.927420011452, -9459.72764011951, 40345.47988718509, 26812.16917183032, 19121.202125692624, 23371.408685613715, 126234.51664859256, 22359.835786799882, 0.166, 0.962, -0.148, 192.0, 0.0, 0.0, 0.0, 0.0, 0.0, 0.0, 0.0, 0.0, 0.0, 1.7296915674469712E9, 0.0, 2024-10-23 19:22:47.446
101.0, 21534.497622787672, 96555.82565734693, 40139.508562029434, 26835.63850350839, 19030.72226413754, 23154.417950441595, 133607.59718508687, 29763.94054459817, 0.166, 0.962, -0.148, 192.0, 0.0, 0.0, 0.0, 0.0, 0.0, 0.0, 0.0, 0.0, 0.0, 1.729691567450974E9, 0.0, 2024-10-23 19:22:47.450
102.0, 21793.397878813492, 81343.56365723177, 40661.8464782055, 26074.963936205382, 19858.519120039837, 23707.958901877275, 132620.07476330697, 28887.416885783303, 0.166, 0.962, -0.148, 192.0, 0.0, 0.0, 0.0, 0.0, 0.0, 0.0, 0.0, 0.0, 0.0, 1.7296915674549568E9, 0.0, 2024-10-23 19:22:47.454
103.0, 22174.07043863183, -12292.252456218297, 41134.83174262426, 25508.704842174633, 20495.29796782708, 24155.329067150244, 126136.75011834505, 22512.11822177389, 0.166, 0.962, -0.148, 192.0, 0.0, 0.0, 0.0, 0.0, 0.0, 0.0, 0.0, 0.0, 0.0, 1.7296915674601047E9, 0.0, 2024-10-23 19:22:47.460
104.0, 22419.470241006642, -110115.13145150321, 41268.56222970036, 25564.09246493488, 20469.86168263694, 24297.106182230258, 119344.79258594425, 15774.207207466032, 0.166, 0.962, -0.148, 192.0, 0.0, 0.0, 0.0, 0.0, 0.0, 0.0, 0.0, 0.0, 0.0, 1.7296915674628696E9, 0.0, 2024-10-23 19:22:47.462
105.0, 21816.84485874711, -8254.141599433613, 40305.35850588781, 26775.914642323813, 19089.708517755094, 23377.644822316746, 126302.62241394787, 22703.426802566864, 0.166, 0.962, -0.152, 192.0, 5.0, 48.0, 30.0, 16.0, 251.0, 64.0, 0.0, 0.0, 0.0, 1.729691567466896E9, 0.0, 2024-10-23 19:22:47.466
106.0, 21524.372282549415, 96970.31640652614, 40112.84293089425, 26801.462686236227, 19011.969150539535, 23161.39169471165, 133617.90133928077, 30081.491778074716, 0.166, 0.962, -0.152, 192.0, 0.0, 0.0, 0.0, 0.0, 0.0, 0.0, 0.0, 0.0, 0.0, 1.72969156747089E9, 0.0, 2024-10-23 19:22:47.470
107.0, 21783.473704275337, 80959.00189387822, 40634.48794299221, 26042.688017211916, 19839.989523886386, 23668.195148491282, 132573.8960592623, 29186.930261484416, 0.166, 0.962, -0.152, 192.0, 0.0, 0.0, 0.0, 0.0, 0.0, 0.0, 0.0, 0.0, 0.0, 1.72969156747588E9, 0.0, 2024-10-23 19:22:47.475
108.0, 22162.559290237343, -13102.480840978724, 41110.84832082371, 25492.030440810973, 20489.352403801968, 24152.15511943759, 126090.97374570058, 22838.051359421177, 0.166, 0.962, -0.152, 192.0, 0.0, 0.0, 0.0, 0.0, 0.0, 0.0, 0.0, 0.0, 0.0, 1.72969156748112E9, 0.0, 2024-10-23 19:22:47.481
109.0, 22406.081546077916, -110009.02772057388, 41242.58950264329, 25567.646392303275, 20463.08910406698, 24290.75828680495, 119366.49612981036, 16165.563901134003, 0.166, 0.962, -0.152, 192.0, 0.0, 0.0, 0.0, 0.0, 0.0, 0.0, 0.0, 0.0, 0.0, 1.7296915674839764E9, 0.0, 2024-10-23 19:22:47.483
110.0, 21799.343442838603, -7233.76211330439, 40276.99414217402, 26766.95159279723, 19077.3032995824, 23322.771289678967, 126365.20729842274, 23125.651255327615, 0.166, 0.962, -0.152, 192.0, 0.0, 0.0, 0.0, 0.0, 0.0, 0.0, 0.0, 0.0, 0.0, 1.729691567486908E9, 0.0, 2024-10-23 19:22:47.486
111.0, 21518.046738868565, 97478.43861322865, 40100.72828539948, 26792.521988454104, 19020.507516921465, 23164.185662768563, 133653.9994065761, 30458.476300057926, 0.166, 0.962, -0.152, 192.0, 0.0, 0.0, 0.0, 0.0, 0.0, 0.0, 0.0, 0.0, 0.0, 1.7296915674899352E9, 0.0, 2024-10-23 19:22:47.489
112.0, 21784.54658800919, 80533.46938293808, 40634.51029473666, 26035.647217708498, 19854.45110254897, 23702.08039308553, 132565.4470998582, 29485.661326129597, 0.166, 0.962, -0.152, 192.0, 0.0, 0.0, 0.0, 0.0, 0.0, 0.0, 0.0, 0.0, 0.0, 1.729691567494007E9, 0.0, 2024-10-23 19:22:47.494
113.0, 22163.855691415753, -14124.067321308534, 41125.26519599738, 25491.404591966224, 20517.627360537932, 24179.40189592861, 126041.55403870989, 23043.776815387824, 0.166, 0.962, -0.152, 192.0, 0.0, 0.0, 0.0, 0.0, 0.0, 0.0, 0.0, 0.0, 0.0, 1.7296915674989777E9, 0.0, 2024-10-23 19:22:47.498
114.0, 22407.355595511868, -110586.1497624099, 41261.11909879674, 25585.796008800986, 20476.85777865145, 24323.078909287324, 119351.1181296251, 16338.745217173722, 0.166, 0.962, -0.152, 192.0, 0.0, 0.0, 0.0, 0.0, 0.0, 0.0, 0.0, 0.0, 0.0, 1.7296915675029151E9, 0.0, 2024-10-23 19:22:47.502
115.0, 21803.366756840558, -6364.770992370963, 40304.24091866505, 26795.338308255472, 19099.275064381967, 23371.453389102626, 126428.79801139809, 23316.602208209304, 0.162, 0.96, -0.152, 192.0, 5.0, 16.0, 30.0, 0.0, 251.0, 64.0, 0.0, 0.0, 0.0, 1.7296915675069199E9, 0.0, 2024-10-23 19:22:47.506
116.0, 21518.896105157866, 97998.92133461492, 40132.51246601492, 26809.9787008737, 19034.432653717122, 23162.196357512043, 133664.97411310364, 30555.639333205145, 0.162, 0.96, -0.152, 192.0, 0.0, 0.0, 0.0, 0.0, 0.0, 0.0, 0.0, 0.0, 0.0, 1.7296915675108764E9, 0.0, 2024-10-23 19:22:47.510
117.0, 21790.223931100838, 80054.00211262729, 40678.230306891244, 26063.78806397773, 19884.201274418985, 23737.530259791645, 132535.89809368827, 29516.953768367028, 0.162, 0.96, -0.152, 192.0, 0.0, 0.0, 0.0, 0.0, 0.0, 0.0, 0.0, 0.0, 0.0, 1.7296915675148823E9, 0.0, 2024-10-23 19:22:47.514
118.0, 22174.29395607638, -14980.072078713427, 41169.7675192079, 25517.466726001112, 20548.428064397343, 24205.799306130328, 125977.94097399009, 23022.69912036647, 0.162, 0.96, -0.152, 192.0, 0.0, 0.0, 0.0, 0.0, 0.0, 0.0, 0.0, 0.0, 0.0, 1.729691567517951E9, 0.0, 2024-10-23 19:22:47.517
119.0, 22414.888133393306, -110524.25778201316, 41294.93728815762, 25617.200209760693, 20491.520523014133, 24311.72422310403, 119346.98305690088, 16383.739278762256, 0.162, 0.96, -0.152, 192.0, 0.0, 0.0, 0.0, 0.0, 0.0, 0.0, 0.0, 0.0, 0.0, 1.7296915675219345E9, 0.0, 2024-10-23 19:22:47.521
120.0, 21804.149067896495, -5395.174669644198, 40336.82976208088, 26827.524820271115, 19116.12827970127, 23374.62733681528, 126515.96981477378, 23449.729198185112, 0.162, 0.96, -0.152, 192.0, 0.0, 0.0, 0.0, 0.0, 0.0, 0.0, 0.0, 0.0, 0.0, 1.7296915675270162E9, 0.0, 2024-10-23 19:22:47.527
121.0, 21532.30715183105, 98551.88114069476, 40176.076015958315, 26840.153555888362, 19073.279985580444, 23199.233198074486, 133748.23436119966, 30670.08026481632, 0.162, 0.96, -0.152, 192.0, 0.0, 0.0, 0.0, 0.0, 0.0, 0.0, 0.0, 0.0, 0.0, 1.729691567530922E9, 0.0, 2024-10-23 19:22:47.530
122.0, 21805.870152219555, 79663.69595094872, 40709.902728784415, 26062.715180243875, 19902.686167083524, 23697.900616872386, 132481.15867151722, 29445.808165765786, 0.162, 0.96, -0.152, 192.0, 0.0, 0.0, 0.0, 0.0, 0.0, 0.0, 0.0, 0.0, 0.0, 1.7296915675350144E9, 0.0, 2024-10-23 19:22:47.535
123.0, 22185.268662603936, -15941.420607736185, 41190.934621207074, 25515.94680737815, 20557.994611024216, 24201.060736305804, 125862.76243481188, 22857.0950456971, 0.162, 0.96, -0.152, 192.0, 0.0, 0.0, 0.0, 0.0, 0.0, 0.0, 0.0, 0.0, 0.0, 1.7296915675390573E9, 0.0, 2024-10-23 19:22:47.539
124.0, 22416.743328183096, -110926.83505139769, 41295.20550909108, 25625.000968575594, 20473.594423960974, 24325.358787221765, 119267.65671582898, 16231.769768210623, 0.162, 0.96, -0.152, 192.0, 0.0, 0.0, 0.0, 0.0, 0.0, 0.0, 0.0, 0.0, 0.0, 1.7296915675429604E9, 0.0, 2024-10-23 19:22:47.542
125.0, 21798.807000971676, -4546.523636165099, 40317.38374440477, 26830.542305772582, 19089.328538099355, 23366.737171022556, 126519.34492818653, 23362.020952942486, 0.162, 0.962, -0.15, 192.0, 5.0, 16.0, 30.0, 16.0, 251.0, 80.0, 0.0, 0.0, 0.0, 1.729691567547977E9, 0.0, 2024-10-23 19:22:47.547
126.0, 21524.7299104607, 99094.80501351417, 40147.488134799976, 26825.803735948055, 19050.682371936127, 23183.899901378143, 133720.6076050529, 30527.677300891555, 0.162, 0.962, -0.15, 192.0, 0.0, 0.0, 0.0, 0.0, 0.0, 0.0, 0.0, 0.0, 0.0, 1.729691567551057E9, 0.0, 2024-10-23 19:22:47.551
127.0, 21802.673852762444, 79307.00681293092, 40682.76771101567, 26046.10783411358, 19891.17501868904, 23708.78591642212, 132404.8051124579, 29273.74443694883, 0.162, 0.962, -0.15, 192.0, 0.0, 0.0, 0.0, 0.0, 0.0, 0.0, 0.0, 0.0, 0.0, 1.7296915675549772E9, 0.0, 2024-10-23 19:22:47.554
128.0, 22180.127761379215, -16884.552465027864, 41158.234019068965, 25493.684469900665, 20546.461110885277, 24191.538893167843, 125750.3331602017, 22677.655241209894, 0.162, 0.962, -0.15, 192.0, 0.0, 0.0, 0.0, 0.0, 0.0, 0.0, 0.0, 0.0, 0.0, 1.729691567559997E9, 0.0, 2024-10-23 19:22:47.559
129.0, 22405.656862933265, -111146.82092032683, 41252.13369752571, 25608.34891895639, 20452.98611557318, 24289.50658911545, 119216.51592451525, 16123.073234924464, 0.162, 0.962, -0.15, 192.0, 0.0, 0.0, 0.0, 0.0, 0.0, 0.0, 0.0, 0.0, 0.0, 1.72969156756404E9, 0.0, 2024-10-23 19:22:47.564
130.0, 21789.039288644708, -3596.9097729813784, 40277.240011363036, 26805.664814193824, 19065.81450293237, 23319.239714055027, 126519.50139039772, 23320.893743144723, 0.162, 0.962, -0.15, 192.0, 0.0, 0.0, 0.0, 0.0, 0.0, 0.0, 0.0, 0.0, 0.0, 1.7296915675679984E9, 0.0, 2024-10-23 19:22:47.567
131.0, 21519.92428540281, 99598.0098364365, 40114.87693963968, 26786.93405234028, 19030.923429837636, 23142.43741541355, 133663.56595320295, 30448.440366797495, 0.162, 0.962, -0.15, 192.0, 0.0, 0.0, 0.0, 0.0, 0.0, 0.0, 0.0, 0.0, 0.0, 1.7296915675710351E9, 0.0, 2024-10-23 19:22:47.571
132.0, 21800.729250994835, 78759.63494296491, 40655.38682405792, 26005.785287116207, 19885.855303508677, 23707.17659082134, 132258.24472406445, 29111.24725475875, 0.162, 0.962, -0.15, 192.0, 0.0, 0.0, 0.0, 0.0, 0.0, 0.0, 0.0, 0.0, 0.0, 1.729691567574121E9, 0.0, 2024-10-23 19:22:47.574
133.0, 22178.697249734076, -17830.522993865372, 41131.747201889426, 25455.261821181994, 20537.587468336522, 24186.17447449857, 125566.26654461224, 22487.374840661865, 0.162, 0.962, -0.15, 192.0, 0.0, 0.0, 0.0, 0.0, 0.0, 0.0, 0.0, 0.0, 0.0, 1.7296915675781028E9, 0.0, 2024-10-23 19:22:47.578
134.0, 22403.86872337684, -111391.25959769006, 41217.44379013107, 25581.6385843323, 20420.419623901802, 24240.2209925915, 119056.0527510706, 15981.96667217811, 0.162, 0.962, -0.15, 192.0, 0.0, 0.0, 0.0, 0.0, 0.0, 0.0, 0.0, 0.0, 0.0, 1.7296915675830364E9, 0.0, 2024-10-23 19:22:47.583
135.0, 21781.864378674552, -2830.9825457313714, 40242.93008362414, 26787.202273273742, 19058.416075517664, 23303.347623747304, 126456.8494506895, 23310.27666452845, 0.16, 0.9520000000000001, -0.152, 192.0, 5.0, 0.0, 29.0, 192.0, 251.0, 64.0, 0.0, 0.0, 0.0, 1.7296915675870252E9, 0.0, 2024-10-23 19:22:47.587
136.0, 21517.53264874609, 100038.74153360624, 40101.354134244226, 26784.63182266138, 19044.267421277455, 23173.171064039598, 133634.2851679665, 30514.51212340738, 0.16, 0.9520000000000001, -0.152, 192.0, 0.0, 0.0, 0.0, 0.0, 0.0, 0.0, 0.0, 0.0, 0.0, 1.7296915675910833E9, 0.0, 2024-10-23 19:22:47.591
137.0, 21798.27055910475, 78294.8304170168, 40650.51414376666, 26001.5384556697, 19891.532646600324, 23691.463314469256, 132239.91629361108, 29232.572523662155, 0.16, 0.9520000000000001, -0.152, 192.0, 0.0, 0.0, 0.0, 0.0, 0.0, 0.0, 0.0, 0.0, 0.0, 1.729691567595052E9, 0.0, 2024-10-23 19:22:47.595
138.0, 22178.853711945263, -18700.832867721663, 41139.078574070765, 25463.46491139709, 20554.083055744537, 24222.808983660816, 125536.96340763134, 22612.81283054505, 0.16, 0.9520000000000001, -0.152, 192.0, 0.0, 0.0, 0.0, 0.0, 0.0, 0.0, 0.0, 0.0, 0.0, 1.729691567598058E9, 0.0, 2024-10-23 19:22:47.598
139.0, 22402.125287309325, -111349.50653904755, 41229.11140073674, 25612.01460504706, 20437.85398457694, 24314.361728949756, 119089.87094043147, 16158.791322564046, 0.16, 0.9520000000000001, -0.152, 192.0, 0.0, 0.0, 0.0, 0.0, 0.0, 0.0, 0.0, 0.0, 0.0, 1.7296915676022048E9, 0.0, 2024-10-23 19:22:47.602
140.0, 21781.618509485546, -1853.8983886120784, 40264.723034468065, 26817.891218410878, 19069.457837278587, 23352.76733073799, 126531.39251844794, 23508.134306446827, 0.16, 0.9520000000000001, -0.152, 192.0, 0.0, 0.0, 0.0, 0.0, 0.0, 0.0, 0.0, 0.0, 0.0, 1.7296915676060333E9, 0.0, 2024-10-23 19:22:47.606
141.0, 21517.331483045993, 100260.62730081407, 40123.54941648834, 26791.314994253516, 19053.67750569314, 23176.166197796607, 133619.46596139265, 30597.43709533657, 0.16, 0.9520000000000001, -0.152, 192.0, 0.0, 0.0, 0.0, 0.0, 0.0, 0.0, 0.0, 0.0, 0.0, 1.7296915676100223E9, 0.0, 2024-10-23 19:22:47.610
142.0, 21805.55722779718, 77787.64698358142, 40679.63846679193, 26013.3401767421, 19912.40917592158, 23732.098785889004, 132149.05645240028, 29209.43846815091, 0.16, 0.9520000000000001, -0.152, 192.0, 0.0, 0.0, 0.0, 0.0, 0.0, 0.0, 0.0, 0.0, 0.0, 1.7296915676151533E9, 0.0, 2024-10-23 19:22:47.615
