%OpenBCI Raw EXG Data
%Number of channels = 8
%Sample Rate = 250 Hz
%Board = OpenBCI_GUI$BoardCytonSerial
Sample Index, EXG Channel 0, EXG Channel 1, EXG Channel 2, EXG Channel 3, EXG Channel 4, EXG Channel 5, EXG Channel 6, EXG Channel 7, Accel Channel 0, Accel Channel 1, Accel Channel 2, Other, Other, Other, Other, Other, Other, Other, Analog Channel 0, Analog Channel 1, Analog Channel 2, Timestamp, Other, Timestamp (Formatted)
0.0, 0.0, 0.0, 0.0, 0.0, 0.0, 0.0, 0.0, 0.0, 0.0, 0.0, 0.0, 192.0, 0.0, 0.0, 0.0, 0.0, 0.0, 0.0, 0.0, 0.0, 0.0, 1.7297048855284188E9, 0.0, 2024-10-23 23:04:45.528
1.0, -47388.402806330065, -55432.59447009498, -18940.309457815823, -21959.06900871623, -16089.590321730415, -14667.70644995051, -187500.02235174447, -187500.02235174447, -0.146, 0.87, 0.402, 192.0, 251.0, 112.0, 27.0, 48.0, 12.0, 144.0, 0.0, 0.0, 0.0, 1.729704885545457E9, 0.0, 2024-10-23 23:04:45.545
2.0, -46842.304985798, -54671.852847558606, -23688.803456879075, -21463.19555797524, -15415.439357213898, -13947.510891856062, -187500.02235174447, -187500.02235174447, -0.146, 0.87, 0.402, 192.0, 0.0, 0.0, 0.0, 0.0, 0.0, 0.0, 0.0, 0.0, 0.0, 1.729704885548554E9, 0.0, 2024-10-23 23:04:45.548
3.0, -45997.16317619839, -53832.768360706374, -29998.432695678795, -20632.537678782664, -14605.792117809311, -13146.804350233597, -187500.02235174447, -187500.02235174447, -0.146, 0.87, 0.402, 192.0, 0.0, 0.0, 0.0, 0.0, 0.0, 0.0, 0.0, 0.0, 0.0, 1.729704885551474E9, 0.0, 2024-10-23 23:04:45.551
4.0, -46164.86831484656, -54610.29614332869, -24090.844284396684, -20556.720561590264, -15171.29125252858, -13812.64046581274, -187500.02235174447, -187500.02235174447, -0.146, 0.87, 0.402, 192.0, 0.0, 0.0, 0.0, 0.0, 0.0, 0.0, 0.0, 0.0, 0.0, 1.7297048855565724E9, 0.0, 2024-10-23 23:04:45.556
5.0, -47246.73744997233, -55625.19945206636, -18090.160857458217, -21646.971600886776, -16164.759238333612, -14789.612864209756, -187500.02235174447, -187500.02235174447, -0.146, 0.87, 0.402, 192.0, 0.0, 0.0, 0.0, 0.0, 0.0, 0.0, 0.0, 0.0, 0.0, 1.7297048855596051E9, 0.0, 2024-10-23 23:04:45.559
6.0, -47392.7837482433, -55437.10952247495, -18892.342614214733, -21940.070025929217, -16076.46984773515, -14648.260432274394, -187500.02235174447, -187500.02235174447, -0.146, 0.87, 0.402, 192.0, 0.0, 0.0, 0.0, 0.0, 0.0, 0.0, 0.0, 0.0, 0.0, 1.7297048855634863E9, 0.0, 2024-10-23 23:04:45.563
7.0, -46856.52069527158, -54687.2084959994, -23616.495563566157, -21459.261650951106, -15415.864040358549, -13945.275717410532, -187500.02235174447, -187500.02235174447, -0.146, 0.87, 0.402, 192.0, 0.0, 0.0, 0.0, 0.0, 0.0, 0.0, 0.0, 0.0, 0.0, 1.729704885567544E9, 0.0, 2024-10-23 23:04:45.567
8.0, -46011.267126949686, -53844.19010212304, -29976.59504134596, -20636.73980674026, -14607.803774810289, -13143.429236820846, -187500.02235174447, -187500.02235174447, -0.162, 0.846, 0.45, 192.0, 250.0, 240.0, 26.0, 112.0, 14.0, 16.0, 0.0, 0.0, 0.0, 1.729704885571585E9, 0.0, 2024-10-23 23:04:45.571
9.0, -46168.73516663732, -54613.4924427858, -24139.973418709447, -20550.283259187134, -15163.110514057937, -13808.840669255338, -187500.02235174447, -187500.02235174447, -0.162, 0.846, 0.45, 192.0, 0.0, 0.0, 0.0, 0.0, 0.0, 0.0, 0.0, 0.0, 0.0, 1.729704885575559E9, 0.0, 2024-10-23 23:04:45.575
10.0, -47250.44783955191, -55632.01673412523, -18082.650671321237, -21646.457510764303, -16164.423962166782, -14798.128878847228, -187500.02235174447, -187500.02235174447, -0.162, 0.846, 0.45, 192.0, 0.0, 0.0, 0.0, 0.0, 0.0, 0.0, 0.0, 0.0, 0.0, 1.7297048855795019E9, 0.0, 2024-10-23 23:04:45.579
11.0, -47394.25896337735, -55439.50115913167, -18820.5935145132, -21943.62395329761, -16069.361992998362, -14660.062153346797, -187500.02235174447, -187500.02235174447, -0.162, 0.846, 0.45, 192.0, 0.0, 0.0, 0.0, 0.0, 0.0, 0.0, 0.0, 0.0, 0.0, 1.729704885584648E9, 0.0, 2024-10-23 23:04:45.584
12.0, -46860.07462263997, -54690.89653383452, -23522.17120196476, -21464.022572520087, -15407.48213618781, -13966.174598476244, -187500.02235174447, -187500.02235174447, -0.162, 0.846, 0.45, 192.0, 0.0, 0.0, 0.0, 0.0, 0.0, 0.0, 0.0, 0.0, 0.0, 1.7297048855876079E9, 0.0, 2024-10-23 23:04:45.587
13.0, -46009.81426356009, -53840.09973288772, -29937.72535773818, -20638.863222463515, -14595.622074082146, -13164.775152775665, -187500.02235174447, -187500.02235174447, -0.162, 0.846, 0.45, 192.0, 0.0, 0.0, 0.0, 0.0, 0.0, 0.0, 0.0, 0.0, 0.0, 1.7297048855915227E9, 0.0, 2024-10-23 23:04:45.591
14.0, -46149.57972163913, -54587.29619828417, -24202.848875862226, -20537.05102646959, -15141.004638791639, -13816.082634458857, -187500.02235174447, -187500.02235174447, -0.162, 0.846, 0.45, 192.0, 0.0, 0.0, 0.0, 0.0, 0.0, 0.0, 0.0, 0.0, 0.0, 1.7297048855965033E9, 0.0, 2024-10-23 23:04:45.596
15.0, -47221.144702571, -55600.56782967661, -18099.39212791826, -21621.982350585742, -16136.640743808835, -14796.050166612884, -187500.02235174447, -187500.02235174447, -0.162, 0.846, 0.45, 192.0, 0.0, 0.0, 0.0, 0.0, 0.0, 0.0, 0.0, 0.0, 0.0, 1.7297048856005828E9, 0.0, 2024-10-23 23:04:45.600
16.0, -47380.26677134833, -55424.32432464651, -18805.841363172694, -21932.023397925306, -16068.51262670906, -14674.300214564826, -187500.02235174447, -187500.02235174447, -0.162, 0.846, 0.45, 192.0, 0.0, 0.0, 0.0, 0.0, 0.0, 0.0, 0.0, 0.0, 0.0, 1.7297048856035528E9, 0.0, 2024-10-23 23:04:45.603
17.0, -46859.51582902859, -54688.01315879979, -23495.68438478522, -21469.074066766985, -15437.76874992475, -13991.67793889975, -187500.02235174447, -187500.02235174447, -0.162, 0.846, 0.45, 192.0, 0.0, 0.0, 0.0, 0.0, 0.0, 0.0, 0.0, 0.0, 0.0, 1.7297048856075459E9, 0.0, 2024-10-23 23:04:45.607
18.0, -46026.01927829019, -53842.13374163315, -29973.59990758895, -20663.04780996416, -14627.026275041853, -13192.08898450005, -187500.02235174447, -187500.02235174447, -0.162, 0.834, 0.47200000000000003, 192.0, 250.0, 240.0, 26.0, 16.0, 14.0, 192.0, 0.0, 0.0, 0.0, 1.729704885611595E9, 0.0, 2024-10-23 23:04:45.611
19.0, -46144.37176518104, -54573.21459927734, -24318.27328422943, -20539.085035215026, -15136.981324789684, -13821.916439761691, -187500.02235174447, -187500.02235174447, -0.162, 0.834, 0.47200000000000003, 192.0, 0.0, 0.0, 0.0, 0.0, 0.0, 0.0, 0.0, 0.0, 0.0, 1.7297048856156044E9, 0.0, 2024-10-23 23:04:45.615
20.0, -47238.8472841796, -55614.64942868346, -18183.74761149259, -21640.869574650478, -16162.34524993244, -14821.955838436585, -187500.02235174447, -187500.02235174447, -0.162, 0.834, 0.47200000000000003, 192.0, 0.0, 0.0, 0.0, 0.0, 0.0, 0.0, 0.0, 0.0, 0.0, 1.7297048856196718E9, 0.0, 2024-10-23 23:04:45.619
21.0, -47408.94405948449, -55455.728525606224, -18835.703293764986, -21969.328459421213, -16092.272531065051, -14701.412880589114, -187500.02235174447, -187500.02235174447, -0.162, 0.834, 0.47200000000000003, 192.0, 0.0, 0.0, 0.0, 0.0, 0.0, 0.0, 0.0, 0.0, 0.0, 1.7297048856236172E9, 0.0, 2024-10-23 23:04:45.623
22.0, -46874.89382921384, -54707.99561834284, -23476.394829320292, -21500.63472993788, -15447.87173841855, -13999.255180270098, -187500.02235174447, -187500.02235174447, -0.162, 0.834, 0.47200000000000003, 192.0, 0.0, 0.0, 0.0, 0.0, 0.0, 0.0, 0.0, 0.0, 0.0, 1.729704885628611E9, 0.0, 2024-10-23 23:04:45.628
23.0, -46041.28551975316, -53855.83536098425, -29991.97304153121, -20692.172132989424, -14616.722120847955, -13189.965568776795, -187500.02235174447, -187500.02235174447, -0.162, 0.834, 0.47200000000000003, 192.0, 0.0, 0.0, 0.0, 0.0, 0.0, 0.0, 0.0, 0.0, 0.0, 1.7297048856317132E9, 0.0, 2024-10-23 23:04:45.631
24.0, -46146.964567537856, -54574.84627662257, -24431.104890239825, -20554.68655284483, -15121.536269371067, -13807.052529698913, -187500.02235174447, -187500.02235174447, -0.162, 0.834, 0.47200000000000003, 192.0, 0.0, 0.0, 0.0, 0.0, 0.0, 0.0, 0.0, 0.0, 0.0, 1.7297048856355681E9, 0.0, 2024-10-23 23:04:45.635
25.0, -47230.890063153514, -55611.38607399298, -18224.181917212238, -21645.898717152922, -16147.8613195254, -14798.68767245861, -187500.02235174447, -187500.02235174447, -0.162, 0.834, 0.47200000000000003, 192.0, 0.0, 0.0, 0.0, 0.0, 0.0, 0.0, 0.0, 0.0, 0.0, 1.729704885639836E9, 0.0, 2024-10-23 23:04:45.639
26.0, -47407.558251328264, -55460.064764030554, -18802.71211894895, -21976.279851946816, -16094.172429343753, -14686.459563548515, -187500.02235174447, -187500.02235174447, -0.162, 0.834, 0.47200000000000003, 192.0, 0.0, 0.0, 0.0, 0.0, 0.0, 0.0, 0.0, 0.0, 0.0, 1.7297048856436765E9, 0.0, 2024-10-23 23:04:45.643
27.0, -46878.827736237974, -54718.3668277701, -23404.533970896482, -21507.8766951414, -15429.140976565002, -13987.699328386705, -187500.02235174447, -187500.02235174447, -0.162, 0.834, 0.47200000000000003, 192.0, 0.0, 0.0, 0.0, 0.0, 0.0, 0.0, 0.0, 0.0, 0.0, 1.7297048856475978E9, 0.0, 2024-10-23 23:04:45.647
28.0, -46046.359365744516, -53860.93155872006, -29964.189823173267, -20701.850438338573, -14613.615228368668, -13177.448591881823, -187500.02235174447, -187500.02235174447, -0.16, 0.834, 0.484, 192.0, 251.0, 0.0, 26.0, 16.0, 15.0, 32.0, 0.0, 0.0, 0.0, 1.7297048856516223E9, 0.0, 2024-10-23 23:04:45.651
29.0, -46133.97820400932, -54563.08925903908, -24496.997832894067, -20542.68366607233, -15112.930847755773, -13781.616244508774, -187500.02235174447, -187500.02235174447, -0.16, 0.834, 0.484, 192.0, 0.0, 0.0, 0.0, 0.0, 0.0, 0.0, 0.0, 0.0, 0.0, 1.729704885656618E9, 0.0, 2024-10-23 23:04:45.656
30.0, -47211.82402513314, -55605.5746204346, -18229.03224575904, -21630.90069662341, -16132.371560617872, -14782.30384377287, -187500.02235174447, -187500.02235174447, -0.16, 0.834, 0.484, 192.0, 0.0, 0.0, 0.0, 0.0, 0.0, 0.0, 0.0, 0.0, 0.0, 1.7297048856597168E9, 0.0, 2024-10-23 23:04:45.659
31.0, -47389.22982087491, -55456.64494712889, -18738.38379840658, -21966.936822764495, -16083.622405960848, -14681.363365812704, -187500.02235174447, -187500.02235174447, -0.16, 0.834, 0.484, 192.0, 0.0, 0.0, 0.0, 0.0, 0.0, 0.0, 0.0, 0.0, 0.0, 1.7297048856636107E9, 0.0, 2024-10-23 23:04:45.663
32.0, -46867.18247737676, -54720.132615582064, -23315.819897153367, -21502.758145661133, -15436.472348746342, -13997.690558158227, -187500.02235174447, -187500.02235174447, -0.16, 0.834, 0.484, 192.0, 0.0, 0.0, 0.0, 0.0, 0.0, 0.0, 0.0, 0.0, 0.0, 1.7297048856677213E9, 0.0, 2024-10-23 23:04:45.667
33.0, -46035.42936270587, -53856.2600441289, -29914.88187490486, -20702.230417994313, -14625.215783740972, -13189.965568776795, -187500.02235174447, -187500.02235174447, -0.16, 0.834, 0.484, 192.0, 0.0, 0.0, 0.0, 0.0, 0.0, 0.0, 0.0, 0.0, 0.0, 1.7297048856716466E9, 0.0, 2024-10-23 23:04:45.671
34.0, -46107.31257287414, -54540.469293650305, -24540.829603770926, -20527.64094205391, -15114.853097778929, -13780.856285197293, -187500.02235174447, -187500.02235174447, -0.16, 0.834, 0.484, 192.0, 0.0, 0.0, 0.0, 0.0, 0.0, 0.0, 0.0, 0.0, 0.0, 1.729704885675636E9, 0.0, 2024-10-23 23:04:45.675
35.0, -47205.11850179655, -55603.56296343362, -18234.463719661682, -21627.03384483264, -16156.109113229408, -14803.828573683331, -187500.02235174447, -187500.02235174447, -0.16, 0.834, 0.484, 192.0, 0.0, 0.0, 0.0, 0.0, 0.0, 0.0, 0.0, 0.0, 0.0, 1.7297048856797507E9, 0.0, 2024-10-23 23:04:45.679
36.0, -47398.14816691258, -55469.36308972396, -18686.281882081257, -21973.418828656537, -16107.628179505848, -14715.516831340414, -187500.02235174447, -187500.02235174447, -0.16, 0.834, 0.484, 192.0, 0.0, 0.0, 0.0, 0.0, 0.0, 0.0, 0.0, 0.0, 0.0, 1.7297048856846545E9, 0.0, 2024-10-23 23:04:45.684
37.0, -46876.57021004799, -54732.89546166605, -23224.624779775713, -21508.748413175155, -15441.970877882348, -14021.942200892236, -187500.02235174447, -187500.02235174447, -0.16, 0.834, 0.484, 192.0, 0.0, 0.0, 0.0, 0.0, 0.0, 0.0, 0.0, 0.0, 0.0, 1.729704885687665E9, 0.0, 2024-10-23 23:04:45.687
38.0, -46050.53914195766, -53867.48061984547, -29861.90824054578, -20710.34410123159, -14613.145841735106, -13202.594304394044, -187500.02235174447, -187500.02235174447, -0.156, 0.8300000000000001, 0.494, 192.0, 251.0, 32.0, 25.0, 240.0, 15.0, 112.0, 0.0, 0.0, 0.0, 1.7297048856907113E9, 0.0, 2024-10-23 23:04:45.690
39.0, -46105.636192039994, -54534.21080520282, -24585.980127570645, -20518.320264616046, -15073.927053681262, -13773.323747315855, -187500.02235174447, -187500.02235174447, -0.156, 0.8300000000000001, 0.494, 192.0, 0.0, 0.0, 0.0, 0.0, 0.0, 0.0, 0.0, 0.0, 0.0, 1.729704885695681E9, 0.0, 2024-10-23 23:04:45.695
40.0, -47208.672429164944, -55607.58627743558, -18243.963211055187, -21616.19324877182, -16120.94981920121, -14800.92284690414, -187500.02235174447, -187500.02235174447, -0.156, 0.8300000000000001, 0.494, 192.0, 0.0, 0.0, 0.0, 0.0, 0.0, 0.0, 0.0, 0.0, 0.0, 1.7297048856998148E9, 0.0, 2024-10-23 23:04:45.699
41.0, -47404.89839373808, -55475.39806072689, -18648.216861273868, -21974.44700890148, -16091.624330475848, -14718.646075564156, -187500.02235174447, -187500.02235174447, -0.156, 0.8300000000000001, 0.494, 192.0, 0.0, 0.0, 0.0, 0.0, 0.0, 0.0, 0.0, 0.0, 0.0, 1.7297048857036967E9, 0.0, 2024-10-23 23:04:45.703
42.0, -46881.44289033925, -54737.09758962364, -23180.81536064331, -21513.039948110574, -15447.022372129248, -14033.363942308897, -187500.02235174447, -187500.02235174447, -0.156, 0.8300000000000001, 0.494, 192.0, 0.0, 0.0, 0.0, 0.0, 0.0, 0.0, 0.0, 0.0, 0.0, 1.729704885707723E9, 0.0, 2024-10-23 23:04:45.707
43.0, -46068.867572411014, -53878.41062288411, -29901.33671776494, -20730.81829915265, -14645.242946772927, -13228.254107028737, -187500.02235174447, -187500.02235174447, -0.156, 0.8300000000000001, 0.494, 192.0, 0.0, 0.0, 0.0, 0.0, 0.0, 0.0, 0.0, 0.0, 0.0, 1.7297048857127523E9, 0.0, 2024-10-23 23:04:45.712
44.0, -46109.57009906413, -54537.965898271315, -24722.2363617702, -20532.804195023084, -15114.137841956359, -13795.58608479334, -187500.02235174447, -187500.02235174447, -0.156, 0.8300000000000001, 0.494, 192.0, 0.0, 0.0, 0.0, 0.0, 0.0, 0.0, 0.0, 0.0, 0.0, 1.72970488571571E9, 0.0, 2024-10-23 23:04:45.715
45.0, -47201.43046396142, -55603.0712250556, -18316.695787512755, -21622.89877210841, -16163.194616221741, -14814.825631955342, -187500.02235174447, -187500.02235174447, -0.156, 0.8300000000000001, 0.494, 192.0, 0.0, 0.0, 0.0, 0.0, 0.0, 0.0, 0.0, 0.0, 0.0, 1.729704885718688E9, 0.0, 2024-10-23 23:04:45.718
46.0, -47412.9897252309, -55483.57879919754, -18661.82907364715, -21985.265253217847, -16127.320066370972, -14738.941459529575, -187500.02235174447, -187500.02235174447, -0.156, 0.8300000000000001, 0.494, 192.0, 0.0, 0.0, 0.0, 0.0, 0.0, 0.0, 0.0, 0.0, 0.0, 1.7297048857237394E9, 0.0, 2024-10-23 23:04:45.723
47.0, -46892.6187625669, -54747.15587462853, -23150.551098650827, -21526.473346528215, -15467.228349116845, -14047.847872715936, -187500.02235174447, -187500.02235174447, -0.156, 0.8300000000000001, 0.494, 192.0, 0.0, 0.0, 0.0, 0.0, 0.0, 0.0, 0.0, 0.0, 0.0, 1.729704885727712E9, 0.0, 2024-10-23 23:04:45.727
48.0, -46081.00456965024, -53882.14336420815, -29895.10058106191, -20747.380941794032, -14660.151560324617, -13229.706970418332, -187500.02235174447, -187500.02235174447, -0.16, 0.8260000000000001, 0.492, 192.0, 251.0, 0.0, 25.0, 208.0, 15.0, 96.0, 0.0, 0.0, 0.0, 1.729704885731714E9, 0.0, 2024-10-23 23:04:45.731
49.0, -46091.55459303315, -54514.40715961542, -24780.82028398756, -20516.688587270808, -15081.70546075171, -13760.180921576133, -187500.02235174447, -187500.02235174447, -0.16, 0.8260000000000001, 0.492, 192.0, 0.0, 0.0, 0.0, 0.0, 0.0, 0.0, 0.0, 0.0, 0.0, 1.7297048857357318E9, 0.0, 2024-10-23 23:04:45.735
50.0, -47185.9854085428, -55589.9731028048, -18313.05245316654, -21602.6480916319, -16129.152909416309, -14787.601207208778, -187500.02235174447, -187500.02235174447, -0.16, 0.8260000000000001, 0.492, 192.0, 0.0, 0.0, 0.0, 0.0, 0.0, 0.0, 0.0, 0.0, 0.0, 1.7297048857397373E9, 0.0, 2024-10-23 23:04:45.739
51.0, -47408.3405623842, -55479.354319495484, -18598.640692072, -21971.34011642219, -16124.593153547426, -14723.272886666404, -187500.02235174447, -187500.02235174447, -0.16, 0.8260000000000001, 0.492, 192.0, 0.0, 0.0, 0.0, 0.0, 0.0, 0.0, 0.0, 0.0, 0.0, 1.729704885743832E9, 0.0, 2024-10-23 23:04:45.743
52.0, -46901.24653592665, -54751.31329909722, -23067.46966451045, -21519.946637147266, -15487.948416226915, -14041.231756357165, -187500.02235174447, -187500.02235174447, -0.16, 0.8260000000000001, 0.492, 192.0, 0.0, 0.0, 0.0, 0.0, 0.0, 0.0, 0.0, 0.0, 0.0, 1.7297048857468264E9, 0.0, 2024-10-23 23:04:45.746
53.0, -46095.62261052401, -53882.79156479736, -29849.52537411754, -20740.675418457442, -14682.391546057648, -13224.543717449156, -187500.02235174447, -187500.02235174447, -0.16, 0.8260000000000001, 0.492, 192.0, 0.0, 0.0, 0.0, 0.0, 0.0, 0.0, 0.0, 0.0, 0.0, 1.7297048857517612E9, 0.0, 2024-10-23 23:04:45.751
54.0, -46080.69164522787, -54493.575333783076, -24817.94653152782, -20488.123057856927, -15065.098114621416, -13738.902060854682, -187500.02235174447, -187500.02235174447, -0.16, 0.8260000000000001, 0.492, 192.0, 0.0, 0.0, 0.0, 0.0, 0.0, 0.0, 0.0, 0.0, 0.0, 1.7297048857557924E9, 0.0, 2024-10-23 23:04:45.755
55.0, -47176.307103193656, -55573.3657566745, -18289.337252299458, -21575.580129096525, -16107.158792872286, -14778.436991982102, -187500.02235174447, -187500.02235174447, -0.16, 0.8260000000000001, 0.492, 192.0, 0.0, 0.0, 0.0, 0.0, 0.0, 0.0, 0.0, 0.0, 0.0, 1.729704885760779E9, 0.0, 2024-10-23 23:04:45.760
56.0, -47400.986838458404, -55469.564255424055, -18501.455307180324, -21955.20215692546, -16100.117993368864, -14722.57998258829, -187500.02235174447, -187500.02235174447, -0.16, 0.8260000000000001, 0.492, 192.0, 0.0, 0.0, 0.0, 0.0, 0.0, 0.0, 0.0, 0.0, 0.0, 1.7297048857647915E9, 0.0, 2024-10-23 23:04:45.764
57.0, -46897.4690911137, -54746.418267061505, -22943.037503127754, -21510.089517842476, -15461.01456415827, -14048.272555860587, -187500.02235174447, -187500.02235174447, -0.16, 0.8260000000000001, 0.492, 192.0, 0.0, 0.0, 0.0, 0.0, 0.0, 0.0, 0.0, 0.0, 0.0, 1.7297048857677803E9, 0.0, 2024-10-23 23:04:45.767
58.0, -46096.42727332441, -53882.38923339716, -29781.93369888469, -20747.135072605022, -14659.749228924422, -13237.843005400064, -187500.02235174447, -187500.02235174447, -0.164, 0.8240000000000001, 0.49, 192.0, 250.0, 224.0, 25.0, 192.0, 15.0, 80.0, 0.0, 0.0, 0.0, 1.7297048857717803E9, 0.0, 2024-10-23 23:04:45.771
59.0, -46067.63822646597, -54481.885371432945, -24870.763703675715, -20487.787781690095, -15058.616108729377, -13746.121674313747, -187500.02235174447, -187500.02235174447, -0.164, 0.8240000000000001, 0.49, 192.0, 0.0, 0.0, 0.0, 0.0, 0.0, 0.0, 0.0, 0.0, 0.0, 1.7297048857767715E9, 0.0, 2024-10-23 23:04:45.776
60.0, -47160.4820681193, -55566.123791470985, -18281.04475510654, -21566.907652247864, -16101.347339313907, -14783.98022460702, -187500.02235174447, -187500.02235174447, -0.164, 0.8240000000000001, 0.49, 192.0, 0.0, 0.0, 0.0, 0.0, 0.0, 0.0, 0.0, 0.0, 0.0, 1.7297048857798057E9, 0.0, 2024-10-23 23:04:45.779
61.0, -47400.495100080385, -55472.67114790335, -18442.111425651485, -21952.229374912906, -16107.829345205946, -14735.991029261475, -187500.02235174447, -187500.02235174447, -0.164, 0.8240000000000001, 0.49, 192.0, 0.0, 0.0, 0.0, 0.0, 0.0, 0.0, 0.0, 0.0, 0.0, 1.7297048857837913E9, 0.0, 2024-10-23 23:04:45.783
62.0, -46896.66442831331, -54747.491150795366, -22874.864682539068, -21513.911666144333, -15469.910558451482, -14058.576710054484, -187500.02235174447, -187500.02235174447, -0.164, 0.8240000000000001, 0.49, 192.0, 0.0, 0.0, 0.0, 0.0, 0.0, 0.0, 0.0, 0.0, 0.0, 1.7297048857877762E9, 0.0, 2024-10-23 23:04:45.787
63.0, -46102.484596071794, -53881.04812872984, -29771.450730735152, -20757.05924714318, -14665.538330738347, -13247.253089815747, -187500.02235174447, -187500.02235174447, -0.164, 0.8240000000000001, 0.49, 192.0, 0.0, 0.0, 0.0, 0.0, 0.0, 0.0, 0.0, 0.0, 0.0, 1.729704885791852E9, 0.0, 2024-10-23 23:04:45.791
64.0, -46056.64116819396, -54462.12642933446, -24969.312544979162, -20474.108514083448, -15045.78620741203, -13737.96328758756, -187500.02235174447, -187500.02235174447, -0.164, 0.8240000000000001, 0.49, 192.0, 0.0, 0.0, 0.0, 0.0, 0.0, 0.0, 0.0, 0.0, 0.0, 1.7297048857958136E9, 0.0, 2024-10-23 23:04:45.795
65.0, -47147.40629761294, -55549.31527964059, -18320.070900925508, -21546.768730493633, -16099.089813123921, -14777.87819837072, -187500.02235174447, -187500.02235174447, -0.164, 0.8240000000000001, 0.49, 192.0, 0.0, 0.0, 0.0, 0.0, 0.0, 0.0, 0.0, 0.0, 0.0, 1.7297048857998016E9, 0.0, 2024-10-23 23:04:45.799
66.0, -47416.655411321575, -55481.27656951864, -18434.35537032549, -21959.046656971772, -16131.276325139563, -14753.581852147801, -187500.02235174447, -187500.02235174447, -0.164, 0.8240000000000001, 0.49, 192.0, 0.0, 0.0, 0.0, 0.0, 0.0, 0.0, 0.0, 0.0, 0.0, 1.7297048858028722E9, 0.0, 2024-10-23 23:04:45.802
67.0, -46939.49037068968, -54778.85064826616, -22870.19316794791, -21541.247849613173, -15510.613085104596, -14091.098498236955, -187500.02235174447, -187500.02235174447, -0.164, 0.8240000000000001, 0.49, 192.0, 0.0, 0.0, 0.0, 0.0, 0.0, 0.0, 0.0, 0.0, 0.0, 1.7297048858068645E9, 0.0, 2024-10-23 23:04:45.806
68.0, -46167.41641371446, -53931.00427758745, -29851.313513673966, -20811.73161408086, -14722.53527909938, -13291.442488603889, -187500.02235174447, -187500.02235174447, -0.164, 0.8280000000000001, 0.488, 192.0, 250.0, 224.0, 25.0, 224.0, 15.0, 64.0, 0.0, 0.0, 0.0, 1.7297048858119051E9, 0.0, 2024-10-23 23:04:45.811
69.0, -46085.76549121922, -54479.82901094306, -25132.59203822518, -20498.136639372904, -15078.799733972519, -13750.033229593424, -187500.02235174447, -187500.02235174447, -0.164, 0.8280000000000001, 0.488, 192.0, 0.0, 0.0, 0.0, 0.0, 0.0, 0.0, 0.0, 0.0, 0.0, 1.7297048858159053E9, 0.0, 2024-10-23 23:04:45.815
70.0, -47162.69489082038, -55561.921663513385, -18380.331203977014, -21549.428588083814, -16107.494069039116, -14769.228073266517, -187500.02235174447, -187500.02235174447, -0.164, 0.8280000000000001, 0.488, 192.0, 0.0, 0.0, 0.0, 0.0, 0.0, 0.0, 0.0, 0.0, 0.0, 1.7297048858198793E9, 0.0, 2024-10-23 23:04:45.819
71.0, -47429.28414693882, -55496.22988655924, -18399.68781467531, -21963.807578540753, -16119.564011044982, -14742.897718298163, -187500.02235174447, -187500.02235174447, -0.164, 0.8280000000000001, 0.488, 192.0, 0.0, 0.0, 0.0, 0.0, 0.0, 0.0, 0.0, 0.0, 0.0, 1.7297048858238971E9, 0.0, 2024-10-23 23:04:45.823
72.0, -46961.10450757796, -54799.81658456523, -22844.08633042411, -21555.888242231398, -15516.446890407431, -14092.797230815559, -187500.02235174447, -187500.02235174447, -0.164, 0.8280000000000001, 0.488, 192.0, 0.0, 0.0, 0.0, 0.0, 0.0, 0.0, 0.0, 0.0, 0.0, 1.7297048858269267E9, 0.0, 2024-10-23 23:04:45.826
73.0, -46201.055789119695, -53955.054754621364, -29974.98571574518, -20837.190251015458, -14735.856918794743, -13294.370567127535, -187500.02235174447, -187500.02235174447, -0.164, 0.8280000000000001, 0.488, 192.0, 0.0, 0.0, 0.0, 0.0, 0.0, 0.0, 0.0, 0.0, 0.0, 1.7297048858309312E9, 0.0, 2024-10-23 23:04:45.830
74.0, -46079.439947538376, -54472.251769572715, -25314.356424135738, -20483.42919152131, -15042.88048063284, -13720.66303737915, -187500.02235174447, -187500.02235174447, -0.164, 0.8280000000000001, 0.488, 192.0, 0.0, 0.0, 0.0, 0.0, 0.0, 0.0, 0.0, 0.0, 0.0, 1.729704885834954E9, 0.0, 2024-10-23 23:04:45.834
75.0, -47145.03701270068, -55555.59611983253, -18324.094214927463, -21519.41019528034, -16081.923673382244, -14750.609070135246, -187500.02235174447, -187500.02235174447, -0.164, 0.8280000000000001, 0.488, 192.0, 0.0, 0.0, 0.0, 0.0, 0.0, 0.0, 0.0, 0.0, 0.0, 1.7297048858398952E9, 0.0, 2024-10-23 23:04:45.839
76.0, -47433.17335047405, -55507.31635180907, -18213.78835604052, -21955.380970881102, -16143.8603572679, -14746.16107298864, -187500.02235174447, -187500.02235174447, -0.164, 0.8280000000000001, 0.488, 192.0, 0.0, 0.0, 0.0, 0.0, 0.0, 0.0, 0.0, 0.0, 0.0, 1.7297048858439004E9, 0.0, 2024-10-23 23:04:45.843
77.0, -47016.53683382712, -54757.057697422235, -23907.11294497406, -21626.117423309974, -15492.038785462235, -14037.63312549986, -187500.02235174447, -187500.02235174447, -0.164, 0.8280000000000001, 0.488, 192.0, 0.0, 0.0, 0.0, 0.0, 0.0, 0.0, 0.0, 0.0, 0.0, 1.7297048858480446E9, 0.0, 2024-10-23 23:04:45.848
78.0, -45922.128370061924, -53241.989403008156, -39618.71291622078, -20762.289555345724, -14117.160632271843, -12592.548142975349, -187500.02235174447, -187500.02235174447, -0.158, 0.8240000000000001, 0.496, 192.0, 251.0, 16.0, 25.0, 192.0, 15.0, 128.0, 0.0, 0.0, 0.0, 1.7297048858519251E9, 0.0, 2024-10-23 23:04:45.851
79.0, -45044.21890309083, -53574.00221514729, -34756.627351835654, -19452.9914203872, -14127.397731232373, -12843.625288441812, -187500.02235174447, -187500.02235174447, -0.158, 0.8240000000000001, 0.496, 192.0, 0.0, 0.0, 0.0, 0.0, 0.0, 0.0, 0.0, 0.0, 0.0, 1.7297048858559284E9, 0.0, 2024-10-23 23:04:45.855
80.0, -47028.89734851091, -55907.278467092336, -17642.030732873765, -21130.020455124435, -16342.410903264394, -15080.118486895382, -187500.02235174447, -187500.02235174447, -0.158, 0.8240000000000001, 0.496, 192.0, 0.0, 0.0, 0.0, 0.0, 0.0, 0.0, 0.0, 0.0, 0.0, 1.7297048858590171E9, 0.0, 2024-10-23 23:04:45.859
81.0, -48255.71754642935, -56523.65017219188, -12691.409908701171, -22637.19858374579, -17089.182685516203, -15735.225765135976, -187500.02235174447, -187500.02235174447, -0.158, 0.8240000000000001, 0.496, 192.0, 0.0, 0.0, 0.0, 0.0, 0.0, 0.0, 0.0, 0.0, 0.0, 1.729704885862932E9, 0.0, 2024-10-23 23:04:45.862
82.0, -47627.007678390466, -55289.18567766973, -20431.930772296284, -22314.953483933627, -16026.334884921896, -14581.294605886294, -187500.02235174447, -187500.02235174447, -0.158, 0.8240000000000001, 0.496, 192.0, 0.0, 0.0, 0.0, 0.0, 0.0, 0.0, 0.0, 0.0, 0.0, 1.7297048858679333E9, 0.0, 2024-10-23 23:04:45.867
83.0, -46092.33690408908, -53333.9891831862, -37799.16915883651, -21001.34146229523, -14235.937802307344, -12718.008484602988, -187500.02235174447, -187500.02235174447, -0.158, 0.8240000000000001, 0.496, 192.0, 0.0, 0.0, 0.0, 0.0, 0.0, 0.0, 0.0, 0.0, 0.0, 1.7297048858719327E9, 0.0, 2024-10-23 23:04:45.871
84.0, -45006.176234027895, -53488.64090307247, -33859.71890207755, -19459.60753674597, -14061.460085089218, -12800.754642576534, -187500.02235174447, -187500.02235174447, -0.158, 0.8240000000000001, 0.496, 192.0, 0.0, 0.0, 0.0, 0.0, 0.0, 0.0, 0.0, 0.0, 0.0, 1.729704885876932E9, 0.0, 2024-10-23 23:04:45.876
85.0, -46929.09680951796, -55788.076613912184, -16995.618283226286, -21050.78352103037, -16229.646352487369, -14999.58515162291, -187500.02235174447, -187500.02235174447, -0.158, 0.8240000000000001, 0.496, 192.0, 0.0, 0.0, 0.0, 0.0, 0.0, 0.0, 0.0, 0.0, 0.0, 1.729704885881013E9, 0.0, 2024-10-23 23:04:45.881
86.0, -48180.45922284832, -56435.24902287115, -12126.469567593285, -22566.343553822466, -17020.384016082768, -15677.602967930196, -187500.02235174447, -187500.02235174447, -0.158, 0.8240000000000001, 0.496, 192.0, 0.0, 0.0, 0.0, 0.0, 0.0, 0.0, 0.0, 0.0, 0.0, 1.729704885884008E9, 0.0, 2024-10-23 23:04:45.884
87.0, -47585.8804685927, -55230.467644985634, -19990.48381930397, -22264.952631587104, -15993.723689761602, -14546.02355313582, -187500.02235174447, -187500.02235174447, -0.158, 0.8240000000000001, 0.496, 192.0, 0.0, 0.0, 0.0, 0.0, 0.0, 0.0, 0.0, 0.0, 0.0, 1.7297048858869817E9, 0.0, 2024-10-23 23:04:45.886
88.0, -46066.431232265386, -53289.59861869796, -37470.95614325478, -20971.278366002844, -14210.054482228099, -12693.734490124523, -187500.02235174447, -187500.02235174447, -0.158, 0.8240000000000001, 0.496, 192.0, 0.0, 0.0, 0.0, 0.0, 0.0, 0.0, 0.0, 0.0, 0.0, 1.7297048858909788E9, 0.0, 2024-10-23 23:04:45.890
89.0, -44966.47953587527, -53433.90148090142, -33783.29828778485, -19420.246114760175, -14032.246355086132, -12763.091953169342, -187500.02235174447, -187500.02235174447, -0.166, 0.8220000000000001, 0.496, 192.0, 250.0, 208.0, 25.0, 176.0, 15.0, 128.0, 0.0, 0.0, 0.0, 1.7297048858960197E9, 0.0, 2024-10-23 23:04:45.896
90.0, -46901.22418418219, -55757.16415133049, -16931.602887106288, -21017.993511914436, -16218.06814885952, -14983.313081659448, -187500.02235174447, -187500.02235174447, -0.166, 0.8220000000000001, 0.496, 192.0, 0.0, 0.0, 0.0, 0.0, 0.0, 0.0, 0.0, 0.0, 0.0, 1.7297048859001231E9, 0.0, 2024-10-23 23:04:45.900
91.0, -48160.87909470548, -56413.79134819405, -12066.790409897616, -22549.624448969895, -17006.07889963137, -15667.0976480362, -187500.02235174447, -187500.02235174447, -0.166, 0.8220000000000001, 0.496, 192.0, 0.0, 0.0, 0.0, 0.0, 0.0, 0.0, 0.0, 0.0, 0.0, 1.7297048859040043E9, 0.0, 2024-10-23 23:04:45.904
92.0, -47574.145802753665, -55214.35203723336, -19936.32554248876, -22255.49784368251, -15986.079393157888, -14539.362733288139, -187500.02235174447, -187500.02235174447, -0.166, 0.8220000000000001, 0.496, 192.0, 0.0, 0.0, 0.0, 0.0, 0.0, 0.0, 0.0, 0.0, 0.0, 1.729704885908048E9, 0.0, 2024-10-23 23:04:45.908
93.0, -46079.32818881609, -53286.91640936332, -37402.001011610155, -20974.832293371237, -14226.259496958197, -12691.70048137909, -187500.02235174447, -187500.02235174447, -0.166, 0.8220000000000001, 0.496, 192.0, 0.0, 0.0, 0.0, 0.0, 0.0, 0.0, 0.0, 0.0, 0.0, 1.729704885911006E9, 0.0, 2024-10-23 23:04:45.911
94.0, -44978.68358834786, -53432.94035588984, -33872.146471994696, -19426.50460320766, -14035.219137098687, -12745.545833771925, -187500.02235174447, -187500.02235174447, -0.166, 0.8220000000000001, 0.496, 192.0, 0.0, 0.0, 0.0, 0.0, 0.0, 0.0, 0.0, 0.0, 0.0, 1.7297048859150152E9, 0.0, 2024-10-23 23:04:45.915
95.0, -46900.35246614843, -55757.23120656386, -16974.719402160576, -21014.663101990594, -16192.296587502551, -14953.831130722898, -187500.02235174447, -187500.02235174447, -0.166, 0.8220000000000001, 0.496, 192.0, 0.0, 0.0, 0.0, 0.0, 0.0, 0.0, 0.0, 0.0, 0.0, 1.729704885919047E9, 0.0, 2024-10-23 23:04:45.919
96.0, -48163.7177662513, -56418.75343546313, -12050.406581211875, -22542.42718725529, -16990.58914072384, -15638.554470366773, -187500.02235174447, -187500.02235174447, -0.166, 0.8220000000000001, 0.496, 192.0, 0.0, 0.0, 0.0, 0.0, 0.0, 0.0, 0.0, 0.0, 0.0, 1.729704885923035E9, 0.0, 2024-10-23 23:04:45.923
97.0, -47584.80758485885, -55231.02643859702, -19888.40340237658, -22248.501747668, -15978.457448298628, -14518.285038266784, -187500.02235174447, -187500.02235174447, -0.166, 0.8220000000000001, 0.496, 192.0, 0.0, 0.0, 0.0, 0.0, 0.0, 0.0, 0.0, 0.0, 0.0, 1.7297048859280486E9, 0.0, 2024-10-23 23:04:45.928
98.0, -46116.14151193399, -53325.89785169338, -37365.38885419236, -20996.558188981795, -14240.38579945395, -12701.155269283685, -187500.02235174447, -187500.02235174447, -0.166, 0.8220000000000001, 0.496, 192.0, 0.0, 0.0, 0.0, 0.0, 0.0, 0.0, 0.0, 0.0, 0.0, 1.7297048859320548E9, 0.0, 2024-10-23 23:04:45.932
99.0, -44979.93528603736, -53425.51957673068, -34052.97208463813, -19424.381187484407, -14031.799320197026, -12732.358304543293, -187500.02235174447, -187500.02235174447, -0.166, 0.8240000000000001, 0.498, 192.0, 250.0, 208.0, 25.0, 192.0, 15.0, 144.0, 0.0, 0.0, 0.0, 1.7297048859360673E9, 0.0, 2024-10-23 23:04:45.936
100.0, -46879.49828857163, -55738.4557412214, -17071.077772507404, -20988.24334004442, -16189.100288045442, -14934.966258402617, -187500.02235174447, -187500.02235174447, -0.166, 0.8240000000000001, 0.498, 192.0, 0.0, 0.0, 0.0, 0.0, 0.0, 0.0, 0.0, 0.0, 0.0, 1.7297048859390492E9, 0.0, 2024-10-23 23:04:45.939
101.0, -48159.42623131588, -56423.78257796557, -11978.612778021428, -22531.586591194464, -17006.481231031565, -15652.680772862528, -187500.02235174447, -187500.02235174447, -0.166, 0.8240000000000001, 0.498, 192.0, 0.0, 0.0, 0.0, 0.0, 0.0, 0.0, 0.0, 0.0, 0.0, 1.72970488594358E9, 0.0, 2024-10-23 23:04:45.943
102.0, -47599.604439688264, -55252.26059582956, -19730.242458610828, -22262.337477485835, -16014.153184193754, -14562.474437054925, -187500.02235174447, -187500.02235174447, -0.166, 0.8240000000000001, 0.498, 192.0, 0.0, 0.0, 0.0, 0.0, 0.0, 0.0, 0.0, 0.0, 0.0, 1.7297048859471233E9, 0.0, 2024-10-23 23:04:45.947
103.0, -46141.17546572393, -53346.03677344761, -37282.08390260743, -21024.25200036192, -14272.706421936326, -12742.774217459468, -187500.02235174447, -187500.02235174447, -0.166, 0.8240000000000001, 0.498, 192.0, 0.0, 0.0, 0.0, 0.0, 0.0, 0.0, 0.0, 0.0, 0.0, 1.729704885951105E9, 0.0, 2024-10-23 23:04:45.951
104.0, -44969.251152187724, -53410.49920445671, -34310.41947727436, -19427.33161775251, -14016.354264778409, -12734.101740610808, -187500.02235174447, -187500.02235174447, -0.166, 0.8240000000000001, 0.498, 192.0, 0.0, 0.0, 0.0, 0.0, 0.0, 0.0, 0.0, 0.0, 0.0, 1.729704885956102E9, 0.0, 2024-10-23 23:04:45.956
105.0, -46844.093125354426, -55720.90962182399, -17214.68773063275, -20965.198691511, -16172.9176250598, -14935.681514225187, -187500.02235174447, -187500.02235174447, -0.166, 0.8240000000000001, 0.498, 192.0, 0.0, 0.0, 0.0, 0.0, 0.0, 0.0, 0.0, 0.0, 0.0, 1.7297048859600565E9, 0.0, 2024-10-23 23:04:45.960
106.0, -48139.66728921739, -56430.756322235626, -11913.636256889851, -22521.59536142294, -17009.87869618877, -15673.534950439329, -187500.02235174447, -187500.02235174447, -0.166, 0.8240000000000001, 0.498, 192.0, 0.0, 0.0, 0.0, 0.0, 0.0, 0.0, 0.0, 0.0, 0.0, 1.7297048859641147E9, 0.0, 2024-10-23 23:04:45.964
107.0, -47586.19339301508, -55263.950558179684, -19582.832703928078, -22263.186843775136, -16009.459317858138, -14579.260597140861, -187500.02235174447, -187500.02235174447, -0.166, 0.8240000000000001, 0.498, 192.0, 0.0, 0.0, 0.0, 0.0, 0.0, 0.0, 0.0, 0.0, 0.0, 1.7297048859670768E9, 0.0, 2024-10-23 23:04:45.967
108.0, -46146.9422157934, -53363.80641028958, -37151.43795626616, -21036.79132900135, -14267.118485822499, -12761.393220590739, -187500.02235174447, -187500.02235174447, -0.166, 0.8240000000000001, 0.498, 192.0, 0.0, 0.0, 0.0, 0.0, 0.0, 0.0, 0.0, 0.0, 0.0, 1.729704885971084E9, 0.0, 2024-10-23 23:04:45.971
109.0, -44952.42028861288, -53398.0045793062, -34428.123763576004, -19427.778652641613, -13971.561368889972, -12716.108586324286, -187500.02235174447, -187500.02235174447, -0.164, 0.8200000000000001, 0.5, 192.0, 250.0, 224.0, 25.0, 160.0, 15.0, 160.0, 0.0, 0.0, 0.0, 1.7297048859751232E9, 0.0, 2024-10-23 23:04:45.975
110.0, -46812.68892439472, -55700.144851225006, -17282.32410935451, -20935.04618824079, -16112.545563286016, -14900.969255086096, -187500.02235174447, -187500.02235174447, -0.164, 0.8200000000000001, 0.5, 192.0, 0.0, 0.0, 0.0, 0.0, 0.0, 0.0, 0.0, 0.0, 0.0, 1.72970488598108E9, 0.0, 2024-10-23 23:04:45.981
111.0, -48130.03368735715, -56425.90599368882, -11916.653742391318, -22502.618730380385, -16987.88457964475, -15650.95968853947, -187500.02235174447, -187500.02235174447, -0.164, 0.8200000000000001, 0.5, 192.0, 0.0, 0.0, 0.0, 0.0, 0.0, 0.0, 0.0, 0.0, 0.0, 1.729704885984079E9, 0.0, 2024-10-23 23:04:45.984
112.0, -47578.213820244535, -55257.110924376364, -19538.598601651025, -22238.35405568529, -15999.98217820909, -14556.104189885164, -187500.02235174447, -187500.02235174447, -0.164, 0.8200000000000001, 0.5, 192.0, 0.0, 0.0, 0.0, 0.0, 0.0, 0.0, 0.0, 0.0, 0.0, 1.7297048859880996E9, 0.0, 2024-10-23 23:04:45.988
113.0, -46146.89751230449, -53357.83849452001, -37014.46646624404, -21012.91966592308, -14248.275965246674, -12741.14254011423, -187500.02235174447, -187500.02235174447, -0.164, 0.8200000000000001, 0.5, 192.0, 0.0, 0.0, 0.0, 0.0, 0.0, 0.0, 0.0, 0.0, 0.0, 1.7297048859921577E9, 0.0, 2024-10-23 23:04:45.992
114.0, -44938.450448328316, -53367.62855859144, -34485.63480205951, -19394.36279468093, -13949.94723200169, -12682.737431852513, -187500.02235174447, -187500.02235174447, -0.164, 0.8200000000000001, 0.5, 192.0, 0.0, 0.0, 0.0, 0.0, 0.0, 0.0, 0.0, 0.0, 0.0, 1.7297048859952803E9, 0.0, 2024-10-23 23:04:45.995
115.0, -46796.9979997871, -55680.65413005998, -17342.67381938384, -20909.878123984116, -16095.334720055429, -14880.584464142856, -187500.02235174447, -187500.02235174447, -0.164, 0.8200000000000001, 0.5, 192.0, 0.0, 0.0, 0.0, 0.0, 0.0, 0.0, 0.0, 0.0, 0.0, 1.7297048859991372E9, 0.0, 2024-10-23 23:04:45.999
116.0, -48131.28538504665, -56422.37441806489, -11938.334934512966, -22495.175599476766, -16972.5065794595, -15650.780874583827, -187500.02235174447, -187500.02235174447, -0.164, 0.8200000000000001, 0.5, 192.0, 0.0, 0.0, 0.0, 0.0, 0.0, 0.0, 0.0, 0.0, 0.0, 1.7297048860031729E9, 0.0, 2024-10-23 23:04:46.003
117.0, -47592.69775065157, -55262.3412325789, -19531.177822491863, -22247.965305801074, -16006.598294567859, -14567.905910957565, -187500.02235174447, -187500.02235174447, -0.164, 0.8200000000000001, 0.5, 192.0, 0.0, 0.0, 0.0, 0.0, 0.0, 0.0, 0.0, 0.0, 0.0, 1.7297048860071633E9, 0.0, 2024-10-23 23:04:46.007
118.0, -46174.501916706795, -53372.41183190487, -36982.70463737305, -21038.15478541312, -14280.328366795584, -12762.086124668853, -187500.02235174447, -187500.02235174447, -0.164, 0.8200000000000001, 0.5, 192.0, 0.0, 0.0, 0.0, 0.0, 0.0, 0.0, 0.0, 0.0, 0.0, 1.7297048860121462E9, 0.0, 2024-10-23 23:04:46.012
119.0, -44937.310509361094, -53353.65871830687, -34612.61506231011, -19400.151896494855, -13944.828682521425, -12672.813257314356, -187500.02235174447, -187500.02235174447, -0.166, 0.8160000000000001, 0.496, 192.0, 250.0, 208.0, 25.0, 128.0, 15.0, 128.0, 0.0, 0.0, 0.0, 1.7297048860161586E9, 0.0, 2024-10-23 23:04:46.016
120.0, -46792.23707821812, -55667.35484210907, -17423.29656163413, -20902.256179124855, -16102.688443981224, -14878.751621097521, -187500.02235174447, -187500.02235174447, -0.166, 0.8160000000000001, 0.496, 192.0, 0.0, 0.0, 0.0, 0.0, 0.0, 0.0, 0.0, 0.0, 0.0, 1.7297048860201657E9, 0.0, 2024-10-23 23:04:46.020
121.0, -48138.48264676126, -56423.38024656537, -11898.168849726779, -22490.437029652243, -16998.389899538746, -15663.588424156718, -187500.02235174447, -187500.02235174447, -0.166, 0.8160000000000001, 0.496, 192.0, 0.0, 0.0, 0.0, 0.0, 0.0, 0.0, 0.0, 0.0, 0.0, 1.7297048860231845E9, 0.0, 2024-10-23 23:04:46.023
122.0, -47607.651067692175, -55271.103116405386, -19413.205315256753, -22248.233526734537, -16029.59823961237, -14581.40636460857, -187500.02235174447, -187500.02235174447, -0.166, 0.8160000000000001, 0.496, 192.0, 0.0, 0.0, 0.0, 0.0, 0.0, 0.0, 0.0, 0.0, 0.0, 1.7297048860275898E9, 0.0, 2024-10-23 23:04:46.027
123.0, -46197.85948966259, -53376.61395986247, -36902.148950356124, -21041.619305803695, -14320.74032077078, -12772.032650951463, -187500.02235174447, -187500.02235174447, -0.166, 0.8160000000000001, 0.496, 192.0, 0.0, 0.0, 0.0, 0.0, 0.0, 0.0, 0.0, 0.0, 0.0, 1.729704886031171E9, 0.0, 2024-10-23 23:04:46.031
124.0, -44934.605948282, -53328.89298545039, -34850.035291914384, -19390.272425445608, -13952.674144825238, -12654.060143716353, -187500.02235174447, -187500.02235174447, -0.166, 0.8160000000000001, 0.496, 192.0, 0.0, 0.0, 0.0, 0.0, 0.0, 0.0, 0.0, 0.0, 0.0, 1.7297048860351777E9, 0.0, 2024-10-23 23:04:46.035
125.0, -46770.71234830766, -55651.23923435679, -17590.308796204186, -20877.624556735107, -16092.451345020694, -14859.685583077144, -187500.02235174447, -187500.02235174447, -0.166, 0.8160000000000001, 0.496, 192.0, 0.0, 0.0, 0.0, 0.0, 0.0, 0.0, 0.0, 0.0, 0.0, 1.7297048860392146E9, 0.0, 2024-10-23 23:04:46.039
126.0, -48134.50403624822, -56437.43949382776, -11860.439105086221, -22487.01721275058, -17009.11873687729, -15672.417363216564, -187500.02235174447, -187500.02235174447, -0.166, 0.8160000000000001, 0.496, 192.0, 0.0, 0.0, 0.0, 0.0, 0.0, 0.0, 0.0, 0.0, 0.0, 1.7297048860442104E9, 0.0, 2024-10-23 23:04:46.044
127.0, -47623.18553008861, -55298.3498928964, -19271.852883321393, -22269.22181477807, -16052.911109079256, -14615.068091758263, -187500.02235174447, -187500.02235174447, -0.166, 0.8160000000000001, 0.496, 192.0, 0.0, 0.0, 0.0, 0.0, 0.0, 0.0, 0.0, 0.0, 0.0, 1.7297048860481873E9, 0.0, 2024-10-23 23:04:46.048
128.0, -46215.29385033773, -53399.03275955114, -36799.37562935062, -21086.635719136684, -14326.954105729355, -12809.471822914104, -187500.02235174447, -187500.02235174447, -0.166, 0.8160000000000001, 0.496, 192.0, 0.0, 0.0, 0.0, 0.0, 0.0, 0.0, 0.0, 0.0, 0.0, 1.7297048860512128E9, 0.0, 2024-10-23 23:04:46.051
129.0, -44909.32612530305, -53307.32355205102, -35108.823789217924, -19411.730100122702, -13922.476938066118, -12655.535358850404, -187500.02235174447, -187500.02235174447, -0.166, 0.8220000000000001, 0.494, 192.0, 250.0, 208.0, 25.0, 176.0, 15.0, 112.0, 0.0, 0.0, 0.0, 1.7297048860552275E9, 0.0, 2024-10-23 23:04:46.055
130.0, -46732.24499610007, -55634.408370781945, -17774.598929238193, -20878.339812557675, -16066.568024941449, -14866.502865136012, -187500.02235174447, -187500.02235174447, -0.166, 0.8220000000000001, 0.494, 192.0, 0.0, 0.0, 0.0, 0.0, 0.0, 0.0, 0.0, 0.0, 0.0, 1.7297048860592475E9, 0.0, 2024-10-23 23:04:46.059
131.0, -48126.010373355195, -56451.54344457906, -11850.492578803609, -22510.017157795093, -17011.13039387827, -15708.984817145447, -187500.02235174447, -187500.02235174447, -0.166, 0.8220000000000001, 0.494, 192.0, 0.0, 0.0, 0.0, 0.0, 0.0, 0.0, 0.0, 0.0, 0.0, 1.729704886063248E9, 0.0, 2024-10-23 23:04:46.063
132.0, -47628.125265613235, -55320.99221002963, -19152.11458827431, -22305.968082662595, -16056.621498658837, -14652.551967209813, -187500.02235174447, -187500.02235174447, -0.166, 0.8220000000000001, 0.494, 192.0, 0.0, 0.0, 0.0, 0.0, 0.0, 0.0, 0.0, 0.0, 0.0, 1.7297048860673082E9, 0.0, 2024-10-23 23:04:46.067
133.0, -46241.3112808837, -53425.02783835267, -36667.92502020896, -21128.813460923848, -14336.163024444942, -12842.172425052218, -187500.02235174447, -187500.02235174447, -0.166, 0.8220000000000001, 0.494, 192.0, 0.0, 0.0, 0.0, 0.0, 0.0, 0.0, 0.0, 0.0, 0.0, 1.7297048860722413E9, 0.0, 2024-10-23 23:04:46.072
134.0, -44915.89753817291, -53297.153508323856, -35248.723357763694, -19424.425890973318, -13905.46726053563, -12647.421675613126, -187500.02235174447, -187500.02235174447, -0.166, 0.8220000000000001, 0.494, 192.0, 0.0, 0.0, 0.0, 0.0, 0.0, 0.0, 0.0, 0.0, 0.0, 1.729704886076542E9, 0.0, 2024-10-23 23:04:46.076
135.0, -46723.68427797369, -55613.53184146069, -17877.238139776964, -20860.145492571057, -16051.838225345402, -14845.22400441456, -187500.02235174447, -187500.02235174447, -0.166, 0.8220000000000001, 0.494, 192.0, 0.0, 0.0, 0.0, 0.0, 0.0, 0.0, 0.0, 0.0, 0.0, 1.729704886079266E9, 0.0, 2024-10-23 23:04:46.079
136.0, -48131.687716446846, -56439.11587466191, -11854.426485827744, -22501.74701234663, -17012.382091567768, -15701.161706586088, -187500.02235174447, -187500.02235174447, -0.166, 0.8220000000000001, 0.494, 192.0, 0.0, 0.0, 0.0, 0.0, 0.0, 0.0, 0.0, 0.0, 0.0, 1.729704886083296E9, 0.0, 2024-10-23 23:04:46.083
137.0, -47638.675288996135, -55311.291552936025, -19089.999090433015, -22305.78926870695, -16062.56706268395, -14647.142845051629, -187500.02235174447, -187500.02235174447, -0.166, 0.8220000000000001, 0.494, 192.0, 0.0, 0.0, 0.0, 0.0, 0.0, 0.0, 0.0, 0.0, 0.0, 1.7297048860872552E9, 0.0, 2024-10-23 23:04:46.087
138.0, -46257.18101944697, -53422.077408084566, -36524.96326267281, -21144.213812853555, -14363.02982128022, -12846.240442543083, -187500.02235174447, -187500.02235174447, -0.166, 0.8220000000000001, 0.494, 192.0, 0.0, 0.0, 0.0, 0.0, 0.0, 0.0, 0.0, 0.0, 0.0, 1.7297048860913029E9, 0.0, 2024-10-23 23:04:46.091
139.0, -44904.92283164535, -53265.034051541574, -35321.88061736591, -19425.923457851823, -13889.977501628102, -12620.621934011215, -187500.02235174447, -187500.02235174447, -0.166, 0.8280000000000001, 0.494, 192.0, 250.0, 208.0, 25.0, 224.0, 15.0, 112.0, 0.0, 0.0, 0.0, 1.7297048860952804E9, 0.0, 2024-10-23 23:04:46.095
140.0, -46706.13815857627, -55591.493021427756, -17932.893983470676, -20849.863690121616, -16025.64198084378, -14820.212402369072, -187500.02235174447, -187500.02235174447, -0.166, 0.8280000000000001, 0.494, 192.0, 0.0, 0.0, 0.0, 0.0, 0.0, 0.0, 0.0, 0.0, 0.0, 1.729704886100282E9, 0.0, 2024-10-23 23:04:46.100
141.0, -48126.70327743331, -56441.26164212962, -11730.79898724544, -22499.757707090106, -17001.385033295755, -15689.62820644715, -187500.02235174447, -187500.02235174447, -0.166, 0.8280000000000001, 0.494, 192.0, 0.0, 0.0, 0.0, 0.0, 0.0, 0.0, 0.0, 0.0, 0.0, 1.7297048861042888E9, 0.0, 2024-10-23 23:04:46.104
142.0, -47655.61791129326, -55333.84446309143, -18867.59923310271, -22334.08657718737, -16084.51647573906, -14655.18947305554, -187500.02235174447, -187500.02235174447, -0.166, 0.8280000000000001, 0.494, 192.0, 0.0, 0.0, 0.0, 0.0, 0.0, 0.0, 0.0, 0.0, 0.0, 1.7297048861074193E9, 0.0, 2024-10-23 23:04:46.107
143.0, -46272.42490916549, -53429.09585584353, -36335.21930399171, -21176.71324929157, -14361.711068357357, -12836.53978544948, -187500.02235174447, -187500.02235174447, -0.166, 0.8280000000000001, 0.494, 192.0, 0.0, 0.0, 0.0, 0.0, 0.0, 0.0, 0.0, 0.0, 0.0, 1.729704886111292E9, 0.0, 2024-10-23 23:04:46.111
144.0, -44876.73728188721, -53225.67262955578, -35559.680826625925, -19425.051739818067, -13870.620890929806, -12576.231369522975, -187500.02235174447, -187500.02235174447, -0.166, 0.8280000000000001, 0.494, 192.0, 0.0, 0.0, 0.0, 0.0, 0.0, 0.0, 0.0, 0.0, 0.0, 1.729704886115393E9, 0.0, 2024-10-23 23:04:46.115
145.0, -46671.58236164837, -55574.23747470826, -18131.511584700536, -20835.960905070413, -16029.240611701085, -14799.581742236824, -187500.02235174447, -187500.02235174447, -0.166, 0.8280000000000001, 0.494, 192.0, 0.0, 0.0, 0.0, 0.0, 0.0, 0.0, 0.0, 0.0, 0.0, 1.7297048861193733E9, 0.0, 2024-10-23 23:04:46.119
146.0, -48136.068658360084, -56475.52686637961, -11685.134373323248, -22526.11041380291, -17066.763885827528, -15723.267581852388, -187500.02235174447, -187500.02235174447, -0.166, 0.8280000000000001, 0.494, 192.0, 0.0, 0.0, 0.0, 0.0, 0.0, 0.0, 0.0, 0.0, 0.0, 1.7297048861233366E9, 0.0, 2024-10-23 23:04:46.123
147.0, -47675.71212955858, -55371.50715249863, -18677.27412906577, -22368.70942934864, -16149.113017214897, -14692.785107229365, -187500.02235174447, -187500.02235174447, -0.166, 0.8280000000000001, 0.494, 192.0, 0.0, 0.0, 0.0, 0.0, 0.0, 0.0, 0.0, 0.0, 0.0, 1.7297048861283095E9, 0.0, 2024-10-23 23:04:46.128
148.0, -46269.854458553134, -53431.84512041153, -36148.06814766743, -21189.073763975357, -14386.633263425025, -12841.814797140933, -187500.02235174447, -187500.02235174447, -0.166, 0.8280000000000001, 0.494, 192.0, 0.0, 0.0, 0.0, 0.0, 0.0, 0.0, 0.0, 0.0, 0.0, 1.7297048861323552E9, 0.0, 2024-10-23 23:04:46.132
149.0, -44840.4827523807, -53191.11683262788, -35764.0428261808, -19406.209219242242, -13836.199204468634, -12536.132339970154, -187500.02235174447, -187500.02235174447, -0.16, 0.8200000000000001, 0.49, 192.0, 251.0, 0.0, 25.0, 160.0, 15.0, 80.0, 0.0, 0.0, 0.0, 1.7297048861353269E9, 0.0, 2024-10-23 23:04:46.135
150.0, -46631.72920128456, -55562.346346658036, -18338.5781453345, -20807.060099489703, -15999.132811919788, -14776.201817536572, -187500.02235174447, -187500.02235174447, -0.16, 0.8200000000000001, 0.49, 192.0, 0.0, 0.0, 0.0, 0.0, 0.0, 0.0, 0.0, 0.0, 0.0, 1.7297048861393843E9, 0.0, 2024-10-23 23:04:46.139
151.0, -48125.07160008808, -56496.31398872304, -11788.444136195676, -22516.11918403139, -17061.824150302906, -15737.483291325963, -187500.02235174447, -187500.02235174447, -0.16, 0.8200000000000001, 0.49, 192.0, 0.0, 0.0, 0.0, 0.0, 0.0, 0.0, 0.0, 0.0, 0.0, 1.7297048861434128E9, 0.0, 2024-10-23 23:04:46.143
152.0, -47668.8501440108, -55396.027016166096, -18719.004835963828, -22363.277955446, -16146.408456135805, -14716.38854937417, -187500.02235174447, -187500.02235174447, -0.16, 0.8200000000000001, 0.49, 192.0, 0.0, 0.0, 0.0, 0.0, 0.0, 0.0, 0.0, 0.0, 0.0, 1.7297048861474771E9, 0.0, 2024-10-23 23:04:46.147
153.0, -46270.50265914234, -53455.58267302307, -36140.80383071945, -21182.72586855005, -14393.674062928447, -12872.16846611124, -187500.02235174447, -187500.02235174447, -0.16, 0.8200000000000001, 0.49, 192.0, 0.0, 0.0, 0.0, 0.0, 0.0, 0.0, 0.0, 0.0, 0.0, 1.7297048861515667E9, 0.0, 2024-10-23 23:04:46.151
154.0, -44828.032830719094, -53191.89914368381, -35972.89752637118, -19395.03334701459, -13841.40716092672, -12552.516168655893, -187500.02235174447, -187500.02235174447, -0.16, 0.8200000000000001, 0.49, 192.0, 0.0, 0.0, 0.0, 0.0, 0.0, 0.0, 0.0, 0.0, 0.0, 1.7297048861553836E9, 0.0, 2024-10-23 23:04:46.155
155.0, -46609.08688415133, -55559.261805923205, -18498.147249000936, -20782.406125355497, -16024.032655243, -14798.397099780692, -187500.02235174447, -187500.02235174447, -0.16, 0.8200000000000001, 0.49, 192.0, 0.0, 0.0, 0.0, 0.0, 0.0, 0.0, 0.0, 0.0, 0.0, 1.72970488616038E9, 0.0, 2024-10-23 23:04:46.160
156.0, -48107.704294646304, -56499.0856050355, -11814.059235341458, -22495.93555878825, -17080.465505178632, -15763.098390471745, -187500.02235174447, -187500.02235174447, -0.16, 0.8200000000000001, 0.49, 192.0, 0.0, 0.0, 0.0, 0.0, 0.0, 0.0, 0.0, 0.0, 0.0, 1.7297048861633964E9, 0.0, 2024-10-23 23:04:46.163
157.0, -47663.17280091916, -55400.40795807934, -18650.764960141776, -22348.056417471937, -16151.95168876072, -14741.73542758649, -187500.02235174447, -187500.02235174447, -0.16, 0.8200000000000001, 0.49, 192.0, 0.0, 0.0, 0.0, 0.0, 0.0, 0.0, 0.0, 0.0, 0.0, 1.7297048861674032E9, 0.0, 2024-10-23 23:04:46.167
158.0, -46296.96712457742, -53480.795440768656, -36073.6144868868, -21197.76859256847, -14428.90041219001, -12912.468661364159, -187500.02235174447, -187500.02235174447, -0.16, 0.8200000000000001, 0.49, 192.0, 0.0, 0.0, 0.0, 0.0, 0.0, 0.0, 0.0, 0.0, 0.0, 1.7297048861715453E9, 0.0, 2024-10-23 23:04:46.171
159.0, -44832.950214499266, -53175.73883244263, -36186.423741152736, -19396.106230748443, -13832.466463144598, -12550.10218025472, -187500.02235174447, -187500.02235174447, -0.166, 0.8140000000000001, 0.492, 192.0, 250.0, 208.0, 25.0, 112.0, 15.0, 96.0, 0.0, 0.0, 0.0, 1.7297048861754675E9, 0.0, 2024-10-23 23:04:46.175
160.0, -46584.90229665069, -55521.64382000492, -18624.859288318075, -20746.48687201582, -15968.533273760471, -14769.049259310874, -187500.02235174447, -187500.02235174447, -0.166, 0.8140000000000001, 0.492, 192.0, 0.0, 0.0, 0.0, 0.0, 0.0, 0.0, 0.0, 0.0, 0.0, 1.729704886179442E9, 0.0, 2024-10-23 23:04:46.179
161.0, -48106.18437602334, -56485.96513104023, -11736.878661737283, -22474.030849222047, -17062.114722980827, -15758.337468902764, -187500.02235174447, -187500.02235174447, -0.166, 0.8140000000000001, 0.492, 192.0, 0.0, 0.0, 0.0, 0.0, 0.0, 0.0, 0.0, 0.0, 0.0, 1.729704886183418E9, 0.0, 2024-10-23 23:04:46.183
162.0, -47688.25145819801, -55411.91910647382, -18480.98110925926, -22357.354743165346, -16176.784476850567, -14761.650831896166, -187500.02235174447, -187500.02235174447, -0.166, 0.8140000000000001, 0.492, 192.0, 0.0, 0.0, 0.0, 0.0, 0.0, 0.0, 0.0, 0.0, 0.0, 1.7297048861884289E9, 0.0, 2024-10-23 23:04:46.188
163.0, -46345.783334467815, -53503.90714453544, -35951.6857208831, -21233.86665986379, -14466.38428764156, -12946.42096119177, -187500.02235174447, -187500.02235174447, -0.166, 0.8140000000000001, 0.492, 192.0, 0.0, 0.0, 0.0, 0.0, 0.0, 0.0, 0.0, 0.0, 0.0, 1.729704886191419E9, 0.0, 2024-10-23 23:04:46.191
164.0, -44854.49729615418, -53167.37928001634, -36473.73306438125, -19419.352044981963, -13842.278878960477, -12553.67845936757, -187500.02235174447, -187500.02235174447, -0.166, 0.8140000000000001, 0.492, 192.0, 0.0, 0.0, 0.0, 0.0, 0.0, 0.0, 0.0, 0.0, 0.0, 1.7297048861954656E9, 0.0, 2024-10-23 23:04:46.195
165.0, -46559.0413283159, -55500.32025579456, -18832.663456519065, -20722.391691492998, -15956.038648609954, -14749.893814312676, -187500.02235174447, -187500.02235174447, -0.166, 0.8140000000000001, 0.492, 192.0, 0.0, 0.0, 0.0, 0.0, 0.0, 0.0, 0.0, 0.0, 0.0, 1.7297048861994338E9, 0.0, 2024-10-23 23:04:46.199
166.0, -48101.64697189891, -56490.92721830931, -11728.876737222283, -22464.039619450527, -17069.33433643989, -15757.108122957723, -187500.02235174447, -187500.02235174447, -0.166, 0.8140000000000001, 0.492, 192.0, 0.0, 0.0, 0.0, 0.0, 0.0, 0.0, 0.0, 0.0, 0.0, 1.7297048862034397E9, 0.0, 2024-10-23 23:04:46.203
167.0, -47712.52545267647, -55434.404961395856, -18397.296178018594, -22373.537406150986, -16195.671700915302, -14774.324271002326, -187500.02235174447, -187500.02235174447, -0.166, 0.8140000000000001, 0.492, 192.0, 0.0, 0.0, 0.0, 0.0, 0.0, 0.0, 0.0, 0.0, 0.0, 1.7297048862075405E9, 0.0, 2024-10-23 23:04:46.207
168.0, -46382.30608490778, -53531.2880314932, -35808.32163194676, -21260.688753210157, -14485.338566939661, -12961.530740443557, -187500.02235174447, -187500.02235174447, -0.166, 0.8140000000000001, 0.492, 192.0, 0.0, 0.0, 0.0, 0.0, 0.0, 0.0, 0.0, 0.0, 0.0, 1.7297048862114935E9, 0.0, 2024-10-23 23:04:46.211
169.0, -44861.13576425741, -53151.598948430896, -36580.73086508881, -19420.335521737998, -13823.92809676267, -12531.57258410127, -187500.02235174447, -187500.02235174447, -0.166, 0.8180000000000001, 0.496, 192.0, 250.0, 208.0, 25.0, 144.0, 15.0, 128.0, 0.0, 0.0, 0.0, 1.7297048862165608E9, 0.0, 2024-10-23 23:04:46.216
170.0, -46542.32222346333, -55466.703232133776, -18936.84493742525, -20689.646385865974, -15938.693694912638, -14716.187383674072, -187500.02235174447, -187500.02235174447, -0.166, 0.8180000000000001, 0.496, 192.0, 0.0, 0.0, 0.0, 0.0, 0.0, 0.0, 0.0, 0.0, 0.0, 1.72970488621957E9, 0.0, 2024-10-23 23:04:46.219
171.0, -48101.49050968773, -56478.991386770176, -11757.33050791389, -22444.705360496686, -17065.60159511585, -15736.008076191913, -187500.02235174447, -187500.02235174447, -0.166, 0.8180000000000001, 0.496, 192.0, 0.0, 0.0, 0.0, 0.0, 0.0, 0.0, 0.0, 0.0, 0.0, 1.7297048862236238E9, 0.0, 2024-10-23 23:04:46.223
172.0, -47718.091037045844, -55432.169786950326, -18374.072715529528, -22366.697772347663, -16189.457915956727, -14763.707192386055, -187500.02235174447, -187500.02235174447, -0.166, 0.8180000000000001, 0.496, 192.0, 0.0, 0.0, 0.0, 0.0, 0.0, 0.0, 0.0, 0.0, 0.0, 1.7297048862275124E9, 0.0, 2024-10-23 23:04:46.227
173.0, -46399.91925953857, -53543.916767110444, -35693.12074102411, -21261.314602054907, -14486.322043695694, -12965.41994397878, -187500.02235174447, -187500.02235174447, -0.166, 0.8180000000000001, 0.496, 192.0, 0.0, 0.0, 0.0, 0.0, 0.0, 0.0, 0.0, 0.0, 0.0, 1.7297048862314744E9, 0.0, 2024-10-23 23:04:46.231
174.0, -44872.088119040505, -53156.404573488784, -36641.37114779605, -19427.264562519144, -13821.894088017236, -12529.180947444553, -187500.02235174447, -187500.02235174447, -0.166, 0.8180000000000001, 0.496, 192.0, 0.0, 0.0, 0.0, 0.0, 0.0, 0.0, 0.0, 0.0, 0.0, 1.7297048862354765E9, 0.0, 2024-10-23 23:04:46.235
175.0, -46533.22506347002, -55467.55259842308, -19018.317045964843, -20684.86311255254, -15917.839517335835, -14716.701473796544, -187500.02235174447, -187500.02235174447, -0.166, 0.8180000000000001, 0.496, 192.0, 0.0, 0.0, 0.0, 0.0, 0.0, 0.0, 0.0, 0.0, 0.0, 1.729704886239463E9, 0.0, 2024-10-23 23:04:46.239
176.0, -48089.84525082651, -56476.42093615782, -11771.501513898555, -22432.367197557356, -17054.13515021028, -15747.183948419566, -187500.02235174447, -187500.02235174447, -0.166, 0.8180000000000001, 0.496, 192.0, 0.0, 0.0, 0.0, 0.0, 0.0, 0.0, 0.0, 0.0, 0.0, 1.7297048862445285E9, 0.0, 2024-10-23 23:04:46.244
177.0, -47723.29899350393, -55438.16005446435, -18331.067959197517, -22362.85327230135, -16204.455936486238, -14792.11625958875, -187500.02235174447, -187500.02235174447, -0.166, 0.8180000000000001, 0.496, 192.0, 0.0, 0.0, 0.0, 0.0, 0.0, 0.0, 0.0, 0.0, 0.0, 1.72970488624753E9, 0.0, 2024-10-23 23:04:46.247
178.0, -46413.66558237858, -53551.69517418089, -35593.85664389809, -21264.287384067462, -14512.45123296395, -12996.131240860372, -187500.02235174447, -187500.02235174447, -0.166, 0.8180000000000001, 0.496, 192.0, 0.0, 0.0, 0.0, 0.0, 0.0, 0.0, 0.0, 0.0, 0.0, 1.7297048862516248E9, 0.0, 2024-10-23 23:04:46.251
179.0, -44867.0366247936, -53136.10918952336, -36850.96345555347, -19418.726196137213, -13815.479137358563, -12527.99630498842, -187500.02235174447, -187500.02235174447, -0.166, 0.8200000000000001, 0.496, 192.0, 250.0, 208.0, 25.0, 160.0, 15.0, 128.0, 0.0, 0.0, 0.0, 1.7297048862555833E9, 0.0, 2024-10-23 23:04:46.255
180.0, -46512.57205159331, -55454.09684826098, -19226.14356591029, -20664.835949520584, -15912.117470755276, -14711.515869082914, -187500.02235174447, -187500.02235174447, -0.166, 0.8200000000000001, 0.496, 192.0, 0.0, 0.0, 0.0, 0.0, 0.0, 0.0, 0.0, 0.0, 0.0, 1.729704886259503E9, 0.0, 2024-10-23 23:04:46.259
181.0, -48091.00754153819, -56499.86791609143, -11805.029130581515, -22433.708302224673, -17076.95628129915, -15771.904977787135, -187500.02235174447, -187500.02235174447, -0.166, 0.8200000000000001, 0.496, 192.0, 0.0, 0.0, 0.0, 0.0, 0.0, 0.0, 0.0, 0.0, 0.0, 1.7297048862635484E9, 0.0, 2024-10-23 23:04:46.263
182.0, -47735.21247329861, -55476.35918573847, -18247.830062845955, -22381.561682410444, -16230.07103563202, -14817.999579667996, -187500.02235174447, -187500.02235174447, -0.166, 0.8200000000000001, 0.496, 192.0, 0.0, 0.0, 0.0, 0.0, 0.0, 0.0, 0.0, 0.0, 0.0, 1.7297048862677023E9, 0.0, 2024-10-23 23:04:46.267
183.0, -46428.46243720799, -53583.211133862875, -35457.600409698534, -21290.953015202645, -14525.035265092287, -13015.219630625204, -187500.02235174447, -187500.02235174447, -0.166, 0.8200000000000001, 0.496, 192.0, 0.0, 0.0, 0.0, 0.0, 0.0, 0.0, 0.0, 0.0, 0.0, 1.729704886272638E9, 0.0, 2024-10-23 23:04:46.272
184.0, -44855.86075256595, -53120.17239572673, -37026.022318127434, -19429.633847431403, -13800.01173019549, -12511.456014091495, -187500.02235174447, -187500.02235174447, -0.166, 0.8200000000000001, 0.496, 192.0, 0.0, 0.0, 0.0, 0.0, 0.0, 0.0, 0.0, 0.0, 0.0, 1.7297048862755673E9, 0.0, 2024-10-23 23:04:46.275
185.0, -46490.51087981593, -55434.06968522903, -19390.048908001056, -20653.302449381645, -15897.365319414774, -14696.562552042313, -187500.02235174447, -187500.02235174447, -0.166, 0.8200000000000001, 0.496, 192.0, 0.0, 0.0, 0.0, 0.0, 0.0, 0.0, 0.0, 0.0, 0.0, 1.729704886278633E9, 0.0, 2024-10-23 23:04:46.278
186.0, -48086.22426822475, -56497.1857067568, -11855.052334672491, -22434.468261536153, -17082.588920901886, -15774.296614443854, -187500.02235174447, -187500.02235174447, -0.166, 0.8200000000000001, 0.496, 192.0, 0.0, 0.0, 0.0, 0.0, 0.0, 0.0, 0.0, 0.0, 0.0, 1.7297048862836134E9, 0.0, 2024-10-23 23:04:46.283
187.0, -47734.07253433139, -55476.96268283876, -18236.475376662656, -22393.452810460665, -16244.331448594505, -14828.50489956199, -187500.02235174447, -187500.02235174447, -0.166, 0.8200000000000001, 0.496, 192.0, 0.0, 0.0, 0.0, 0.0, 0.0, 0.0, 0.0, 0.0, 0.0, 1.7297048862886932E9, 0.0, 2024-10-23 23:04:46.288
188.0, -46447.8637513952, -53602.38893060553, -35384.5996123075, -21320.859649283844, -14556.953556174465, -13045.86387227343, -187500.02235174447, -187500.02235174447, -0.166, 0.8200000000000001, 0.496, 192.0, 0.0, 0.0, 0.0, 0.0, 0.0, 0.0, 0.0, 0.0, 0.0, 1.7297048862926729E9, 0.0, 2024-10-23 23:04:46.292
189.0, -44870.344682972995, -53123.27928820602, -37139.72564217158, -19454.488987265708, -13778.419945051664, -12516.105176938197, -187500.02235174447, -187500.02235174447, -0.16, 0.8220000000000001, 0.496, 192.0, 251.0, 0.0, 25.0, 176.0, 15.0, 128.0, 0.0, 0.0, 0.0, 1.7297048862955444E9, 0.0, 2024-10-23 23:04:46.295
190.0, -46482.732472745476, -55423.47495835721, -19479.14296139991, -20650.195556902356, -15841.441254787596, -14679.485819278458, -187500.02235174447, -187500.02235174447, -0.16, 0.8220000000000001, 0.496, 192.0, 0.0, 0.0, 0.0, 0.0, 0.0, 0.0, 0.0, 0.0, 0.0, 1.7297048863006012E9, 0.0, 2024-10-23 23:04:46.300
191.0, -48070.153363961384, -56482.54531413857, -11897.49829739312, -22421.884229407817, -17020.42871957168, -15749.217957165, -187500.02235174447, -187500.02235174447, -0.16, 0.8220000000000001, 0.496, 192.0, 0.0, 0.0, 0.0, 0.0, 0.0, 0.0, 0.0, 0.0, 0.0, 1.7297048863035746E9, 0.0, 2024-10-23 23:04:46.303
192.0, -47718.78394112396, -55460.95883380876, -18238.911716808285, -22371.793970083472, -16194.040023570065, -14804.83440218382, -187500.02235174447, -187500.02235174447, -0.16, 0.8220000000000001, 0.496, 192.0, 0.0, 0.0, 0.0, 0.0, 0.0, 0.0, 0.0, 0.0, 0.0, 1.7297048863065927E9, 0.0, 2024-10-23 23:04:46.306
193.0, -46440.13004781366, -53599.72907301535, -35268.5270033511, -21304.20759966464, -14529.505613983347, -13032.989267467174, -187500.02235174447, -187500.02235174447, -0.16, 0.8220000000000001, 0.496, 192.0, 0.0, 0.0, 0.0, 0.0, 0.0, 0.0, 0.0, 0.0, 0.0, 1.729704886311596E9, 0.0, 2024-10-23 23:04:46.311
194.0, -44866.276665482124, -53109.9352967662, -37191.02289569651, -19440.94383012579, -13772.049697881903, -12494.513391794371, -187500.02235174447, -187500.02235174447, -0.16, 0.8220000000000001, 0.496, 192.0, 0.0, 0.0, 0.0, 0.0, 0.0, 0.0, 0.0, 0.0, 0.0, 1.729704886315558E9, 0.0, 2024-10-23 23:04:46.315
195.0, -46473.1212226297, -55406.7782052491, -19552.747255891234, -20623.84285018955, -15845.352810067274, -14658.430476001558, -187500.02235174447, -187500.02235174447, -0.16, 0.8220000000000001, 0.496, 192.0, 0.0, 0.0, 0.0, 0.0, 0.0, 0.0, 0.0, 0.0, 0.0, 1.7297048863196993E9, 0.0, 2024-10-23 23:04:46.319
196.0, -48066.241808681705, -56473.06817448953, -11895.665454347785, -22399.376022741322, -17032.14103366626, -15741.752474516927, -187500.02235174447, -187500.02235174447, -0.16, 0.8220000000000001, 0.496, 192.0, 0.0, 0.0, 0.0, 0.0, 0.0, 0.0, 0.0, 0.0, 0.0, 1.7297048863236227E9, 0.0, 2024-10-23 23:04:46.323
197.0, -47730.29508951844, -55469.07251704604, -18192.01775694105, -22368.91059504874, -16220.504489005149, -14817.574896523345, -187500.02235174447, -187500.02235174447, -0.16, 0.8220000000000001, 0.496, 192.0, 0.0, 0.0, 0.0, 0.0, 0.0, 0.0, 0.0, 0.0, 0.0, 1.7297048863285897E9, 0.0, 2024-10-23 23:04:46.328
198.0, -46465.85690568172, -53625.008895994295, -35143.26782742355, -21320.256152183552, -14570.49871331438, -13065.354593438458, -187500.02235174447, -187500.02235174447, -0.16, 0.8220000000000001, 0.496, 192.0, 0.0, 0.0, 0.0, 0.0, 0.0, 0.0, 0.0, 0.0, 0.0, 1.7297048863316207E9, 0.0, 2024-10-23 23:04:46.331
199.0, -44880.894706355895, -53108.28126767651, -37287.58243174344, -19449.66101046336, -13794.088517914835, -12510.360778613183, -187500.02235174447, -187500.02235174447, -0.17, 0.8220000000000001, 0.496, 192.0, 250.0, 176.0, 25.0, 176.0, 15.0, 128.0, 0.0, 0.0, 0.0, 1.7297048863346012E9, 0.0, 2024-10-23 23:04:46.334
200.0, -46456.782097432864, -55383.97942590468, -19637.236849932295, -20603.569817968586, -15846.112769378755, -14660.442133002536, -187500.02235174447, -187500.02235174447, -0.17, 0.8220000000000001, 0.496, 192.0, 0.0, 0.0, 0.0, 0.0, 0.0, 0.0, 0.0, 0.0, 0.0, 1.7297048863397028E9, 0.0, 2024-10-23 23:04:46.339
201.0, -48049.23213115122, -56458.40543012684, -11874.274834904056, -22384.46740918963, -17035.35968486782, -15750.693172299048, -187500.02235174447, -187500.02235174447, -0.17, 0.8220000000000001, 0.496, 192.0, 0.0, 0.0, 0.0, 0.0, 0.0, 0.0, 0.0, 0.0, 0.0, 1.7297048863436244E9, 0.0, 2024-10-23 23:04:46.343
202.0, -47720.259156258006, -55461.741144864696, -18109.875096067797, -22368.3294496929, -16226.338294307983, -14835.41158859868, -187500.02235174447, -187500.02235174447, -0.17, 0.8220000000000001, 0.496, 192.0, 0.0, 0.0, 0.0, 0.0, 0.0, 0.0, 0.0, 0.0, 0.0, 1.729704886347644E9, 0.0, 2024-10-23 23:04:46.347
203.0, -46471.601304006734, -53628.451064640416, -35042.93084656368, -21339.612762881847, -14593.208085680973, -13098.613989187956, -187500.02235174447, -187500.02235174447, -0.17, 0.8220000000000001, 0.496, 192.0, 0.0, 0.0, 0.0, 0.0, 0.0, 0.0, 0.0, 0.0, 0.0, 1.729704886351658E9, 0.0, 2024-10-23 23:04:46.351
204.0, -44873.65274115238, -53081.70504351915, -37492.30205920959, -19472.23627236322, -13790.892218457726, -12520.352008384707, -187500.02235174447, -187500.02235174447, -0.17, 0.8220000000000001, 0.496, 192.0, 0.0, 0.0, 0.0, 0.0, 0.0, 0.0, 0.0, 0.0, 0.0, 1.7297048863556664E9, 0.0, 2024-10-23 23:04:46.355
205.0, -46434.631518677656, -55357.67142268079, -19831.78643367129, -20601.64756794543, -15827.985504625502, -14661.336202780749, -187500.02235174447, -187500.02235174447, -0.17, 0.8220000000000001, 0.496, 192.0, 0.0, 0.0, 0.0, 0.0, 0.0, 0.0, 0.0, 0.0, 0.0, 1.7297048863601584E9, 0.0, 2024-10-23 23:04:46.360
206.0, -48046.952253216776, -56462.58520633999, -11931.227079776178, -22396.514999451043, -17045.32856289489, -15777.671727856605, -187500.02235174447, -187500.02235174447, -0.17, 0.8220000000000001, 0.496, 192.0, 0.0, 0.0, 0.0, 0.0, 0.0, 0.0, 0.0, 0.0, 0.0, 1.7297048863626325E9, 0.0, 2024-10-23 23:04:46.362
207.0, -47733.73725816456, -55478.88493286192, -18072.324165382885, -22395.643281417284, -16247.46069281825, -14872.314318694393, -187500.02235174447, -187500.02235174447, -0.17, 0.8220000000000001, 0.496, 192.0, 0.0, 0.0, 0.0, 0.0, 0.0, 0.0, 0.0, 0.0, 0.0, 1.7297048863676424E9, 0.0, 2024-10-23 23:04:46.367
208.0, -46502.67022879961, -53656.79307660974, -34931.73091789853, -21375.062629587967, -14617.616190626168, -13137.483672795734, -187500.02235174447, -187500.02235174447, -0.17, 0.8220000000000001, 0.496, 192.0, 0.0, 0.0, 0.0, 0.0, 0.0, 0.0, 0.0, 0.0, 0.0, 1.7297048863716605E9, 0.0, 2024-10-23 23:04:46.371
209.0, -44878.92775284383, -53071.60205502535, -37633.118049278026, -19483.367441101964, -13779.381070063242, -12514.317037381774, -187500.02235174447, -187500.02235174447, -0.168, 0.8180000000000001, 0.496, 192.0, 250.0, 192.0, 25.0, 144.0, 15.0, 128.0, 0.0, 0.0, 0.0, 1.7297048863756473E9, 0.0, 2024-10-23 23:04:46.375
210.0, -46423.54505342783, -55344.59565217444, -19977.966842408998, -20586.806009627107, -15819.313027776841, -14652.216691042984, -187500.02235174447, -187500.02235174447, -0.168, 0.8180000000000001, 0.496, 192.0, 0.0, 0.0, 0.0, 0.0, 0.0, 0.0, 0.0, 0.0, 0.0, 1.7297048863798256E9, 0.0, 2024-10-23 23:04:46.379
211.0, -48048.87450323993, -56464.06042147403, -11956.328088799488, -22388.311909235945, -17040.433530859176, -15788.288806472876, -187500.02235174447, -187500.02235174447, -0.168, 0.8180000000000001, 0.496, 192.0, 0.0, 0.0, 0.0, 0.0, 0.0, 0.0, 0.0, 0.0, 0.0, 1.729704886383635E9, 0.0, 2024-10-23 23:04:46.383
212.0, -47741.11333383481, -55484.31640676456, -17995.07653654534, -22389.63066215881, -16243.951468938765, -14878.32693795287, -187500.02235174447, -187500.02235174447, -0.168, 0.8180000000000001, 0.496, 192.0, 0.0, 0.0, 0.0, 0.0, 0.0, 0.0, 0.0, 0.0, 0.0, 1.7297048863876822E9, 0.0, 2024-10-23 23:04:46.387
213.0, -46499.94331597607, -53648.925262561475, -34716.01423216036, -21351.593297909894, -14601.992321251908, -13120.16107084287, -187500.02235174447, -187500.02235174447, -0.168, 0.8180000000000001, 0.496, 192.0, 0.0, 0.0, 0.0, 0.0, 0.0, 0.0, 0.0, 0.0, 0.0, 1.7297048863949025E9, 0.0, 2024-10-23 23:04:46.394
214.0, -44865.7402236152, -53042.678897700185, -37664.67871244892, -19451.963240142257, -13756.515235485464, -12472.407516528072, -187500.02235174447, -187500.02235174447, -0.168, 0.8180000000000001, 0.496, 192.0, 0.0, 0.0, 0.0, 0.0, 0.0, 0.0, 0.0, 0.0, 0.0, 1.7297048863966947E9, 0.0, 2024-10-23 23:04:46.396
215.0, -46405.90952705259, -55332.77157935758, -20064.937480084598, -20559.31336394708, -15808.584190438294, -14620.65602787209, -187500.02235174447, -187500.02235174447, -0.168, 0.8180000000000001, 0.496, 192.0, 0.0, 0.0, 0.0, 0.0, 0.0, 0.0, 0.0, 0.0, 0.0, 1.7297048864006886E9, 0.0, 2024-10-23 23:04:46.400
216.0, -48064.632483080924, -56491.95539855426, -11947.342687528455, -22387.99898481357, -17073.312946952934, -15787.081812272289, -187500.02235174447, -187500.02235174447, -0.168, 0.8180000000000001, 0.496, 192.0, 0.0, 0.0, 0.0, 0.0, 0.0, 0.0, 0.0, 0.0, 0.0, 1.7297048864051688E9, 0.0, 2024-10-23 23:04:46.405
217.0, -47766.41550855822, -55519.207479859295, -17890.380965516684, -22402.61702568734, -16250.522881808625, -14888.631092146767, -187500.02235174447, -187500.02235174447, -0.168, 0.8180000000000001, 0.496, 192.0, 0.0, 0.0, 0.0, 0.0, 0.0, 0.0, 0.0, 0.0, 0.0, 1.7297048864078245E9, 0.0, 2024-10-23 23:04:46.407
218.0, -46509.66632481413, -53663.94563483544, -34519.274177464744, -21358.254117757573, -14587.083707700218, -13123.73734995572, -187500.02235174447, -187500.02235174447, -0.168, 0.8180000000000001, 0.496, 192.0, 0.0, 0.0, 0.0, 0.0, 0.0, 0.0, 0.0, 0.0, 0.0, 1.7297048864117265E9, 0.0, 2024-10-23 23:04:46.411
219.0, -44855.74899384368, -53022.07058931239, -37777.845594626146, -19444.095426093987, -13714.873935565227, -12445.875995859624, -187500.02235174447, -187500.02235174447, -0.168, 0.8180000000000001, 0.496, 192.0, 0.0, 0.0, 0.0, 0.0, 0.0, 0.0, 0.0, 0.0, 0.0, 1.7297048864157414E9, 0.0, 2024-10-23 23:04:46.415
220.0, -46391.13502396763, -55325.26139322059, -20203.89827536324, -20539.95675324878, -15777.671727856605, -14604.026329997341, -187500.02235174447, -187500.02235174447, -0.164, 0.8140000000000001, 0.496, 192.0, 250.0, 224.0, 25.0, 112.0, 15.0, 128.0, 0.0, 0.0, 0.0, 1.729704886418726E9, 0.0, 2024-10-23 23:04:46.418
221.0, -48069.23694243872, -56510.14971854088, -11958.049173122547, -22387.775467369018, -17080.532560411997, -15799.710547889537, -187500.02235174447, -187500.02235174447, -0.164, 0.8140000000000001, 0.496, 192.0, 0.0, 0.0, 0.0, 0.0, 0.0, 0.0, 0.0, 0.0, 0.0, 1.729704886423738E9, 0.0, 2024-10-23 23:04:46.423
222.0, -47782.21819188812, -55544.576709816065, -17818.09542394822, -22415.312816537957, -16295.069908508052, -14911.541630213456, -187500.02235174447, -187500.02235174447, -0.164, 0.8140000000000001, 0.496, 192.0, 0.0, 0.0, 0.0, 0.0, 0.0, 0.0, 0.0, 0.0, 0.0, 1.7297048864279556E9, 0.0, 2024-10-23 23:04:46.427
223.0, -46522.33976392028, -53683.90574263403, -34376.0665507396, -21365.451379472182, -14626.288667474828, -13140.635268763932, -187500.02235174447, -187500.02235174447, -0.164, 0.8140000000000001, 0.496, 192.0, 0.0, 0.0, 0.0, 0.0, 0.0, 0.0, 0.0, 0.0, 0.0, 1.729704886431758E9, 0.0, 2024-10-23 23:04:46.431
224.0, -44848.328214684516, -53007.40784494971, -37903.462398464966, -19439.379208013917, -13714.315141953844, -12436.421207955029, -187500.02235174447, -187500.02235174447, -0.164, 0.8140000000000001, 0.496, 192.0, 0.0, 0.0, 0.0, 0.0, 0.0, 0.0, 0.0, 0.0, 0.0, 1.7297048864357517E9, 0.0, 2024-10-23 23:04:46.435
225.0, -46365.922256222046, -55301.32267490896, -20335.192422293716, -20515.079261670027, -15765.422971895096, -14594.951521748486, -187500.02235174447, -187500.02235174447, -0.164, 0.8140000000000001, 0.496, 192.0, 0.0, 0.0, 0.0, 0.0, 0.0, 0.0, 0.0, 0.0, 0.0, 1.7297048864402556E9, 0.0, 2024-10-23 23:04:46.440
226.0, -48059.91626500086, -56506.551087683576, -11960.060830123524, -22372.978612539606, -17078.207978988645, -15809.947646850069, -187500.02235174447, -187500.02235174447, -0.164, 0.8140000000000001, 0.496, 192.0, 0.0, 0.0, 0.0, 0.0, 0.0, 0.0, 0.0, 0.0, 0.0, 1.7297048864428537E9, 0.0, 2024-10-23 23:04:46.442
227.0, -47782.84404073287, -55548.488265095744, -17722.228791979407, -22410.171915313236, -16304.345882457004, -14928.439549021668, -187500.02235174447, -187500.02235174447, -0.164, 0.8140000000000001, 0.496, 192.0, 0.0, 0.0, 0.0, 0.0, 0.0, 0.0, 0.0, 0.0, 0.0, 1.7297048864467707E9, 0.0, 2024-10-23 23:04:46.446
228.0, -46547.329014221315, -53705.8775074336, -34231.94250249177, -21388.13840009432, -14655.882377133654, -13175.772211047675, -187500.02235174447, -187500.02235174447, -0.164, 0.8140000000000001, 0.496, 192.0, 0.0, 0.0, 0.0, 0.0, 0.0, 0.0, 0.0, 0.0, 0.0, 1.7297048864507437E9, 0.0, 2024-10-23 23:04:46.450
229.0, -44855.48077291021, -52996.09786225532, -38106.460941608064, -19463.049705392088, -13713.197554731078, -12440.109245790154, -187500.02235174447, -187500.02235174447, -0.164, 0.8140000000000001, 0.496, 192.0, 0.0, 0.0, 0.0, 0.0, 0.0, 0.0, 0.0, 0.0, 0.0, 1.7297048864557867E9, 0.0, 2024-10-23 23:04:46.455
230.0, -46354.12053514964, -55293.52191609406, -20560.96739303677, -20521.270694884148, -15752.995401977945, -14598.751318305889, -187500.02235174447, -187500.02235174447, -0.166, 0.8180000000000001, 0.496, 192.0, 250.0, 208.0, 25.0, 144.0, 15.0, 128.0, 0.0, 0.0, 0.0, 1.729704886459787E9, 0.0, 2024-10-23 23:04:46.459
231.0, -48057.926959744334, -56521.504404724175, -12014.777900550116, -22396.42559247322, -17083.57239765792, -15838.043789630388, -187500.02235174447, -187500.02235174447, -0.166, 0.8180000000000001, 0.496, 192.0, 0.0, 0.0, 0.0, 0.0, 0.0, 0.0, 0.0, 0.0, 0.0, 1.729704886463822E9, 0.0, 2024-10-23 23:04:46.463
232.0, -47802.44652062017, -55585.65921612492, -17655.441779546953, -22463.21260490568, -16336.174766561362, -14981.457886869657, -187500.02235174447, -187500.02235174447, -0.166, 0.8180000000000001, 0.496, 192.0, 0.0, 0.0, 0.0, 0.0, 0.0, 0.0, 0.0, 0.0, 0.0, 1.7297048864677742E9, 0.0, 2024-10-23 23:04:46.467
233.0, -46564.092822562794, -53730.240908889886, -34097.00502121509, -21437.982790229653, -14678.412935544604, -13217.90524934593, -187500.02235174447, -187500.02235174447, -0.166, 0.8180000000000001, 0.496, 192.0, 0.0, 0.0, 0.0, 0.0, 0.0, 0.0, 0.0, 0.0, 0.0, 1.7297048864708214E9, 0.0, 2024-10-23 23:04:46.470
234.0, -44849.80342981857, -52981.16689695918, -38283.710275138656, -19486.8990167259, -13705.732072083007, -12444.400780725573, -187500.02235174447, -187500.02235174447, -0.166, 0.8180000000000001, 0.496, 192.0, 0.0, 0.0, 0.0, 0.0, 0.0, 0.0, 0.0, 0.0, 0.0, 1.729704886474876E9, 0.0, 2024-10-23 23:04:46.474
235.0, -46329.71243020445, -55272.75714549508, -20756.746322720806, -20510.564209290053, -15734.599916291229, -14590.7940972798, -187500.02235174447, -187500.02235174447, -0.166, 0.8180000000000001, 0.496, 192.0, 0.0, 0.0, 0.0, 0.0, 0.0, 0.0, 0.0, 0.0, 0.0, 1.729704886478829E9, 0.0, 2024-10-23 23:04:46.478
236.0, -48057.77049753314, -56525.70653268177, -12011.80511853756, -22391.172932526224, -17090.121458783324, -15848.124426379733, -187500.02235174447, -187500.02235174447, -0.166, 0.8180000000000001, 0.496, 192.0, 0.0, 0.0, 0.0, 0.0, 0.0, 0.0, 0.0, 0.0, 0.0, 1.729704886483824E9, 0.0, 2024-10-23 23:04:46.483
237.0, -47816.662230093745, -55594.845783096054, -17508.836687664592, -22462.83262524994, -16352.513891758192, -14990.599750351877, -187500.02235174447, -187500.02235174447, -0.166, 0.8180000000000001, 0.496, 192.0, 0.0, 0.0, 0.0, 0.0, 0.0, 0.0, 0.0, 0.0, 0.0, 1.7297048864878278E9, 0.0, 2024-10-23 23:04:46.487
238.0, -46589.350293797295, -53738.66751654953, -33954.847926479335, -21441.268496664587, -14703.357482356727, -13218.128766790482, -187500.02235174447, -187500.02235174447, -0.166, 0.8180000000000001, 0.496, 192.0, 0.0, 0.0, 0.0, 0.0, 0.0, 0.0, 0.0, 0.0, 0.0, 1.729704886492948E9, 0.0, 2024-10-23 23:04:46.492
239.0, -44845.91422628334, -52943.459504063074, -38562.61534245197, -19470.179911873332, -13657.944042437559, -12390.041338210267, -187500.02235174447, -187500.02235174447, -0.166, 0.8180000000000001, 0.496, 192.0, 0.0, 0.0, 0.0, 0.0, 0.0, 0.0, 0.0, 0.0, 0.0, 1.729704886496936E9, 0.0, 2024-10-23 23:04:46.496
240.0, -46290.194546007464, -55222.13044430381, -21027.29183760784, -20453.38844697338, -15678.877017364148, -14528.835061649688, -187500.02235174447, -187500.02235174447, -0.168, 0.8160000000000001, 0.496, 192.0, 250.0, 192.0, 25.0, 128.0, 15.0, 128.0, 0.0, 0.0, 0.0, 1.729704886499889E9, 0.0, 2024-10-23 23:04:46.499
241.0, -48053.76953527565, -56522.91256462486, -11978.031632665592, -22360.215766455625, -17083.95237731366, -15837.261478574454, -187500.02235174447, -187500.02235174447, -0.168, 0.8160000000000001, 0.496, 192.0, 0.0, 0.0, 0.0, 0.0, 0.0, 0.0, 0.0, 0.0, 0.0, 1.7297048865028646E9, 0.0, 2024-10-23 23:04:46.502
242.0, -47849.16166653176, -55621.48906248678, -17284.31341461103, -22471.102770698402, -16375.469133313793, -15009.73284360562, -187500.02235174447, -187500.02235174447, -0.168, 0.8160000000000001, 0.496, 192.0, 0.0, 0.0, 0.0, 0.0, 0.0, 0.0, 0.0, 0.0, 0.0, 1.7297048865069818E9, 0.0, 2024-10-23 23:04:46.506
243.0, -46613.043142919916, -53751.85504577817, -33685.66586800407, -21454.18780495975, -14699.065947421306, -13229.52815646269, -187500.02235174447, -187500.02235174447, -0.168, 0.8160000000000001, 0.496, 192.0, 0.0, 0.0, 0.0, 0.0, 0.0, 0.0, 0.0, 0.0, 0.0, 1.729704886511064E9, 0.0, 2024-10-23 23:04:46.511
244.0, -44828.41281037484, -52903.338122765796, -38702.51491099774, -19457.238251833707, -13633.468882258998, -12361.475808796384, -187500.02235174447, -187500.02235174447, -0.168, 0.8160000000000001, 0.496, 192.0, 0.0, 0.0, 0.0, 0.0, 0.0, 0.0, 0.0, 0.0, 0.0, 1.7297048865160344E9, 0.0, 2024-10-23 23:04:46.516
245.0, -46255.77285954629, -55189.69806309916, -21226.892915593733, -20420.263161690615, -15662.739057867415, -14509.478450951392, -187500.02235174447, -187500.02235174447, -0.168, 0.8160000000000001, 0.496, 192.0, 0.0, 0.0, 0.0, 0.0, 0.0, 0.0, 0.0, 0.0, 0.0, 1.7297048865198824E9, 0.0, 2024-10-23 23:04:46.519
246.0, -48039.24090137969, -56523.96309661426, -11994.102536928956, -22348.77167329451, -17096.67051990873, -15846.001010656479, -187500.02235174447, -187500.02235174447, -0.168, 0.8160000000000001, 0.496, 192.0, 0.0, 0.0, 0.0, 0.0, 0.0, 0.0, 0.0, 0.0, 0.0, 1.7297048865239353E9, 0.0, 2024-10-23 23:04:46.523
247.0, -47853.788477634014, -55638.09640861707, -17184.378765151356, -22481.898663270316, -16399.273741158693, -15037.985448597128, -187500.02235174447, -187500.02235174447, -0.168, 0.8160000000000001, 0.496, 192.0, 0.0, 0.0, 0.0, 0.0, 0.0, 0.0, 0.0, 0.0, 0.0, 1.7297048865270712E9, 0.0, 2024-10-23 23:04:46.527
248.0, -46612.64081151973, -53759.20876970396, -33445.4963738318, -21460.938031785256, -14709.839488248765, -13249.264746816725, -187500.02235174447, -187500.02235174447, -0.168, 0.8160000000000001, 0.496, 192.0, 0.0, 0.0, 0.0, 0.0, 0.0, 0.0, 0.0, 0.0, 0.0, 1.7297048865310264E9, 0.0, 2024-10-23 23:04:46.531
249.0, -44817.05812419154, -52884.62971265671, -38703.5877947316, -19461.820359447047, -13623.097672831736, -12353.742105214847, -187500.02235174447, -187500.02235174447, -0.168, 0.8160000000000001, 0.496, 192.0, 0.0, 0.0, 0.0, 0.0, 0.0, 0.0, 0.0, 0.0, 0.0, 1.7297048865350106E9, 0.0, 2024-10-23 23:04:46.535
250.0, -46243.077068695675, -55175.43765013667, -21290.282462868985, -20417.6703593338, -15655.340630452709, -14499.353110713138, -187500.02235174447, -187500.02235174447, -0.162, 0.8240000000000001, 0.498, 192.0, 250.0, 240.0, 25.0, 192.0, 15.0, 144.0, 0.0, 0.0, 0.0, 1.7297048865391488E9, 0.0, 2024-10-23 23:04:46.539
251.0, -48052.808410264064, -56527.27115479364, -12003.803194022561, -22359.724028077606, -17099.71035715465, -15852.505368292972, -187500.02235174447, -187500.02235174447, -0.162, 0.8240000000000001, 0.498, 192.0, 0.0, 0.0, 0.0, 0.0, 0.0, 0.0, 0.0, 0.0, 0.0, 1.7297048865439131E9, 0.0, 2024-10-23 23:04:46.543
252.0, -47870.217009808664, -55641.15859760745, -17163.68104978574, -22498.34954718942, -16394.53517133417, -15045.339172522925, -187500.02235174447, -187500.02235174447, -0.162, 0.8240000000000001, 0.498, 192.0, 0.0, 0.0, 0.0, 0.0, 0.0, 0.0, 0.0, 0.0, 0.0, 1.7297048865479724E9, 0.0, 2024-10-23 23:04:46.547
253.0, -46618.58637554484, -53757.10770572516, -33327.054479963124, -21471.28688946806, -14706.48672658047, -13261.558206267144, -187500.02235174447, -187500.02235174447, -0.162, 0.8240000000000001, 0.498, 192.0, 0.0, 0.0, 0.0, 0.0, 0.0, 0.0, 0.0, 0.0, 0.0, 1.7297048865519803E9, 0.0, 2024-10-23 23:04:46.551
254.0, -44816.11935092442, -52862.166209479125, -38776.23096421134, -19475.387868331418, -13606.557381934808, -12350.188177846454, -187500.02235174447, -187500.02235174447, -0.162, 0.8240000000000001, 0.498, 192.0, 0.0, 0.0, 0.0, 0.0, 0.0, 0.0, 0.0, 0.0, 0.0, 1.7297048865549784E9, 0.0, 2024-10-23 23:04:46.554
255.0, -46253.60474033413, -55176.577589103894, -21414.8040312295, -20436.95991479873, -15663.2978514788, -14516.899230110554, -187500.02235174447, -187500.02235174447, -0.162, 0.8240000000000001, 0.498, 192.0, 0.0, 0.0, 0.0, 0.0, 0.0, 0.0, 0.0, 0.0, 0.0, 1.729704886558946E9, 0.0, 2024-10-23 23:04:46.558
0.0, -48083.20678272328, -56555.65787025188, -12058.363802237966, -22398.325490751922, -17142.62570650884, -15897.030043247945, -187500.02235174447, -187500.02235174447, -0.162, 0.8240000000000001, 0.498, 192.0, 0.0, 0.0, 0.0, 0.0, 0.0, 0.0, 0.0, 0.0, 0.0, 1.7297048865630555E9, 0.0, 2024-10-23 23:04:46.563
1.0, -47889.595972251416, -55664.91850196344, -17106.70645316916, -22528.345588248445, -16433.695427619867, -15080.02907991756, -187500.02235174447, -187500.02235174447, -0.162, 0.8240000000000001, 0.498, 192.0, 0.0, 0.0, 0.0, 0.0, 0.0, 0.0, 0.0, 0.0, 0.0, 1.7297048865671473E9, 0.0, 2024-10-23 23:04:46.567
2.0, -46627.012983204484, -53778.11834551315, -33195.067428954535, -21490.01765132161, -14716.187383674072, -13278.366718097535, -187500.02235174447, -187500.02235174447, -0.162, 0.8240000000000001, 0.498, 192.0, 0.0, 0.0, 0.0, 0.0, 0.0, 0.0, 0.0, 0.0, 0.0, 1.72970488657299E9, 0.0, 2024-10-23 23:04:46.572
3.0, -44787.55382151053, -52839.54624409035, -38981.86701320017, -19464.27905133713, -13556.243605165912, -12317.219354774876, -187500.02235174447, -187500.02235174447, -0.162, 0.8240000000000001, 0.498, 192.0, 0.0, 0.0, 0.0, 0.0, 0.0, 0.0, 0.0, 0.0, 0.0, 1.729704886576013E9, 0.0, 2024-10-23 23:04:46.576
4.0, -46212.49988228082, -55154.24819639304, -21669.300993597626, -20399.029004458072, -15615.465118344442, -14483.841000061155, -187500.02235174447, -187500.02235174447, -0.158, 0.8260000000000001, 0.5, 192.0, 251.0, 16.0, 25.0, 208.0, 15.0, 160.0, 0.0, 0.0, 0.0, 1.7297048865800412E9, 0.0, 2024-10-23 23:04:46.580
5.0, -48079.63050361044, -56577.11554492898, -12110.421015074375, -22386.255548746056, -17143.34096233141, -15907.758880586493, -187500.02235174447, -187500.02235174447, -0.158, 0.8260000000000001, 0.5, 192.0, 0.0, 0.0, 0.0, 0.0, 0.0, 0.0, 0.0, 0.0, 0.0, 1.729704886582997E9, 0.0, 2024-10-23 23:04:46.582
6.0, -47905.53276604805, -55703.81053731567, -17025.301399862936, -22543.567126222508, -16439.30571547815, -15103.029024962072, -187500.02235174447, -187500.02235174447, -0.158, 0.8260000000000001, 0.5, 192.0, 0.0, 0.0, 0.0, 0.0, 0.0, 0.0, 0.0, 0.0, 0.0, 1.729704886586985E9, 0.0, 2024-10-23 23:04:46.586
7.0, -46621.96148895758, -53793.87632535414, -33029.01631939606, -21501.72996541619, -14714.376892373193, -13285.698090278876, -187500.02235174447, -187500.02235174447, -0.158, 0.8260000000000001, 0.5, 192.0, 0.0, 0.0, 0.0, 0.0, 0.0, 0.0, 0.0, 0.0, 0.0, 1.729704886591061E9, 0.0, 2024-10-23 23:04:46.591
8.0, -44769.471260246195, -52820.92724095908, -39082.271049293406, -19463.9437751703, -13541.4467503365, -12301.036691789233, -187500.02235174447, -187500.02235174447, -0.158, 0.8260000000000001, 0.5, 192.0, 0.0, 0.0, 0.0, 0.0, 0.0, 0.0, 0.0, 0.0, 0.0, 1.72970488659508E9, 0.0, 2024-10-23 23:04:46.595
9.0, -46189.321123280664, -55135.7633037285, -21813.425041845447, -20382.68987926124, -15607.70906301845, -14473.067459233698, -187500.02235174447, -187500.02235174447, -0.158, 0.8260000000000001, 0.5, 192.0, 0.0, 0.0, 0.0, 0.0, 0.0, 0.0, 0.0, 0.0, 0.0, 1.7297048865990357E9, 0.0, 2024-10-23 23:04:46.599
10.0, -48056.116468443455, -56563.033945922136, -12174.302300727642, -22369.067057259927, -17142.804520464484, -15905.00961601849, -187500.02235174447, -187500.02235174447, -0.158, 0.8260000000000001, 0.5, 192.0, 0.0, 0.0, 0.0, 0.0, 0.0, 0.0, 0.0, 0.0, 0.0, 1.7297048866040187E9, 0.0, 2024-10-23 23:04:46.604
11.0, -47893.17225136427, -55700.52483088074, -17040.791158770462, -22539.342646520454, -16452.940279595885, -15120.4186821483, -187500.02235174447, -187500.02235174447, -0.158, 0.8260000000000001, 0.5, 192.0, 0.0, 0.0, 0.0, 0.0, 0.0, 0.0, 0.0, 0.0, 0.0, 1.7297048866082203E9, 0.0, 2024-10-23 23:04:46.608
12.0, -46628.287032638436, -53811.06481684027, -32905.94761442514, -21507.899046885854, -14733.465282138024, -13325.372436687047, -187500.02235174447, -187500.02235174447, -0.158, 0.8260000000000001, 0.5, 192.0, 0.0, 0.0, 0.0, 0.0, 0.0, 0.0, 0.0, 0.0, 0.0, 1.729704886611119E9, 0.0, 2024-10-23 23:04:46.611
13.0, -44784.37987379788, -52827.141025917655, -39089.26714530792, -19482.652185279392, -13550.67802079654, -12333.849052649624, -187500.02235174447, -187500.02235174447, -0.158, 0.8260000000000001, 0.5, 192.0, 0.0, 0.0, 0.0, 0.0, 0.0, 0.0, 0.0, 0.0, 0.0, 1.7297048866152215E9, 0.0, 2024-10-23 23:04:46.615
14.0, -46184.649608689506, -55122.7098849666, -21859.201414489915, -20372.4080768118, -15590.207647109944, -14476.308462179717, -187500.02235174447, -187500.02235174447, -0.152, 0.8280000000000001, 0.494, 192.0, 251.0, 64.0, 25.0, 224.0, 15.0, 112.0, 0.0, 0.0, 0.0, 1.7297048866191618E9, 0.0, 2024-10-23 23:04:46.619
15.0, -48053.098982941985, -56551.23222484973, -12209.595705222573, -22353.979629752594, -17123.492613255097, -15904.875505551758, -187500.02235174447, -187500.02235174447, -0.152, 0.8280000000000001, 0.494, 192.0, 0.0, 0.0, 0.0, 0.0, 0.0, 0.0, 0.0, 0.0, 0.0, 1.7297048866231604E9, 0.0, 2024-10-23 23:04:46.623
16.0, -47889.26069608459, -55691.07004297615, -17041.12643493729, -22527.138594047858, -16439.55158466716, -15123.726740327686, -187500.02235174447, -187500.02235174447, -0.152, 0.8280000000000001, 0.494, 192.0, 0.0, 0.0, 0.0, 0.0, 0.0, 0.0, 0.0, 0.0, 0.0, 1.7297048866270728E9, 0.0, 2024-10-23 23:04:46.627
17.0, -46638.23355892105, -53826.39811353661, -32785.44936006658, -21509.620131208914, -14746.988087533486, -13341.108064783582, -187500.02235174447, -187500.02235174447, -0.152, 0.8280000000000001, 0.494, 192.0, 0.0, 0.0, 0.0, 0.0, 0.0, 0.0, 0.0, 0.0, 0.0, 1.729704886632254E9, 0.0, 2024-10-23 23:04:46.632
18.0, -44806.46339731973, -52836.66286905562, -39158.199925208086, -19500.645339565915, -13566.033669237337, -12341.560404486705, -187500.02235174447, -187500.02235174447, -0.152, 0.8280000000000001, 0.494, 192.0, 0.0, 0.0, 0.0, 0.0, 0.0, 0.0, 0.0, 0.0, 0.0, 1.729704886636308E9, 0.0, 2024-10-23 23:04:46.636
19.0, -46175.843021374116, -55108.11419583729, -21976.458665902457, -20368.228300598657, -15588.46421104243, -14466.071363219186, -187500.02235174447, -187500.02235174447, -0.152, 0.8280000000000001, 0.494, 192.0, 0.0, 0.0, 0.0, 0.0, 0.0, 0.0, 0.0, 0.0, 0.0, 1.7297048866392984E9, 0.0, 2024-10-23 23:04:46.639
20.0, -48043.375974103925, -56547.432428292326, -12249.918252219946, -22348.168176194213, -17131.226316836633, -15902.52857238395, -187500.02235174447, -187500.02235174447, -0.152, 0.8280000000000001, 0.494, 192.0, 0.0, 0.0, 0.0, 0.0, 0.0, 0.0, 0.0, 0.0, 0.0, 1.7297048866433477E9, 0.0, 2024-10-23 23:04:46.643
21.0, -47896.34619907692, -55710.31489495217, -17015.51133579151, -22542.31542853301, -16471.559282727158, -15143.32922021499, -187500.02235174447, -187500.02235174447, -0.152, 0.8280000000000001, 0.494, 192.0, 0.0, 0.0, 0.0, 0.0, 0.0, 0.0, 0.0, 0.0, 0.0, 1.7297048866472244E9, 0.0, 2024-10-23 23:04:46.647
22.0, -46652.62808235027, -53853.823703983275, -32660.637219028144, -21533.871773942923, -14783.64494844019, -13377.31789080118, -187500.02235174447, -187500.02235174447, -0.152, 0.8280000000000001, 0.494, 192.0, 0.0, 0.0, 0.0, 0.0, 0.0, 0.0, 0.0, 0.0, 0.0, 1.729704886651362E9, 0.0, 2024-10-23 23:04:46.651
23.0, -44807.46922582021, -52833.086589942766, -39277.64764757724, -19518.459679896794, -13566.190131448524, -12347.528320256271, -187500.02235174447, -187500.02235174447, -0.152, 0.8280000000000001, 0.494, 192.0, 0.0, 0.0, 0.0, 0.0, 0.0, 0.0, 0.0, 0.0, 0.0, 1.7297048866553702E9, 0.0, 2024-10-23 23:04:46.655
24.0, -46153.379518196525, -55093.29498926342, -22146.10840631824, -20352.336210290934, -15554.64602168155, -14453.554386324215, -187500.02235174447, -187500.02235174447, -0.16, 0.8200000000000001, 0.496, 192.0, 251.0, 0.0, 25.0, 160.0, 15.0, 128.0, 0.0, 0.0, 0.0, 1.7297048866601243E9, 0.0, 2024-10-23 23:04:46.660
25.0, -48033.36239258795, -56560.798771476606, -12259.216577913354, -22345.508318604032, -17126.353636545377, -15914.352645200808, -187500.02235174447, -187500.02235174447, -0.16, 0.8200000000000001, 0.496, 192.0, 0.0, 0.0, 0.0, 0.0, 0.0, 0.0, 0.0, 0.0, 0.0, 1.729704886664306E9, 0.0, 2024-10-23 23:04:46.664
26.0, -47889.037178640036, -55727.79395911622, -16871.789618943887, -22542.337780277467, -16471.067544349142, -15150.86175809643, -187500.02235174447, -187500.02235174447, -0.16, 0.8200000000000001, 0.496, 192.0, 0.0, 0.0, 0.0, 0.0, 0.0, 0.0, 0.0, 0.0, 0.0, 1.7297048866673064E9, 0.0, 2024-10-23 23:04:46.667
27.0, -46640.91576825568, -53857.5117418184, -32399.725306001343, -21526.54040176158, -14773.743125646488, -13369.405373264, -187500.02235174447, -187500.02235174447, -0.16, 0.8200000000000001, 0.496, 192.0, 0.0, 0.0, 0.0, 0.0, 0.0, 0.0, 0.0, 0.0, 0.0, 1.7297048866722448E9, 0.0, 2024-10-23 23:04:46.672
28.0, -44786.68210347678, -52798.55314475932, -39307.75544735855, -19495.90676974139, -13530.673209509041, -12306.736386625336, -187500.02235174447, -187500.02235174447, -0.16, 0.8200000000000001, 0.496, 192.0, 0.0, 0.0, 0.0, 0.0, 0.0, 0.0, 0.0, 0.0, 0.0, 1.7297048866761303E9, 0.0, 2024-10-23 23:04:46.676
29.0, -46118.7343142908, -55047.742134063505, -22274.18390204715, -20304.481125412123, -15525.007608533813, -14413.56711549367, -187500.02235174447, -187500.02235174447, -0.16, 0.8200000000000001, 0.496, 192.0, 0.0, 0.0, 0.0, 0.0, 0.0, 0.0, 0.0, 0.0, 0.0, 1.7297048866791935E9, 0.0, 2024-10-23 23:04:46.679
30.0, -48018.297316825076, -56536.43537002032, -12304.121232524067, -22314.394690322246, -17117.658807952263, -15907.445956164118, -187500.02235174447, -187500.02235174447, -0.16, 0.8200000000000001, 0.496, 192.0, 0.0, 0.0, 0.0, 0.0, 0.0, 0.0, 0.0, 0.0, 0.0, 1.729704886683184E9, 0.0, 2024-10-23 23:04:46.683
31.0, -47883.918629159765, -55713.93587755393, -16850.398999500158, -22528.256181270623, -16469.189997814894, -15162.059982068538, -187500.02235174447, -187500.02235174447, -0.16, 0.8200000000000001, 0.496, 192.0, 0.0, 0.0, 0.0, 0.0, 0.0, 0.0, 0.0, 0.0, 0.0, 1.7297048866881793E9, 0.0, 2024-10-23 23:04:46.688
32.0, -46633.316175140884, -53858.025831940875, -32232.131926075454, -21517.443241768273, -14786.416564752648, -13393.165277619992, -187500.02235174447, -187500.02235174447, -0.16, 0.8200000000000001, 0.496, 192.0, 0.0, 0.0, 0.0, 0.0, 0.0, 0.0, 0.0, 0.0, 0.0, 1.7297048866923418E9, 0.0, 2024-10-23 23:04:46.692
33.0, -44768.17485906778, -52775.5084962259, -39303.799188589954, -19493.358670873484, -13529.399160075089, -12309.217430259876, -187500.02235174447, -187500.02235174447, -0.16, 0.8200000000000001, 0.496, 192.0, 0.0, 0.0, 0.0, 0.0, 0.0, 0.0, 0.0, 0.0, 0.0, 1.7297048866952343E9, 0.0, 2024-10-23 23:04:46.695
34.0, -46106.91024147395, -55040.813093282355, -22380.17587425421, -20311.83484933792, -15535.714094127905, -14430.085054646142, -187500.02235174447, -187500.02235174447, -0.166, 0.8200000000000001, 0.502, 192.0, 250.0, 208.0, 25.0, 160.0, 15.0, 176.0, 0.0, 0.0, 0.0, 1.729704886699228E9, 0.0, 2024-10-23 23:04:46.699
35.0, -48024.242880850186, -56558.20596911979, -12386.330948630686, -22340.210955168124, -17148.571270533954, -15946.047418838432, -187500.02235174447, -187500.02235174447, -0.166, 0.8200000000000001, 0.502, 192.0, 0.0, 0.0, 0.0, 0.0, 0.0, 0.0, 0.0, 0.0, 0.0, 1.72970488670319E9, 0.0, 2024-10-23 23:04:46.703
36.0, -47903.632867769345, -55749.206930304405, -16861.418409516624, -22567.125864878402, -16513.89348672551, -15213.021959426638, -187500.02235174447, -187500.02235174447, -0.166, 0.8200000000000001, 0.502, 192.0, 0.0, 0.0, 0.0, 0.0, 0.0, 0.0, 0.0, 0.0, 0.0, 1.72970488670724E9, 0.0, 2024-10-23 23:04:46.707
37.0, -46632.757381529496, -53864.77605876637, -32097.529720965595, -21531.569544264024, -14784.427259496124, -13420.143833177548, -187500.02235174447, -187500.02235174447, -0.166, 0.8200000000000001, 0.502, 192.0, 0.0, 0.0, 0.0, 0.0, 0.0, 0.0, 0.0, 0.0, 0.0, 1.729704886711182E9, 0.0, 2024-10-23 23:04:46.711
38.0, -44739.72108837618, -52729.30744043678, -39413.88153003234, -19479.031202677634, -13483.600435686165, -12288.564418383172, -187500.02235174447, -187500.02235174447, -0.166, 0.8200000000000001, 0.502, 192.0, 0.0, 0.0, 0.0, 0.0, 0.0, 0.0, 0.0, 0.0, 0.0, 1.7297048867151973E9, 0.0, 2024-10-23 23:04:46.715
39.0, -46090.83933721058, -55015.13093890321, -22583.107362163944, -20305.084622512415, -15525.432291678464, -14432.789615725234, -187500.02235174447, -187500.02235174447, -0.166, 0.8200000000000001, 0.502, 192.0, 0.0, 0.0, 0.0, 0.0, 0.0, 0.0, 0.0, 0.0, 0.0, 1.7297048867201622E9, 0.0, 2024-10-23 23:04:46.720
40.0, -48041.40902059186, -56571.058222181586, -12465.32201353574, -22364.976688024606, -17175.102791202404, -15980.424401810695, -187500.02235174447, -187500.02235174447, -0.166, 0.8200000000000001, 0.502, 192.0, 0.0, 0.0, 0.0, 0.0, 0.0, 0.0, 0.0, 0.0, 0.0, 1.7297048867232292E9, 0.0, 2024-10-23 23:04:46.723
41.0, -47918.67559178777, -55761.54509324373, -16823.062816031317, -22592.51744657963, -16516.754510015788, -15240.000514984193, -187500.02235174447, -187500.02235174447, -0.166, 0.8200000000000001, 0.502, 192.0, 0.0, 0.0, 0.0, 0.0, 0.0, 0.0, 0.0, 0.0, 0.0, 1.7297048867272096E9, 0.0, 2024-10-23 23:04:46.727
42.0, -46627.12474192676, -53861.378593609166, -31967.956658358176, -21535.145823376875, -14783.197913551083, -13426.089397202659, -187500.02235174447, -187500.02235174447, -0.166, 0.8200000000000001, 0.502, 192.0, 0.0, 0.0, 0.0, 0.0, 0.0, 0.0, 0.0, 0.0, 0.0, 1.7297048867312765E9, 0.0, 2024-10-23 23:04:46.731
43.0, -44714.374210163856, -52696.09274817619, -39519.828798750495, -19470.626946762437, -13463.841493587674, -12259.060115702167, -187500.02235174447, -187500.02235174447, -0.166, 0.8200000000000001, 0.502, 192.0, 0.0, 0.0, 0.0, 0.0, 0.0, 0.0, 0.0, 0.0, 0.0, 1.7297048867352147E9, 0.0, 2024-10-23 23:04:46.735
44.0, -46078.791746949166, -55009.25243011146, -22753.49471014675, -20299.653148609777, -15493.134020940546, -14413.27654281575, -187500.02235174447, -187500.02235174447, -0.166, 0.8180000000000001, 0.502, 192.0, 250.0, 208.0, 25.0, 144.0, 15.0, 176.0, 0.0, 0.0, 0.0, 1.729704886739241E9, 0.0, 2024-10-23 23:04:46.739
45.0, -48073.52847737414, -56616.34285644804, -12513.62413330366, -22394.2351215166, -17183.104715717403, -16005.681873045192, -187500.02235174447, -187500.02235174447, -0.166, 0.8180000000000001, 0.502, 192.0, 0.0, 0.0, 0.0, 0.0, 0.0, 0.0, 0.0, 0.0, 0.0, 1.7297048867442927E9, 0.0, 2024-10-23 23:04:46.744
46.0, -47958.796973085045, -55811.65770431253, -16735.68984695552, -22628.302589452578, -16554.685420356444, -15268.275471720157, -187500.02235174447, -187500.02235174447, -0.166, 0.8180000000000001, 0.502, 192.0, 0.0, 0.0, 0.0, 0.0, 0.0, 0.0, 0.0, 0.0, 0.0, 1.7297048867482915E9, 0.0, 2024-10-23 23:04:46.748
47.0, -46643.01683223448, -53882.47864037498, -31786.236975936532, -21547.819262483034, -14796.296035801894, -13418.199231409935, -187500.02235174447, -187500.02235174447, -0.166, 0.8180000000000001, 0.502, 192.0, 0.0, 0.0, 0.0, 0.0, 0.0, 0.0, 0.0, 0.0, 0.0, 1.7297048867513556E9, 0.0, 2024-10-23 23:04:46.751
48.0, -44692.22363140865, -52653.26680579982, -39665.115137709996, -19444.9894958722, -13400.898981201528, -12184.762917132726, -187500.02235174447, -187500.02235174447, -0.166, 0.8180000000000001, 0.502, 192.0, 0.0, 0.0, 0.0, 0.0, 0.0, 0.0, 0.0, 0.0, 0.0, 1.729704886755288E9, 0.0, 2024-10-23 23:04:46.755
49.0, -46063.95018863084, -54982.653854209646, -23004.79537305777, -20263.465674336636, -15470.134075896034, -14361.062867768154, -187500.02235174447, -187500.02235174447, -0.166, 0.8180000000000001, 0.502, 192.0, 0.0, 0.0, 0.0, 0.0, 0.0, 0.0, 0.0, 0.0, 0.0, 1.729704886759288E9, 0.0, 2024-10-23 23:04:46.759
50.0, -48087.40891068088, -56623.54011816265, -12564.921386828588, -22375.4820079186, -17189.74318382063, -15987.241683869564, -187500.02235174447, -187500.02235174447, -0.166, 0.8180000000000001, 0.502, 192.0, 0.0, 0.0, 0.0, 0.0, 0.0, 0.0, 0.0, 0.0, 0.0, 1.7297048867632544E9, 0.0, 2024-10-23 23:04:46.763
51.0, -47988.01070308813, -55830.500224888354, -16633.251802116847, -22625.48626965121, -16569.683440885954, -15269.527169409654, -187500.02235174447, -187500.02235174447, -0.166, 0.8180000000000001, 0.502, 192.0, 0.0, 0.0, 0.0, 0.0, 0.0, 0.0, 0.0, 0.0, 0.0, 1.7297048867673268E9, 0.0, 2024-10-23 23:04:46.767
52.0, -46674.778661105476, -53904.718626108006, -31601.812732435792, -21556.089407931497, -14813.685692988121, -13430.380932138078, -187500.02235174447, -187500.02235174447, -0.166, 0.8180000000000001, 0.502, 192.0, 0.0, 0.0, 0.0, 0.0, 0.0, 0.0, 0.0, 0.0, 0.0, 1.7297048867712755E9, 0.0, 2024-10-23 23:04:46.771
53.0, -44725.88535855834, -52658.27359655781, -39780.3383803771, -19460.211033846266, -13414.712359274909, -12188.897989856958, -187500.02235174447, -187500.02235174447, -0.166, 0.8180000000000001, 0.502, 192.0, 0.0, 0.0, 0.0, 0.0, 0.0, 0.0, 0.0, 0.0, 0.0, 1.72970488677629E9, 0.0, 2024-10-23 23:04:46.776
54.0, -46048.371022745494, -54955.09415329625, -23176.769694896902, -20230.943886154164, -15445.278936061733, -14334.55369884416, -187500.02235174447, -187500.02235174447, -0.16, 0.8160000000000001, 0.502, 192.0, 251.0, 0.0, 25.0, 128.0, 15.0, 176.0, 0.0, 0.0, 0.0, 1.729704886779298E9, 0.0, 2024-10-23 23:04:46.779
55.0, -48064.31955865855, -56606.508088887706, -12570.10699154222, -22337.46169060012, -17189.765535565082, -15981.139657633265, -187500.02235174447, -187500.02235174447, -0.16, 0.8160000000000001, 0.502, 192.0, 0.0, 0.0, 0.0, 0.0, 0.0, 0.0, 0.0, 0.0, 0.0, 1.729704886783399E9, 0.0, 2024-10-23 23:04:46.783
56.0, -47992.32458976801, -55847.88988207458, -16491.16176261446, -22619.764223070648, -16604.23923781386, -15299.031472090659, -187500.02235174447, -187500.02235174447, -0.16, 0.8160000000000001, 0.502, 192.0, 0.0, 0.0, 0.0, 0.0, 0.0, 0.0, 0.0, 0.0, 0.0, 1.7297048867873402E9, 0.0, 2024-10-23 23:04:46.787
57.0, -46706.942821376666, -53950.18207433011, -31394.58970959064, -21584.207902456274, -14857.6068708428, -13495.268046291834, -187500.02235174447, -187500.02235174447, -0.16, 0.8160000000000001, 0.502, 192.0, 0.0, 0.0, 0.0, 0.0, 0.0, 0.0, 0.0, 0.0, 0.0, 1.7297048867913623E9, 0.0, 2024-10-23 23:04:46.791
58.0, -44738.357631964405, -52662.431021026496, -40033.69540377801, -19491.168199916865, -13407.626856282575, -12222.135033862, -187500.02235174447, -187500.02235174447, -0.16, 0.8160000000000001, 0.502, 192.0, 0.0, 0.0, 0.0, 0.0, 0.0, 0.0, 0.0, 0.0, 0.0, 1.7297048867954924E9, 0.0, 2024-10-23 23:04:46.795
59.0, -45994.23509767474, -54912.469376619985, -23520.80774555299, -20193.974100825086, -15388.639615611984, -14327.065864451632, -187500.02235174447, -187500.02235174447, -0.16, 0.8160000000000001, 0.502, 192.0, 0.0, 0.0, 0.0, 0.0, 0.0, 0.0, 0.0, 0.0, 0.0, 1.72970488679972E9, 0.0, 2024-10-23 23:04:46.799
60.0, -48039.64323277989, -56606.15046097642, -12606.406224537639, -22313.79119322195, -17163.07755268545, -16008.699358546659, -187500.02235174447, -187500.02235174447, -0.16, 0.8160000000000001, 0.502, 192.0, 0.0, 0.0, 0.0, 0.0, 0.0, 0.0, 0.0, 0.0, 0.0, 1.729704886804476E9, 0.0, 2024-10-23 23:04:46.804
61.0, -48018.40907554735, -55887.16189708256, -16315.007664562187, -22649.00030481819, -16612.978769895886, -15356.296641385155, -187500.02235174447, -187500.02235174447, -0.16, 0.8160000000000001, 0.502, 192.0, 0.0, 0.0, 0.0, 0.0, 0.0, 0.0, 0.0, 0.0, 0.0, 1.7297048868074667E9, 0.0, 2024-10-23 23:04:46.807
62.0, -46747.131257907306, -53987.6435980372, -31163.852651578505, -21622.831716875044, -14885.680661878665, -13542.117302670158, -187500.02235174447, -187500.02235174447, -0.16, 0.8160000000000001, 0.502, 192.0, 0.0, 0.0, 0.0, 0.0, 0.0, 0.0, 0.0, 0.0, 0.0, 1.7297048868113244E9, 0.0, 2024-10-23 23:04:46.811
63.0, -44767.4148997563, -52668.868323429626, -40076.87897406566, -19515.755118817702, -13425.620010569099, -12230.829862455113, -187500.02235174447, -187500.02235174447, -0.16, 0.8160000000000001, 0.502, 192.0, 0.0, 0.0, 0.0, 0.0, 0.0, 0.0, 0.0, 0.0, 0.0, 1.7297048868153205E9, 0.0, 2024-10-23 23:04:46.815
64.0, -45982.81335625808, -54892.93395196604, -23634.01933121912, -20172.382315681258, -15372.61341483753, -14299.148535626953, -187500.02235174447, -187500.02235174447, -0.168, 0.8200000000000001, 0.5, 192.0, 250.0, 192.0, 25.0, 160.0, 15.0, 160.0, 0.0, 0.0, 0.0, 1.7297048868194132E9, 0.0, 2024-10-23 23:04:46.819
65.0, -48026.16513087334, -56599.24377193973, -12606.339169304272, -22291.774724933475, -17152.1475496468, -15987.465201314117, -187500.02235174447, -187500.02235174447, -0.168, 0.8200000000000001, 0.5, 192.0, 0.0, 0.0, 0.0, 0.0, 0.0, 0.0, 0.0, 0.0, 0.0, 1.7297048868234832E9, 0.0, 2024-10-23 23:04:46.823
66.0, -48010.47420626572, -55886.8936761491, -16248.779445741111, -22638.494984924197, -16609.91658090551, -15348.89821397045, -187500.02235174447, -187500.02235174447, -0.168, 0.8200000000000001, 0.5, 192.0, 0.0, 0.0, 0.0, 0.0, 0.0, 0.0, 0.0, 0.0, 0.0, 1.7297048868274708E9, 0.0, 2024-10-23 23:04:46.827
67.0, -46757.6365778013, -54006.32965640184, -31018.678071341288, -21636.220411803773, -14908.457089478623, -13557.91998600006, -187500.02235174447, -187500.02235174447, -0.168, 0.8200000000000001, 0.5, 192.0, 0.0, 0.0, 0.0, 0.0, 0.0, 0.0, 0.0, 0.0, 0.0, 1.7297048868324792E9, 0.0, 2024-10-23 23:04:46.832
68.0, -44774.58980972646, -52671.863457186635, -40174.734911290994, -19547.40518896642, -13444.998973011849, -12232.863871200547, -187500.02235174447, -187500.02235174447, -0.168, 0.8200000000000001, 0.5, 192.0, 0.0, 0.0, 0.0, 0.0, 0.0, 0.0, 0.0, 0.0, 0.0, 1.7297048868354063E9, 0.0, 2024-10-23 23:04:46.835
69.0, -45954.31488207756, -54874.069079645764, -23792.247330218237, -20172.114094747794, -15373.75335380475, -14279.88133190648, -187500.02235174447, -187500.02235174447, -0.168, 0.8200000000000001, 0.5, 192.0, 0.0, 0.0, 0.0, 0.0, 0.0, 0.0, 0.0, 0.0, 0.0, 1.7297048868383625E9, 0.0, 2024-10-23 23:04:46.838
70.0, -47987.29544726556, -56569.605358791996, -12647.891062246688, -22275.815579392383, -17136.613087250364, -15949.556642717916, -187500.02235174447, -187500.02235174447, -0.168, 0.8200000000000001, 0.5, 192.0, 0.0, 0.0, 0.0, 0.0, 0.0, 0.0, 0.0, 0.0, 0.0, 1.7297048868433955E9, 0.0, 2024-10-23 23:04:46.843
71.0, -47995.94557236977, -55879.07056558974, -16218.224611070707, -22647.502737939685, -16614.655150730032, -15327.172318359892, -187500.02235174447, -187500.02235174447, -0.168, 0.8200000000000001, 0.5, 192.0, 0.0, 0.0, 0.0, 0.0, 0.0, 0.0, 0.0, 0.0, 0.0, 1.7297048868474061E9, 0.0, 2024-10-23 23:04:46.847
72.0, -46756.697804534175, -54021.90882228719, -30881.080732474416, -21665.05416215112, -14902.936208598163, -13548.152273673091, -187500.02235174447, -187500.02235174447, -0.168, 0.8200000000000001, 0.5, 192.0, 0.0, 0.0, 0.0, 0.0, 0.0, 0.0, 0.0, 0.0, 0.0, 1.729704886851383E9, 0.0, 2024-10-23 23:04:46.851
73.0, -44782.882306919375, -52675.66325374404, -40324.60335786383, -19588.755916208735, -13430.313876904713, -12211.696769201371, -187500.02235174447, -187500.02235174447, -0.168, 0.8200000000000001, 0.5, 192.0, 0.0, 0.0, 0.0, 0.0, 0.0, 0.0, 0.0, 0.0, 0.0, 1.729704886855379E9, 0.0, 2024-10-23 23:04:46.855
74.0, -45914.66288741385, -54839.0438960843, -24018.871667250594, -20160.066504486385, -15332.55908877362, -14224.896040546422, -187500.02235174447, -187500.02235174447, -0.166, 0.8240000000000001, 0.5, 192.0, 250.0, 208.0, 25.0, 192.0, 15.0, 160.0, 0.0, 0.0, 0.0, 1.7297048868595142E9, 0.0, 2024-10-23 23:04:46.859
75.0, -47970.68810113527, -56573.47221058276, -12672.992071269999, -22277.380201504257, -17118.329360285923, -15939.654819924215, -187500.02235174447, -187500.02235174447, -0.166, 0.8240000000000001, 0.5, 192.0, 0.0, 0.0, 0.0, 0.0, 0.0, 0.0, 0.0, 0.0, 0.0, 1.7297048868634272E9, 0.0, 2024-10-23 23:04:46.863
76.0, -48006.58500273049, -55910.25124910489, -16067.529149953027, -22675.44241850882, -16621.673598489, -15351.021629693703, -187500.02235174447, -187500.02235174447, -0.166, 0.8240000000000001, 0.5, 192.0, 0.0, 0.0, 0.0, 0.0, 0.0, 0.0, 0.0, 0.0, 0.0, 1.7297048868664103E9, 0.0, 2024-10-23 23:04:46.866
77.0, -46775.49562162109, -54055.21292152559, -30642.855840069755, -21698.20179917834, -14942.185871861682, -13584.853838068706, -187500.02235174447, -187500.02235174447, -0.166, 0.8240000000000001, 0.5, 192.0, 0.0, 0.0, 0.0, 0.0, 0.0, 0.0, 0.0, 0.0, 0.0, 1.7297048868715134E9, 0.0, 2024-10-23 23:04:46.871
78.0, -44781.42944352978, -52671.863457186635, -40338.66260512622, -19600.64704425896, -13432.884327517073, -12215.764786692238, -187500.02235174447, -187500.02235174447, -0.166, 0.8240000000000001, 0.5, 192.0, 0.0, 0.0, 0.0, 0.0, 0.0, 0.0, 0.0, 0.0, 0.0, 1.7297048868754027E9, 0.0, 2024-10-23 23:04:46.875
79.0, -45888.55604989005, -54818.72616037443, -24147.97534322445, -20133.55733556239, -15304.060614593103, -14221.342113178029, -187500.02235174447, -187500.02235174447, -0.166, 0.8240000000000001, 0.5, 192.0, 0.0, 0.0, 0.0, 0.0, 0.0, 0.0, 0.0, 0.0, 0.0, 1.7297048868794527E9, 0.0, 2024-10-23 23:04:46.879
80.0, -47952.67259510429, -56563.928015700345, -12732.648877221212, -22250.31223896888, -17123.984351633117, -15954.898709642734, -187500.02235174447, -187500.02235174447, -0.166, 0.8240000000000001, 0.5, 192.0, 0.0, 0.0, 0.0, 0.0, 0.0, 0.0, 0.0, 0.0, 0.0, 1.729704886883721E9, 0.0, 2024-10-23 23:04:46.883
81.0, -48011.63649697739, -55919.48251956493, -16061.829455116924, -22663.953621858793, -16657.838721017688, -15383.766935320727, -187500.02235174447, -187500.02235174447, -0.166, 0.8240000000000001, 0.5, 192.0, 0.0, 0.0, 0.0, 0.0, 0.0, 0.0, 0.0, 0.0, 0.0, 1.7297048868877325E9, 0.0, 2024-10-23 23:04:46.887
82.0, -46785.79977581499, -54070.59092171084, -30520.055356032295, -21692.792677020156, -14987.470506128135, -13623.522355976387, -187500.02235174447, -187500.02235174447, -0.166, 0.8240000000000001, 0.5, 192.0, 0.0, 0.0, 0.0, 0.0, 0.0, 0.0, 0.0, 0.0, 0.0, 1.7297048868914857E9, 0.0, 2024-10-23 23:04:46.891
83.0, -44788.11261512192, -52669.13654436309, -40381.466195758134, -19597.674262246404, -13460.354621452645, -12226.426568797418, -187500.02235174447, -187500.02235174447, -0.166, 0.8240000000000001, 0.5, 192.0, 0.0, 0.0, 0.0, 0.0, 0.0, 0.0, 0.0, 0.0, 0.0, 1.7297048868944688E9, 0.0, 2024-10-23 23:04:46.894
84.0, -45880.5764771195, -54809.40548293656, -24283.98570823499, -20113.239599852517, -15307.994521617238, -14211.753214806702, -187500.02235174447, -187500.02235174447, -0.166, 0.8140000000000001, 0.502, 192.0, 250.0, 208.0, 25.0, 112.0, 15.0, 176.0, 0.0, 0.0, 0.0, 1.7297048868995345E9, 0.0, 2024-10-23 23:04:46.899
85.0, -47957.43351667327, -56575.3050536281, -12836.003343582553, -22240.92450629765, -17147.05135191099, -15955.882186398769, -187500.02235174447, -187500.02235174447, -0.166, 0.8140000000000001, 0.502, 192.0, 0.0, 0.0, 0.0, 0.0, 0.0, 0.0, 0.0, 0.0, 0.0, 1.7297048869037044E9, 0.0, 2024-10-23 23:04:46.903
86.0, -48026.00866866215, -55944.98585998844, -16125.375464603361, -22670.837959151027, -16682.135067240604, -15392.171191235924, -187500.02235174447, -187500.02235174447, -0.166, 0.8140000000000001, 0.502, 192.0, 0.0, 0.0, 0.0, 0.0, 0.0, 0.0, 0.0, 0.0, 0.0, 1.7297048869076E9, 0.0, 2024-10-23 23:04:46.907
87.0, -46811.727799383145, -54113.66273327622, -30431.363634033638, -21705.667281826412, -15022.428634456235, -13649.405676055632, -187500.02235174447, -187500.02235174447, -0.166, 0.8140000000000001, 0.502, 192.0, 0.0, 0.0, 0.0, 0.0, 0.0, 0.0, 0.0, 0.0, 0.0, 1.7297048869117196E9, 0.0, 2024-10-23 23:04:46.911
88.0, -44828.52456909711, -52702.50769883487, -40336.092154513855, -19623.535230581194, -13496.117412581136, -12251.818150498648, -187500.02235174447, -187500.02235174447, -0.166, 0.8140000000000001, 0.502, 192.0, 0.0, 0.0, 0.0, 0.0, 0.0, 0.0, 0.0, 0.0, 0.0, 1.729704886915735E9, 0.0, 2024-10-23 23:04:46.915
89.0, -45881.33643643099, -54803.66108461155, -24297.77673456392, -20101.75080320249, -15316.331722299066, -14199.57151407856, -187500.02235174447, -187500.02235174447, -0.166, 0.8140000000000001, 0.502, 192.0, 0.0, 0.0, 0.0, 0.0, 0.0, 0.0, 0.0, 0.0, 0.0, 1.729704886919599E9, 0.0, 2024-10-23 23:04:46.919
90.0, -47940.37913565387, -56550.53932077162, -12868.189855598195, -22211.800183272386, -17141.418712308256, -15927.830747107357, -187500.02235174447, -187500.02235174447, -0.166, 0.8140000000000001, 0.502, 192.0, 0.0, 0.0, 0.0, 0.0, 0.0, 0.0, 0.0, 0.0, 0.0, 1.7297048869225113E9, 0.0, 2024-10-23 23:04:46.922
91.0, -48003.20988931774, -55913.33578983972, -16133.511499585093, -22639.05377853558, -16671.070953735227, -15363.89623449996, -187500.02235174447, -187500.02235174447, -0.166, 0.8140000000000001, 0.502, 192.0, 0.0, 0.0, 0.0, 0.0, 0.0, 0.0, 0.0, 0.0, 0.0, 1.7297048869275825E9, 0.0, 2024-10-23 23:04:46.927
92.0, -46818.433322719735, -54117.55193681144, -30296.98494636833, -21700.548732346146, -15037.091378818915, -13653.943080180059, -187500.02235174447, -187500.02235174447, -0.166, 0.8140000000000001, 0.502, 192.0, 0.0, 0.0, 0.0, 0.0, 0.0, 0.0, 0.0, 0.0, 0.0, 1.7297048869316185E9, 0.0, 2024-10-23 23:04:46.931
93.0, -44859.995825290185, -52720.9925914994, -40312.9133955137, -19657.84515832009, -13528.572145530243, -12281.165990968466, -187500.02235174447, -187500.02235174447, -0.166, 0.8140000000000001, 0.502, 192.0, 0.0, 0.0, 0.0, 0.0, 0.0, 0.0, 0.0, 0.0, 0.0, 1.7297048869355536E9, 0.0, 2024-10-23 23:04:46.935
94.0, -45878.54246837407, -54795.39093916309, -24358.975810882548, -20107.83047769433, -15318.499841511231, -14209.205115938797, -187500.02235174447, -187500.02235174447, -0.166, 0.8140000000000001, 0.502, 192.0, 0.0, 0.0, 0.0, 0.0, 0.0, 0.0, 0.0, 0.0, 0.0, 1.729704886939742E9, 0.0, 2024-10-23 23:04:46.939
95.0, -47918.608536554406, -56528.32168678304, -12850.844901900877, -22197.383308098713, -17108.919275870237, -15916.766633601981, -187500.02235174447, -187500.02235174447, -0.164, 0.8180000000000001, 0.496, 192.0, 250.0, 224.0, 25.0, 144.0, 15.0, 128.0, 0.0, 0.0, 0.0, 1.7297048869436464E9, 0.0, 2024-10-23 23:04:46.943
96.0, -48001.868784650425, -55909.46893804896, -16010.062814958432, -22632.638827876908, -16665.25950017685, -15364.924414744904, -187500.02235174447, -187500.02235174447, -0.164, 0.8180000000000001, 0.496, 192.0, 0.0, 0.0, 0.0, 0.0, 0.0, 0.0, 0.0, 0.0, 0.0, 1.7297048869476535E9, 0.0, 2024-10-23 23:04:46.947
97.0, -46850.57513124646, -54143.6811260797, -30076.082655916533, -21717.938389532377, -15081.638405518343, -13684.98965322848, -187500.02235174447, -187500.02235174447, -0.164, 0.8180000000000001, 0.496, 192.0, 0.0, 0.0, 0.0, 0.0, 0.0, 0.0, 0.0, 0.0, 0.0, 1.7297048869506297E9, 0.0, 2024-10-23 23:04:46.950
98.0, -44897.43499725282, -52730.71560033746, -40422.794571255996, -19688.444696479404, -13551.885014997128, -12291.403089928996, -187500.02235174447, -187500.02235174447, -0.164, 0.8180000000000001, 0.496, 192.0, 0.0, 0.0, 0.0, 0.0, 0.0, 0.0, 0.0, 0.0, 0.0, 1.7297048869545772E9, 0.0, 2024-10-23 23:04:46.954
99.0, -45838.2199213767, -54741.1209036256, -24616.669072707784, -20059.43895094859, -15256.20552971429, -14142.194586061787, -187500.02235174447, -187500.02235174447, -0.164, 0.8180000000000001, 0.496, 192.0, 0.0, 0.0, 0.0, 0.0, 0.0, 0.0, 0.0, 0.0, 0.0, 1.7297048869595876E9, 0.0, 2024-10-23 23:04:46.959
100.0, -47875.91670464477, -56489.3849479419, -12901.225733903138, -22129.769281121407, -17070.89895855176, -15868.039830689411, -187500.02235174447, -187500.02235174447, -0.164, 0.8180000000000001, 0.496, 192.0, 0.0, 0.0, 0.0, 0.0, 0.0, 0.0, 0.0, 0.0, 0.0, 1.7297048869646604E9, 0.0, 2024-10-23 23:04:46.964
101.0, -48006.607354474945, -55921.181252143535, -15871.28083363543, -22619.67481609283, -16676.12244798213, -15375.697955572363, -187500.02235174447, -187500.02235174447, -0.164, 0.8180000000000001, 0.496, 192.0, 0.0, 0.0, 0.0, 0.0, 0.0, 0.0, 0.0, 0.0, 0.0, 1.729704886968817E9, 0.0, 2024-10-23 23:04:46.968
102.0, -46872.613951279396, -54175.93469332871, -29814.52254230053, -21734.523383918215, -15100.6150365609, -13715.589191387797, -187500.02235174447, -187500.02235174447, -0.164, 0.8180000000000001, 0.496, 192.0, 0.0, 0.0, 0.0, 0.0, 0.0, 0.0, 0.0, 0.0, 0.0, 1.729704886971661E9, 0.0, 2024-10-23 23:04:46.971
103.0, -44916.25516608419, -52736.616460873665, -40531.58051151997, -19718.99953114981, -13548.621660306653, -12302.355444712097, -187500.02235174447, -187500.02235174447, -0.164, 0.8180000000000001, 0.496, 192.0, 0.0, 0.0, 0.0, 0.0, 0.0, 0.0, 0.0, 0.0, 0.0, 1.729704886975682E9, 0.0, 2024-10-23 23:04:46.975
104.0, -45798.031484846055, -54707.48152822036, -24871.16603507591, -20027.140680210672, -15219.749834507686, -14127.531841699105, -187500.02235174447, -187500.02235174447, -0.164, 0.8180000000000001, 0.496, 192.0, 0.0, 0.0, 0.0, 0.0, 0.0, 0.0, 0.0, 0.0, 0.0, 1.7297048869786928E9, 0.0, 2024-10-23 23:04:46.978
105.0, -47853.34144274491, -56484.020529272624, -12963.721211400178, -22109.205676222526, -17066.80858931644, -15883.909569252679, -187500.02235174447, -187500.02235174447, -0.164, 0.8180000000000001, 0.498, 192.0, 250.0, 224.0, 25.0, 144.0, 15.0, 144.0, 0.0, 0.0, 0.0, 1.729704886982732E9, 0.0, 2024-10-23 23:04:46.982
106.0, -48011.25651732165, -55938.861482007684, -15767.702849829539, -22623.56401962805, -16696.30607322527, -15410.253752500268, -187500.02235174447, -187500.02235174447, -0.164, 0.8180000000000001, 0.498, 192.0, 0.0, 0.0, 0.0, 0.0, 0.0, 0.0, 0.0, 0.0, 0.0, 1.7297048869876251E9, 0.0, 2024-10-23 23:04:46.987
107.0, -46901.58181209348, -54209.84228966741, -29605.489028154498, -21755.466968472836, -15118.250562936135, -13765.590043734319, -187500.02235174447, -187500.02235174447, -0.164, 0.8180000000000001, 0.498, 192.0, 0.0, 0.0, 0.0, 0.0, 0.0, 0.0, 0.0, 0.0, 0.0, 1.7297048869917088E9, 0.0, 2024-10-23 23:04:46.991
108.0, -44944.84304724253, -52748.418181946065, -40550.713604773715, -19747.028618696764, -13539.502148568887, -12323.120215311077, -187500.02235174447, -187500.02235174447, -0.164, 0.8180000000000001, 0.498, 192.0, 0.0, 0.0, 0.0, 0.0, 0.0, 0.0, 0.0, 0.0, 0.0, 1.729704886995726E9, 0.0, 2024-10-23 23:04:46.995
109.0, -45790.901278364814, -54695.14336528103, -25011.33382455514, -20019.854011518244, -15190.603159737964, -14114.254905492653, -187500.02235174447, -187500.02235174447, -0.164, 0.8180000000000001, 0.498, 192.0, 0.0, 0.0, 0.0, 0.0, 0.0, 0.0, 0.0, 0.0, 0.0, 1.7297048869997482E9, 0.0, 2024-10-23 23:04:46.999
110.0, -47857.18594279122, -56486.85920081845, -13040.275936159604, -22104.891789542653, -17050.17889144169, -15881.38382212923, -187500.02235174447, -187500.02235174447, -0.164, 0.8180000000000001, 0.498, 192.0, 0.0, 0.0, 0.0, 0.0, 0.0, 0.0, 0.0, 0.0, 0.0, 1.729704887003696E9, 0.0, 2024-10-23 23:04:47.003
111.0, -48035.73167750021, -55957.815761305785, -15822.0846440893, -22638.20441224628, -16695.143782513594, -15422.90483986197, -187500.02235174447, -187500.02235174447, -0.164, 0.8180000000000001, 0.498, 192.0, 0.0, 0.0, 0.0, 0.0, 0.0, 0.0, 0.0, 0.0, 0.0, 1.7297048870066493E9, 0.0, 2024-10-23 23:04:47.006
112.0, -46918.613841368424, -54228.08131314294, -29530.65538771813, -21769.436808757404, -15130.812243320019, -13782.890293942726, -187500.02235174447, -187500.02235174447, -0.164, 0.8180000000000001, 0.498, 192.0, 0.0, 0.0, 0.0, 0.0, 0.0, 0.0, 0.0, 0.0, 0.0, 1.7297048870106015E9, 0.0, 2024-10-23 23:04:47.010
113.0, -44949.671024044874, -52742.15969349858, -40607.33057347901, -19756.19283392344, -13558.054096466793, -12324.170747300477, -187500.02235174447, -187500.02235174447, -0.164, 0.8180000000000001, 0.498, 192.0, 0.0, 0.0, 0.0, 0.0, 0.0, 0.0, 0.0, 0.0, 0.0, 1.7297048870156376E9, 0.0, 2024-10-23 23:04:47.015
114.0, -45783.078167805455, -54682.44757443042, -25175.8426637462, -20021.239819674473, -15207.590485523999, -14119.954600328756, -187500.02235174447, -187500.02235174447, -0.164, 0.8180000000000001, 0.498, 192.0, 0.0, 0.0, 0.0, 0.0, 0.0, 0.0, 0.0, 0.0, 0.0, 1.7297048870198216E9, 0.0, 2024-10-23 23:04:47.019
115.0, -47841.5397216725, -56479.46077340374, -13075.010547043152, -22104.62356860919, -17051.05060947545, -15890.168057700164, -187500.02235174447, -187500.02235174447, -0.17, 0.8240000000000001, 0.502, 192.0, 250.0, 176.0, 25.0, 192.0, 15.0, 176.0, 0.0, 0.0, 0.0, 1.7297048870236888E9, 0.0, 2024-10-23 23:04:47.023
116.0, -48037.83274147901, -55971.718546356984, -15675.300738251299, -22653.738874642717, -16716.087367068216, -15445.81537792866, -187500.02235174447, -187500.02235174447, -0.17, 0.8240000000000001, 0.502, 192.0, 0.0, 0.0, 0.0, 0.0, 0.0, 0.0, 0.0, 0.0, 0.0, 1.7297048870277388E9, 0.0, 2024-10-23 23:04:47.027
117.0, -46923.28535595958, -54240.30771735999, -29278.728875962363, -21784.524236264737, -15145.13971151587, -13793.462669070086, -187500.02235174447, -187500.02235174447, -0.17, 0.8240000000000001, 0.502, 192.0, 0.0, 0.0, 0.0, 0.0, 0.0, 0.0, 0.0, 0.0, 0.0, 1.729704887030796E9, 0.0, 2024-10-23 23:04:47.030
118.0, -44933.08602965904, -52709.704960549476, -40720.653917867414, -19757.04220021274, -13515.116395368148, -12279.489610134318, -187500.02235174447, -187500.02235174447, -0.17, 0.8240000000000001, 0.502, 192.0, 0.0, 0.0, 0.0, 0.0, 0.0, 0.0, 0.0, 0.0, 0.0, 1.7297048870347857E9, 0.0, 2024-10-23 23:04:47.034
119.0, -45731.199768924685, -54635.64302154101, -25448.399835634213, -19980.559644765814, -15140.624659135898, -14052.184111140265, -187500.02235174447, -187500.02235174447, -0.17, 0.8240000000000001, 0.502, 192.0, 0.0, 0.0, 0.0, 0.0, 0.0, 0.0, 0.0, 0.0, 0.0, 1.7297048870388207E9, 0.0, 2024-10-23 23:04:47.038
120.0, -47837.58346290392, -56490.79310784258, -13152.928728214352, -22089.044402723837, -17052.391714142766, -15874.14185692571, -187500.02235174447, -187500.02235174447, -0.17, 0.8240000000000001, 0.502, 192.0, 0.0, 0.0, 0.0, 0.0, 0.0, 0.0, 0.0, 0.0, 0.0, 1.7297048870436816E9, 0.0, 2024-10-23 23:04:47.043
121.0, -48070.42158489485, -56008.643628197155, -15593.023966911313, -22673.453113252297, -16744.094102870717, -15458.824093201649, -187500.02235174447, -187500.02235174447, -0.17, 0.8240000000000001, 0.502, 192.0, 0.0, 0.0, 0.0, 0.0, 0.0, 0.0, 0.0, 0.0, 0.0, 1.729704887047672E9, 0.0, 2024-10-23 23:04:47.047
122.0, -46936.27171948811, -54251.952976221204, -29113.23656001527, -21792.436753801914, -15162.976403591205, -13792.859171969792, -187500.02235174447, -187500.02235174447, -0.17, 0.8240000000000001, 0.502, 192.0, 0.0, 0.0, 0.0, 0.0, 0.0, 0.0, 0.0, 0.0, 0.0, 1.7297048870516489E9, 0.0, 2024-10-23 23:04:47.051
123.0, -44928.45921855679, -52686.39209108259, -40685.29345813912, -19750.24726989833, -13511.562467999753, -12260.691793047405, -187500.02235174447, -187500.02235174447, -0.17, 0.8240000000000001, 0.502, 192.0, 0.0, 0.0, 0.0, 0.0, 0.0, 0.0, 0.0, 0.0, 0.0, 1.7297048870556755E9, 0.0, 2024-10-23 23:04:47.055
124.0, -45723.153140920775, -54616.93461143191, -25539.90787743424, -19967.975612637474, -15131.214574720214, -14042.97519242468, -187500.02235174447, -187500.02235174447, -0.17, 0.8240000000000001, 0.502, 192.0, 0.0, 0.0, 0.0, 0.0, 0.0, 0.0, 0.0, 0.0, 0.0, 1.729704887060215E9, 0.0, 2024-10-23 23:04:47.060
125.0, -47842.187922261706, -56494.95053231127, -13220.609810425021, -22095.50405687142, -17060.90772878024, -15899.935770027134, -187500.02235174447, -187500.02235174447, -0.158, 0.8160000000000001, 0.502, 192.0, 251.0, 16.0, 25.0, 128.0, 15.0, 176.0, 0.0, 0.0, 0.0, 1.7297048870626972E9, 0.0, 2024-10-23 23:04:47.062
126.0, -48072.388538406914, -56014.54448873335, -15595.505010545852, -22677.81170342108, -16750.5537570183, -15491.16706742848, -187500.02235174447, -187500.02235174447, -0.158, 0.8160000000000001, 0.502, 192.0, 0.0, 0.0, 0.0, 0.0, 0.0, 0.0, 0.0, 0.0, 0.0, 1.7297048870668175E9, 0.0, 2024-10-23 23:04:47.066
127.0, -46932.114295019426, -54256.3562698789, -28994.057058579572, -21787.094686877095, -15163.423438480311, -13823.59282059584, -187500.02235174447, -187500.02235174447, -0.158, 0.8160000000000001, 0.502, 192.0, 0.0, 0.0, 0.0, 0.0, 0.0, 0.0, 0.0, 0.0, 0.0, 1.7297048870707357E9, 0.0, 2024-10-23 23:04:47.070
128.0, -44921.53017777565, -52676.825544455714, -40702.79487404763, -19746.53688031875, -13499.827802160717, -12274.929854265434, -187500.02235174447, -187500.02235174447, -0.158, 0.8160000000000001, 0.502, 192.0, 0.0, 0.0, 0.0, 0.0, 0.0, 0.0, 0.0, 0.0, 0.0, 1.7297048870758595E9, 0.0, 2024-10-23 23:04:47.075
129.0, -45700.644934254284, -54596.549820488675, -25677.19229187874, -19947.74728390542, -15122.966781016206, -14053.34640185194, -187500.02235174447, -187500.02235174447, -0.158, 0.8160000000000001, 0.502, 192.0, 0.0, 0.0, 0.0, 0.0, 0.0, 0.0, 0.0, 0.0, 0.0, 1.7297048870798776E9, 0.0, 2024-10-23 23:04:47.079
130.0, -47829.872111066834, -56488.58028514151, -13299.600875330076, -22081.13188518666, -17067.993231772572, -15922.9580668161, -187500.02235174447, -187500.02235174447, -0.158, 0.8160000000000001, 0.502, 192.0, 0.0, 0.0, 0.0, 0.0, 0.0, 0.0, 0.0, 0.0, 0.0, 1.729704887083938E9, 0.0, 2024-10-23 23:04:47.083
