%OpenBCI Raw EXG Data
%Number of channels = 8
%Sample Rate = 250 Hz
%Board = OpenBCI_GUI$BoardCytonSerial
Sample Index, EXG Channel 0, EXG Channel 1, EXG Channel 2, EXG Channel 3, EXG Channel 4, EXG Channel 5, EXG Channel 6, EXG Channel 7, Accel Channel 0, Accel Channel 1, Accel Channel 2, Other, Other, Other, Other, Other, Other, Other, Analog Channel 0, Analog Channel 1, Analog Channel 2, Timestamp, Other, Timestamp (Formatted)
0.0, 0.0, 0.0, 0.0, 0.0, 0.0, 0.0, 0.0, 0.0, 0.116, 0.9580000000000001, 0.184, 192.0, 3.0, 160.0, 29.0, 240.0, 5.0, 192.0, 0.0, 0.0, 0.0, 1.729710373900947E9, 0.0, 2024-10-24 00:36:13.900
1.0, -59090.41274671707, -61183.96653937895, -61344.34030584578, -65707.60198922182, -68456.75479850231, -58760.970385190296, -21012.785555456347, 8643.821912267436, 0.116, 0.9580000000000001, 0.184, 192.0, 0.0, 0.0, 0.0, 0.0, 0.0, 0.0, 0.0, 0.0, 0.0, 1.7297103739189875E9, 0.0, 2024-10-24 00:36:13.918
2.0, -59088.31168273827, -61173.6400334406, -61332.024494650905, -65694.61562569329, -68447.94821118691, -58750.129789129474, -21283.286366854474, 8348.600071501742, 0.116, 0.9580000000000001, 0.184, 192.0, 0.0, 0.0, 0.0, 0.0, 0.0, 0.0, 0.0, 0.0, 0.0, 1.7297103739220245E9, 0.0, 2024-10-24 00:36:13.922
3.0, -59072.37488894164, -61165.74986764787, -61318.00995087743, -65694.16859080417, -68451.0104001773, -58766.290100370665, -21326.827565053412, 8315.988876341447, 0.116, 0.9580000000000001, 0.184, 192.0, 0.0, 0.0, 0.0, 0.0, 0.0, 0.0, 0.0, 0.0, 0.0, 1.729710373925032E9, 0.0, 2024-10-24 00:36:13.925
4.0, -59080.42151694555, -61182.08899284471, -61333.90204118515, -65711.46884101258, -68480.7158685584, -58789.60296983755, -21069.044896250358, 8597.665559967227, 0.116, 0.9580000000000001, 0.184, 192.0, 0.0, 0.0, 0.0, 0.0, 0.0, 0.0, 0.0, 0.0, 0.0, 1.729710373928972E9, 0.0, 2024-10-24 00:36:13.928
5.0, -59086.50119143739, -61193.93541740601, -61341.389875577675, -65713.81577418039, -68482.03462148126, -58787.479554114296, -20832.809309102217, 8839.623193695927, 0.116, 0.9580000000000001, 0.184, 192.0, 0.0, 0.0, 0.0, 0.0, 0.0, 0.0, 0.0, 0.0, 0.0, 1.729710373931956E9, 0.0, 2024-10-24 00:36:13.931
6.0, -59094.97250258595, -61185.50880974637, -61336.94187843107, -65698.10249782831, -68448.75287398731, -58765.84306548155, -21010.796250199826, 8624.621763780327, 0.116, 0.9580000000000001, 0.184, 192.0, 0.0, 0.0, 0.0, 0.0, 0.0, 0.0, 0.0, 0.0, 0.0, 1.729710373936596E9, 0.0, 2024-10-24 00:36:13.936
7.0, -59093.56434268527, -61174.82467589673, -61329.76696846092, -65686.03255582244, -68441.71207448389, -58748.47576003978, -21283.085201154376, 8326.158920068612, 0.116, 0.9580000000000001, 0.184, 192.0, 0.0, 0.0, 0.0, 0.0, 0.0, 0.0, 0.0, 0.0, 0.0, 1.7297103739399796E9, 0.0, 2024-10-24 00:36:13.939
8.0, -59066.31756619425, -61153.903443086565, -61312.77964267488, -65676.95774757359, -68448.75287398731, -58745.70414372732, -21342.160861749755, 8276.314529933277, 0.124, 0.96, 0.16, 192.0, 3.0, 224.0, 30.0, 0.0, 5.0, 0.0, 0.0, 0.0, 0.0, 1.7297103739448688E9, 0.0, 2024-10-24 00:36:13.944
9.0, -59071.61492963016, -61161.86066411265, -61327.24122133747, -65690.7040704136, -68474.25621441081, -58770.31341437262, -21096.068155296824, 8548.849350076836, 0.124, 0.96, 0.16, 192.0, 0.0, 0.0, 0.0, 0.0, 0.0, 0.0, 0.0, 0.0, 0.0, 1.7297103739480376E9, 0.0, 2024-10-24 00:36:13.948
10.0, -59104.851973635195, -61183.810077167764, -61353.10218967226, -65708.00432062201, -68495.35626117662, -58792.151068705454, -20844.74514064135, 8810.968257304223, 0.124, 0.96, 0.16, 192.0, 0.0, 0.0, 0.0, 0.0, 0.0, 0.0, 0.0, 0.0, 0.0, 1.7297103739594607E9, 0.0, 2024-10-24 00:36:13.959
11.0, -59101.61097068918, -61171.29310027279, -61345.659058768644, -65687.06073606739, -68467.59539456313, -58761.529178801684, -21017.0100351584, 8602.068853624924, 0.124, 0.96, 0.16, 192.0, 0.0, 0.0, 0.0, 0.0, 0.0, 0.0, 0.0, 0.0, 0.0, 1.7297103739594822E9, 0.0, 2024-10-24 00:36:13.959
12.0, -59091.910313595574, -61157.8373501107, -61334.01379990743, -65674.43200045014, -68450.31749609917, -58740.36207680251, -21308.230913666597, 8284.361157937188, 0.124, 0.96, 0.16, 192.0, 0.0, 0.0, 0.0, 0.0, 0.0, 0.0, 0.0, 0.0, 0.0, 1.7297103739594915E9, 0.0, 2024-10-24 00:36:13.959
13.0, -59070.11736275165, -61148.20374825046, -61324.402549791645, -65678.41061096318, -68460.19696714843, -58755.13657988746, -21334.31539944594, 8269.564303107774, 0.124, 0.96, 0.16, 192.0, 0.0, 0.0, 0.0, 0.0, 0.0, 0.0, 0.0, 0.0, 0.0, 1.7297103739709053E9, 0.0, 2024-10-24 00:36:13.970
14.0, -59083.28254023583, -61167.046268826285, -61344.049733167856, -65703.06458509738, -68488.80720005122, -58791.0781849716, -21068.59786136125, 8558.393544959254, 0.124, 0.96, 0.16, 192.0, 0.0, 0.0, 0.0, 0.0, 0.0, 0.0, 0.0, 0.0, 0.0, 1.7297103739709313E9, 0.0, 2024-10-24 00:36:13.970
15.0, -59093.8996188521, -61178.713879431954, -61353.12454141671, -65713.14522184673, -68490.90826403002, -58799.59419960907, -20858.580870459184, 8775.026652220089, 0.124, 0.96, 0.16, 192.0, 0.0, 0.0, 0.0, 0.0, 0.0, 0.0, 0.0, 0.0, 0.0, 1.729710373972011E9, 0.0, 2024-10-24 00:36:13.972
16.0, -59094.61487467467, -61171.44956248398, -61347.76012274744, -65697.8119251504, -68466.03077245125, -58767.43003933788, -21033.907953966613, 8565.45669620713, 0.124, 0.96, 0.16, 192.0, 0.0, 0.0, 0.0, 0.0, 0.0, 0.0, 0.0, 0.0, 0.0, 1.729710373975986E9, 0.0, 2024-10-24 00:36:13.975
17.0, -59078.96865355595, -61158.0385158108, -61334.23731735198, -65682.97036683207, -68451.05510366621, -58744.541853015646, -21307.89563749977, 8265.988023994925, 0.124, 0.96, 0.16, 192.0, 0.0, 0.0, 0.0, 0.0, 0.0, 0.0, 0.0, 0.0, 0.0, 1.7297103739799736E9, 0.0, 2024-10-24 00:36:13.979
18.0, -59057.242757945394, -61143.889861570584, -61319.03813112237, -65681.76337263148, -68459.79463574823, -58759.562225289614, -21370.636984185814, 8212.3885407911, 0.124, 0.968, 0.14400000000000002, 192.0, 3.0, 224.0, 30.0, 64.0, 4.0, 128.0, 0.0, 0.0, 0.0, 1.729710373984075E9, 0.0, 2024-10-24 00:36:13.984
19.0, -59070.07265926274, -61163.24647226888, -61336.24897435296, -65706.57380897687, -68491.44470589694, -58793.268655928216, -21099.152696031655, 8509.219707157577, 0.124, 0.968, 0.14400000000000002, 192.0, 0.0, 0.0, 0.0, 0.0, 0.0, 0.0, 0.0, 0.0, 0.0, 1.7297103739896421E9, 0.0, 2024-10-24 00:36:13.989
20.0, -59082.03084254633, -61171.382507250615, -61343.222718623016, -65712.20644857961, -68487.17552270598, -58794.49800187326, -20902.65851052505, 8714.29696253502, 0.124, 0.968, 0.14400000000000002, 192.0, 0.0, 0.0, 0.0, 0.0, 0.0, 0.0, 0.0, 0.0, 0.0, 1.7297103739920478E9, 0.0, 2024-10-24 00:36:13.992
21.0, -59101.67802592254, -61175.83050439722, -61349.078875670304, -65711.69235845713, -68476.53609234525, -58784.01503372372, -21099.532675687395, 8482.174096366656, 0.124, 0.968, 0.14400000000000002, 192.0, 0.0, 0.0, 0.0, 0.0, 0.0, 0.0, 0.0, 0.0, 0.0, 1.7297103739963634E9, 0.0, 2024-10-24 00:36:13.996
22.0, -59083.036671046815, -61158.083219299704, -61336.24897435296, -65698.34836701732, -68465.94136547344, -58771.945091717855, -21359.192891024697, 8197.524630728321, 0.124, 0.968, 0.14400000000000002, 192.0, 0.0, 0.0, 0.0, 0.0, 0.0, 0.0, 0.0, 0.0, 0.0, 1.7297103740001636E9, 0.0, 2024-10-24 00:36:14.000
23.0, -59054.13586546611, -61144.26984122633, -61321.22860207899, -65697.23077979455, -68474.99382197784, -58788.06069947013, -21413.462926562184, 8154.18459822948, 0.124, 0.968, 0.14400000000000002, 192.0, 0.0, 0.0, 0.0, 0.0, 0.0, 0.0, 0.0, 0.0, 0.0, 1.7297103740042336E9, 0.0, 2024-10-24 00:36:14.004
24.0, -59076.37585119914, -61175.76344916385, -61344.18384363459, -65726.39980630873, -68503.84992406964, -58816.40271143946, -21166.029115441932, 8428.261688740455, 0.124, 0.968, 0.14400000000000002, 192.0, 0.0, 0.0, 0.0, 0.0, 0.0, 0.0, 0.0, 0.0, 0.0, 1.7297103740081055E9, 0.0, 2024-10-24 00:36:14.008
25.0, -59114.84320340672, -61211.30272284779, -61376.45976262805, -65755.70294328964, -68530.2249825269, -58842.621307685535, -20936.566106863753, 8667.2465404566, 0.124, 0.968, 0.14400000000000002, 192.0, 0.0, 0.0, 0.0, 0.0, 0.0, 0.0, 0.0, 0.0, 0.0, 1.7297103740122125E9, 0.0, 2024-10-24 00:36:14.012
26.0, -59118.21831681947, -61206.56415302327, -61370.31303290284, -65742.94009720566, -68501.19006647945, -58816.51447016174, -21080.019602777913, 8487.471459802564, 0.124, 0.968, 0.14400000000000002, 192.0, 0.0, 0.0, 0.0, 0.0, 0.0, 0.0, 0.0, 0.0, 0.0, 1.7297103740194669E9, 0.0, 2024-10-24 00:36:14.019
27.0, -59103.667331179066, -61187.319301047246, -61353.906852472646, -65716.78855619294, -68472.0657434542, -58784.75264129075, -21350.85569034287, 8191.646121936575, 0.124, 0.968, 0.14400000000000002, 192.0, 0.0, 0.0, 0.0, 0.0, 0.0, 0.0, 0.0, 0.0, 0.0, 1.729710374019811E9, 0.0, 2024-10-24 00:36:14.019
28.0, -59080.175647756536, -61173.2377020404, -61339.55703253234, -65707.17730607717, -68475.9102435005, -58783.9256267459, -21397.90611242129, 8156.911511053027, 0.124, 0.968, 0.136, 192.0, 3.0, 224.0, 30.0, 64.0, 4.0, 64.0, 0.0, 0.0, 0.0, 1.7297103740241048E9, 0.0, 2024-10-24 00:36:14.024
29.0, -59093.47493570745, -61194.583617995224, -61358.04192519688, -65724.90223943022, -68503.42524092499, -58806.92557179041, -21145.800786709882, 8432.709685887061, 0.124, 0.968, 0.136, 192.0, 0.0, 0.0, 0.0, 0.0, 0.0, 0.0, 0.0, 0.0, 0.0, 1.729710374028038E9, 0.0, 2024-10-24 00:36:14.028
30.0, -59117.10072959671, -61212.50971704838, -61376.0350794834, -65733.95469593462, -68510.91307531751, -58811.77590033721, -20932.72160681744, 8654.394287394796, 0.124, 0.968, 0.136, 192.0, 0.0, 0.0, 0.0, 0.0, 0.0, 0.0, 0.0, 0.0, 0.0, 1.72971037404393E9, 0.0, 2024-10-24 00:36:14.043
31.0, -59115.11142434018, -61198.80809769727, -61369.32955614681, -65713.256980569, -68477.8101417792, -58779.81290576612, -21102.863085611236, 8449.428790739632, 0.124, 0.968, 0.136, 192.0, 0.0, 0.0, 0.0, 0.0, 0.0, 0.0, 0.0, 0.0, 0.0, 1.729710374043958E9, 0.0, 2024-10-24 00:36:14.043
32.0, -59103.08618582323, -61181.91017888906, -61357.97486996352, -65698.0130908505, -68464.86848173958, -58763.831408480575, -21378.37068776735, 8148.663717349019, 0.124, 0.968, 0.136, 192.0, 0.0, 0.0, 0.0, 0.0, 0.0, 0.0, 0.0, 0.0, 0.0, 1.729710374043972E9, 0.0, 2024-10-24 00:36:14.043
33.0, -59085.473011192444, -61169.14733280508, -61346.061390168834, -65694.0568320819, -68472.98216497686, -58768.324109116096, -21407.18208637024, 8129.977658984382, 0.124, 0.968, 0.136, 192.0, 0.0, 0.0, 0.0, 0.0, 0.0, 0.0, 0.0, 0.0, 0.0, 1.7297103740440564E9, 0.0, 2024-10-24 00:36:14.044
34.0, -59097.45354622049, -61187.29694930279, -61361.14881767617, -65714.37456779178, -68498.88783680055, -58792.218123938816, -21171.929975978135, 8389.23554292149, 0.124, 0.968, 0.136, 192.0, 0.0, 0.0, 0.0, 0.0, 0.0, 0.0, 0.0, 0.0, 0.0, 1.7297103740470352E9, 0.0, 2024-10-24 00:36:14.047
35.0, -59109.679950437545, -61207.32411233475, -61374.67162307163, -65733.37355057878, -68510.51074391732, -58810.09951950306, -20964.304621732786, 8604.84046993738, 0.124, 0.968, 0.136, 192.0, 0.0, 0.0, 0.0, 0.0, 0.0, 0.0, 0.0, 0.0, 0.0, 1.7297103740537436E9, 0.0, 2024-10-24 00:36:14.053
36.0, -59114.59733421771, -61200.05979538677, -61372.16822769264, -65722.53295451796, -68485.1191622161, -58791.32405416061, -21144.10205413128, 8390.598999333262, 0.124, 0.968, 0.136, 192.0, 0.0, 0.0, 0.0, 0.0, 0.0, 0.0, 0.0, 0.0, 0.0, 1.7297103740560813E9, 0.0, 2024-10-24 00:36:14.056
37.0, -59102.192116045015, -61178.11038233166, -61357.70664903005, -65701.34350077432, -68465.82960675115, -58766.51361781522, -21425.734034268145, 8084.134231106548, 0.124, 0.968, 0.136, 192.0, 0.0, 0.0, 0.0, 0.0, 0.0, 0.0, 0.0, 0.0, 0.0, 1.729710374060134E9, 0.0, 2024-10-24 00:36:14.060
38.0, -59080.26505473436, -61166.50982695936, -61342.21689012252, -65699.19773330662, -68470.4117143645, -58775.38726036397, -21457.987601517154, 8062.5200942182655, 0.124, 0.964, 0.134, 192.0, 3.0, 224.0, 30.0, 32.0, 4.0, 48.0, 0.0, 0.0, 0.0, 1.729710374064228E9, 0.0, 2024-10-24 00:36:14.064
39.0, -59092.73732814042, -61185.6429202131, -61360.4335618536, -65721.6165329953, -68499.40192692303, -58804.28806594468, -21209.43620317414, 8335.211376573012, 0.124, 0.964, 0.134, 192.0, 0.0, 0.0, 0.0, 0.0, 0.0, 0.0, 0.0, 0.0, 0.0, 1.7297103740680697E9, 0.0, 2024-10-24 00:36:14.068
40.0, -59110.50696498239, -61199.16572560856, -61376.348003905776, -65732.83710871186, -68508.05205202724, -58813.49698466027, -20987.416325499576, 8565.657861907228, 0.124, 0.964, 0.134, 192.0, 0.0, 0.0, 0.0, 0.0, 0.0, 0.0, 0.0, 0.0, 0.0, 1.729710374074443E9, 0.0, 2024-10-24 00:36:14.074
41.0, -59123.515680255376, -61194.225990083934, -61378.35966090675, -65723.73994871855, -68488.36016516211, -58796.46495538532, -21167.70549627608, 8352.779847714883, 0.124, 0.964, 0.134, 192.0, 0.0, 0.0, 0.0, 0.0, 0.0, 0.0, 0.0, 0.0, 0.0, 1.7297103740750873E9, 0.0, 2024-10-24 00:36:14.075
42.0, -59118.777110430856, -61180.949053877484, -61365.14977993367, -65709.97127413408, -68472.66924055449, -58779.499981343746, -21462.48030215267, 8036.145035761004, 0.124, 0.964, 0.134, 192.0, 0.0, 0.0, 0.0, 0.0, 0.0, 0.0, 0.0, 0.0, 0.0, 1.7297103740800917E9, 0.0, 2024-10-24 00:36:14.080
43.0, -59078.36515645566, -61163.29117575779, -61335.69018074158, -65700.3600240183, -68472.53513008775, -58780.01407146622, -21504.41217475083, 8005.813718535152, 0.124, 0.964, 0.134, 192.0, 0.0, 0.0, 0.0, 0.0, 0.0, 0.0, 0.0, 0.0, 0.0, 1.729710374084172E9, 0.0, 2024-10-24 00:36:14.084
44.0, -59090.256284505886, -61186.38052778012, -61350.71055301554, -65724.79048070795, -68494.52924663178, -58813.27346721572, -21252.82093916189, 8282.237742213934, 0.124, 0.964, 0.134, 192.0, 0.0, 0.0, 0.0, 0.0, 0.0, 0.0, 0.0, 0.0, 0.0, 1.7297103740882819E9, 0.0, 2024-10-24 00:36:14.088
45.0, -59112.831546405745, -61206.58650476772, -61369.977756736014, -65740.43670182666, -68507.44855492694, -58829.478481945815, -21043.765073271403, 8499.183773897144, 0.124, 0.964, 0.134, 192.0, 0.0, 0.0, 0.0, 0.0, 0.0, 0.0, 0.0, 0.0, 0.0, 1.729710374094135E9, 0.0, 2024-10-24 00:36:14.094
46.0, -59127.784863446344, -61210.07337690275, -61376.2362451835, -65735.89929770223, -68490.23771169636, -58809.898353802964, -21213.839496831835, 8292.161916752091, 0.124, 0.964, 0.134, 192.0, 0.0, 0.0, 0.0, 0.0, 0.0, 0.0, 0.0, 0.0, 0.0, 1.7297103740971253E9, 0.0, 2024-10-24 00:36:14.097
47.0, -59114.574982473256, -61191.7449464494, -61355.42677109561, -65714.28516081395, -68455.16782464598, -58775.074335941594, -21495.426773479794, 7984.780727002708, 0.124, 0.964, 0.134, 192.0, 0.0, 0.0, 0.0, 0.0, 0.0, 0.0, 0.0, 0.0, 0.0, 1.7297103741011484E9, 0.0, 2024-10-24 00:36:14.101
48.0, -59085.65182514809, -61175.27171078583, -61338.12652088721, -65708.74192818903, -68464.98024046185, -58786.31726340262, -21546.209936882253, 7944.279366049692, 0.124, 0.962, 0.134, 192.0, 3.0, 224.0, 30.0, 16.0, 4.0, 48.0, 0.0, 0.0, 0.0, 1.7297103741044137E9, 0.0, 2024-10-24 00:36:14.104
49.0, -59103.84614513471, -61198.696338974994, -61360.970003720526, -65732.5688877784, -68495.53507513227, -58815.62040038352, -21298.239683895074, 8216.568317004243, 0.124, 0.962, 0.134, 192.0, 0.0, 0.0, 0.0, 0.0, 0.0, 0.0, 0.0, 0.0, 0.0, 1.729710374107302E9, 0.0, 2024-10-24 00:36:14.107
50.0, -59131.29408732583, -61217.67297001756, -61383.277044686925, -65740.8166814824, -68512.3212352182, -58806.05385375665, -21079.974899289, 8442.164473791656, 0.124, 0.962, 0.134, 192.0, 0.0, 0.0, 0.0, 0.0, 0.0, 0.0, 0.0, 0.0, 0.0, 1.7297103741121838E9, 0.0, 2024-10-24 00:36:14.112
51.0, -59139.05014265182, -61211.97327518145, -61383.50056213148, -65723.9634661631, -68488.47192388438, -58778.58355982108, -21239.611058188806, 8246.854930741183, 0.124, 0.962, 0.134, 192.0, 0.0, 0.0, 0.0, 0.0, 0.0, 0.0, 0.0, 0.0, 0.0, 1.7297103741162312E9, 0.0, 2024-10-24 00:36:14.116
52.0, -59113.3009330393, -61185.86643765765, -61361.14881767617, -65698.32601527286, -68461.76158926029, -58759.13754214496, -21520.952465647755, 7940.993659614762, 0.124, 0.962, 0.134, 192.0, 0.0, 0.0, 0.0, 0.0, 0.0, 0.0, 0.0, 0.0, 0.0, 1.7297103741355414E9, 0.0, 2024-10-24 00:36:14.135
53.0, -59087.46231644897, -61175.51757997485, -61347.49190181398, -65693.96742510407, -68473.1162754436, -58763.898463713944, -21545.986419437697, 7926.286211763169, 0.124, 0.962, 0.134, 192.0, 0.0, 0.0, 0.0, 0.0, 0.0, 0.0, 0.0, 0.0, 0.0, 1.7297103741355698E9, 0.0, 2024-10-24 00:36:14.135
54.0, -59101.700377667, -61191.074394115734, -61366.15560843416, -65710.82064042338, -68498.06082225572, -58785.04321396867, -21301.190114163175, 8195.244752793878, 0.124, 0.962, 0.134, 192.0, 0.0, 0.0, 0.0, 0.0, 0.0, 0.0, 0.0, 0.0, 0.0, 1.7297103741355834E9, 0.0, 2024-10-24 00:36:14.135
55.0, -59127.89662216862, -61204.194868111, -61385.62397785473, -65723.1588033627, -68511.13659276206, -58798.43190889739, -21091.530751172395, 8412.436653666098, 0.124, 0.962, 0.134, 192.0, 0.0, 0.0, 0.0, 0.0, 0.0, 0.0, 0.0, 0.0, 0.0, 1.729710374135596E9, 0.0, 2024-10-24 00:36:14.135
56.0, -59138.22312810697, -61197.42228954104, -61384.305224931864, -65713.10051835782, -68496.00446176583, -58778.91883598791, -21285.990927933566, 8181.610188676142, 0.124, 0.962, 0.134, 192.0, 0.0, 0.0, 0.0, 0.0, 0.0, 0.0, 0.0, 0.0, 0.0, 1.729710374135609E9, 0.0, 2024-10-24 00:36:14.135
57.0, -59121.79459593232, -61180.68083294402, -61364.68039330011, -65698.41542225068, -68468.19889166343, -58761.48447531277, -21578.55291110908, 7862.784905765642, 0.124, 0.962, 0.134, 192.0, 0.0, 0.0, 0.0, 0.0, 0.0, 0.0, 0.0, 0.0, 0.0, 1.7297103741401937E9, 0.0, 2024-10-24 00:36:14.140
58.0, -59093.877267107644, -61168.20855953796, -61353.482169327996, -65698.8624571398, -68478.92772900197, -58774.672004541404, -21609.510077179682, 7841.684858999832, 0.116, 0.97, 0.136, 192.0, 3.0, 160.0, 30.0, 80.0, 4.0, 64.0, 0.0, 0.0, 0.0, 1.7297103741442096E9, 0.0, 2024-10-24 00:36:14.144
59.0, -59118.061854608284, -61190.672062715545, -61379.54430336288, -65723.53878301845, -68519.4737934439, -58805.80798456765, -21351.302725231973, 8124.434426359467, 0.116, 0.97, 0.136, 192.0, 0.0, 0.0, 0.0, 0.0, 0.0, 0.0, 0.0, 0.0, 0.0, 1.7297103741482077E9, 0.0, 2024-10-24 00:36:14.148
60.0, -59127.11431111268, -61199.903333175585, -61384.595797609785, -65727.1150621313, -68513.3717672076, -58807.26084795724, -21148.505347788974, 8336.552481240331, 0.116, 0.97, 0.136, 192.0, 0.0, 0.0, 0.0, 0.0, 0.0, 0.0, 0.0, 0.0, 0.0, 1.729710374152181E9, 0.0, 2024-10-24 00:36:14.152
61.0, -59135.36210481669, -61200.193905853506, -61380.86305628575, -65720.32013181689, -68489.03071749577, -58791.01112973823, -21320.613780094838, 8130.335286895667, 0.116, 0.97, 0.136, 192.0, 0.0, 0.0, 0.0, 0.0, 0.0, 0.0, 0.0, 0.0, 0.0, 1.729710374155176E9, 0.0, 2024-10-24 00:36:14.155
62.0, -59133.48455828245, -61196.77408895184, -61375.76685854994, -65717.68262597115, -68479.57592959117, -58787.41249888093, -21585.660765845867, 7842.958908433785, 0.116, 0.97, 0.136, 192.0, 0.0, 0.0, 0.0, 0.0, 0.0, 0.0, 0.0, 0.0, 0.0, 1.7297103741592393E9, 0.0, 2024-10-24 00:36:14.159
63.0, -59098.72759565444, -61179.38443176561, -61348.318916358825, -65707.55728573291, -68477.85484526811, -58789.558266348635, -21641.47307175077, 7799.149489301382, 0.116, 0.97, 0.136, 192.0, 0.0, 0.0, 0.0, 0.0, 0.0, 0.0, 0.0, 0.0, 0.0, 1.7297103741632063E9, 0.0, 2024-10-24 00:36:14.163
64.0, -59107.869459136666, -61199.277484330836, -61360.38885836469, -65727.3609313203, -68503.49229615835, -58810.07716775861, -21375.487312732617, 8091.2197340988805, 0.116, 0.97, 0.136, 192.0, 0.0, 0.0, 0.0, 0.0, 0.0, 0.0, 0.0, 0.0, 0.0, 1.7297103741671877E9, 0.0, 2024-10-24 00:36:14.167
65.0, -59136.50204378391, -61224.646714287606, -61379.5890068518, -65745.28703037347, -68517.39508120956, -58822.8847173315, -21154.80853972537, 8320.638039188152, 0.116, 0.97, 0.136, 192.0, 0.0, 0.0, 0.0, 0.0, 0.0, 0.0, 0.0, 0.0, 0.0, 1.7297103741721816E9, 0.0, 2024-10-24 00:36:14.172
66.0, -59154.45049458152, -61228.15593816709, -61381.39949815268, -65741.42017858269, -68492.69640358644, -58808.89252530248, -21335.924725046723, 8105.010760427805, 0.116, 0.97, 0.136, 192.0, 0.0, 0.0, 0.0, 0.0, 0.0, 0.0, 0.0, 0.0, 0.0, 1.7297103741762087E9, 0.0, 2024-10-24 00:36:14.176
67.0, -59136.61380250619, -61206.25122860089, -61361.39468686518, -65723.53878301845, -68469.00355446381, -58787.50190585875, -21621.535315696638, 7794.008588076662, 0.116, 0.97, 0.136, 192.0, 0.0, 0.0, 0.0, 0.0, 0.0, 0.0, 0.0, 0.0, 0.0, 1.7297103741802287E9, 0.0, 2024-10-24 00:36:14.180
68.0, -59108.29414228132, -61193.48838251691, -61343.60269827875, -65721.23655333955, -68475.57496733367, -58793.626283839505, -21674.352487844528, 7750.53444511109, 0.11800000000000001, 0.968, 0.136, 192.0, 3.0, 176.0, 30.0, 64.0, 4.0, 64.0, 0.0, 0.0, 0.0, 1.729710374184224E9, 0.0, 2024-10-24 00:36:14.184
69.0, -59120.69936045401, -61214.52137404936, -61360.92530023162, -65743.72240826159, -68503.49229615835, -58823.10823477605, -21438.876860007866, 8011.938096515906, 0.11800000000000001, 0.968, 0.136, 192.0, 0.0, 0.0, 0.0, 0.0, 0.0, 0.0, 0.0, 0.0, 0.0, 1.729710374187229E9, 0.0, 2024-10-24 00:36:14.187
70.0, -59154.02581143687, -61241.902261007104, -61389.33436743431, -65763.79427478246, -68527.38631098108, -58842.50954896326, -21224.38952021474, 8235.097913157691, 0.11800000000000001, 0.968, 0.136, 192.0, 0.0, 0.0, 0.0, 0.0, 0.0, 0.0, 0.0, 0.0, 0.0, 1.7297103741912384E9, 0.0, 2024-10-24 00:36:14.191
71.0, -59149.84603522373, -61234.36972312567, -61383.07587898683, -65744.43766408417, -68500.1618862345, -58807.797289824164, -21400.253045589096, 8025.103274000082, 0.11800000000000001, 0.968, 0.136, 192.0, 0.0, 0.0, 0.0, 0.0, 0.0, 0.0, 0.0, 0.0, 0.0, 1.7297103741952207E9, 0.0, 2024-10-24 00:36:14.195
72.0, -59135.85384319471, -61216.15305139459, -61371.11769570324, -65723.06939638489, -68477.49721735684, -58780.751679033245, -21675.291261111648, 7725.768712254609, 0.11800000000000001, 0.968, 0.136, 192.0, 0.0, 0.0, 0.0, 0.0, 0.0, 0.0, 0.0, 0.0, 0.0, 1.7297103742002485E9, 0.0, 2024-10-24 00:36:14.200
73.0, -59114.7537964289, -61201.11032737617, -61360.2323961535, -65718.04025388244, -68485.61090059411, -58785.04321396867, -21710.897590028955, 7700.377130553381, 0.11800000000000001, 0.968, 0.136, 192.0, 0.0, 0.0, 0.0, 0.0, 0.0, 0.0, 0.0, 0.0, 0.0, 1.729710374204278E9, 0.0, 2024-10-24 00:36:14.204
74.0, -59115.491403995926, -61212.554420537286, -61374.448105627074, -65733.8205854679, -68511.00248229534, -58808.42313866891, -21463.91081379781, 7972.509619296744, 0.11800000000000001, 0.968, 0.136, 192.0, 0.0, 0.0, 0.0, 0.0, 0.0, 0.0, 0.0, 0.0, 0.0, 1.7297103742082646E9, 0.0, 2024-10-24 00:36:14.208
75.0, -59136.36793331718, -61230.97225796846, -61392.39655642469, -65747.768074008, -68522.55833417873, -58819.71076961885, -21274.34566907235, 8171.887179838083, 0.11800000000000001, 0.968, 0.136, 192.0, 0.0, 0.0, 0.0, 0.0, 0.0, 0.0, 0.0, 0.0, 0.0, 1.7297103742112253E9, 0.0, 2024-10-24 00:36:14.211
76.0, -59147.767322989384, -61234.68264754804, -61396.66573961565, -65742.56011754992, -68503.78286883628, -58800.823545554114, -21440.374426886374, 7973.068412908127, 0.11800000000000001, 0.968, 0.136, 192.0, 0.0, 0.0, 0.0, 0.0, 0.0, 0.0, 0.0, 0.0, 0.0, 1.7297103742152672E9, 0.0, 2024-10-24 00:36:14.215
77.0, -59131.4058460481, -61217.382397339636, -61379.47724812952, -65725.17046036369, -68481.45347612542, -58779.76820227721, -21727.661398370434, 7662.580330679457, 0.11800000000000001, 0.968, 0.136, 192.0, 0.0, 0.0, 0.0, 0.0, 0.0, 0.0, 0.0, 0.0, 0.0, 1.7297103742192745E9, 0.0, 2024-10-24 00:36:14.219
78.0, -59101.007473588885, -61198.89750467509, -61354.44329433958, -65717.61557073779, -68489.63421459607, -58783.05390871214, -21775.7400006938, 7626.549318617502, 0.114, 0.966, 0.136, 192.0, 3.0, 144.0, 30.0, 48.0, 4.0, 64.0, 0.0, 0.0, 0.0, 1.7297103742232747E9, 0.0, 2024-10-24 00:36:14.223
79.0, -59116.31841854077, -61212.30855134828, -61370.35773639176, -65734.37937907927, -68516.99274980936, -58808.646656113466, -21541.471367057726, 7885.8966095324295, 0.114, 0.966, 0.136, 192.0, 0.0, 0.0, 0.0, 0.0, 0.0, 0.0, 0.0, 0.0, 0.0, 1.7297103742282624E9, 0.0, 2024-10-24 00:36:14.228
80.0, -59143.54284328734, -61232.760397524886, -61386.00395751047, -65746.56107980742, -68528.10156680364, -58818.25790622925, -21340.193908237685, 8095.198344611925, 0.114, 0.966, 0.136, 192.0, 0.0, 0.0, 0.0, 0.0, 0.0, 0.0, 0.0, 0.0, 0.0, 1.7297103742323344E9, 0.0, 2024-10-24 00:36:14.232
81.0, -59142.1570351311, -61222.43389158653, -61374.38105039371, -65728.23264935406, -68500.65362461253, -58791.592275094066, -21504.21100905073, 7895.75372883722, 0.114, 0.966, 0.136, 192.0, 0.0, 0.0, 0.0, 0.0, 0.0, 0.0, 0.0, 0.0, 0.0, 1.7297103742363057E9, 0.0, 2024-10-24 00:36:14.236
82.0, -59125.974372145465, -61203.90429543309, -61353.906852472646, -65707.46787875508, -68476.98312723436, -58762.40089683544, -21764.273555788226, 7610.500766098591, 0.114, 0.966, 0.136, 192.0, 0.0, 0.0, 0.0, 0.0, 0.0, 0.0, 0.0, 0.0, 0.0, 1.7297103742393122E9, 0.0, 2024-10-24 00:36:14.239
83.0, -59108.31649402577, -61193.26486507236, -61341.456930811044, -65707.26671305498, -68488.02488899528, -58776.50484758674, -21825.40557687349, 7560.566968985435, 0.114, 0.966, 0.136, 192.0, 0.0, 0.0, 0.0, 0.0, 0.0, 0.0, 0.0, 0.0, 0.0, 1.729710374243337E9, 0.0, 2024-10-24 00:36:14.243
84.0, -59122.48750001044, -61216.01894092786, -61359.09245718628, -65729.52905053247, -68516.67982538698, -58805.80798456765, -21558.12341667693, 7852.234882382737, 0.114, 0.966, 0.136, 192.0, 0.0, 0.0, 0.0, 0.0, 0.0, 0.0, 0.0, 0.0, 0.0, 1.7297103742473254E9, 0.0, 2024-10-24 00:36:14.247
85.0, -59131.56230825929, -61232.045141702314, -61367.36260263474, -65736.48044305807, -68519.31733123271, -58814.41340618294, -21327.40871040925, 8090.504478276311, 0.114, 0.966, 0.136, 192.0, 0.0, 0.0, 0.0, 0.0, 0.0, 0.0, 0.0, 0.0, 0.0, 1.729710374251345E9, 0.0, 2024-10-24 00:36:14.251
86.0, -59135.16093911659, -61226.054874188296, -61361.66290779864, -65724.52225977449, -68497.54673213324, -58794.453298384346, -21505.84268639597, 7877.93938850634, 0.114, 0.966, 0.136, 192.0, 0.0, 0.0, 0.0, 0.0, 0.0, 0.0, 0.0, 0.0, 0.0, 1.7297103742563655E9, 0.0, 2024-10-24 00:36:14.256
87.0, -59125.1026541117, -61213.672007760055, -61353.30335537236, -65714.64278872524, -68484.09098197115, -58783.00920522323, -21791.11800087905, 7570.759364457055, 0.114, 0.966, 0.136, 192.0, 0.0, 0.0, 0.0, 0.0, 0.0, 0.0, 0.0, 0.0, 0.0, 1.729710374260385E9, 0.0, 2024-10-24 00:36:14.260
88.0, -59114.53027898435, -61208.10642339068, -61347.42484658061, -65720.3648353058, -68488.87425528458, -58798.14133621947, -21827.46193736338, 7548.608785701846, 0.112, 0.968, 0.134, 192.0, 3.0, 128.0, 30.0, 64.0, 4.0, 48.0, 0.0, 0.0, 0.0, 1.7297103742643347E9, 0.0, 2024-10-24 00:36:14.264
89.0, -59122.62161047717, -61223.395016598115, -61363.04871595487, -65739.52028030399, -68518.04328179876, -58823.465862687335, -21588.36532692496, 7814.63924820891, 0.112, 0.968, 0.134, 192.0, 0.0, 0.0, 0.0, 0.0, 0.0, 0.0, 0.0, 0.0, 0.0, 1.7297103742673333E9, 0.0, 2024-10-24 00:36:14.267
90.0, -59123.582735488744, -61225.83135674374, -61366.17796017861, -65737.62038202528, -68520.18904926647, -58822.95177256486, -21388.65249021679, 8023.628058866032, 0.112, 0.968, 0.134, 192.0, 0.0, 0.0, 0.0, 0.0, 0.0, 0.0, 0.0, 0.0, 0.0, 1.729710374271313E9, 0.0, 2024-10-24 00:36:14.271
91.0, -59133.0598751378, -61216.75654849489, -61366.64734681218, -65723.78465220745, -68498.418450167, -58799.21421995333, -21582.777390811134, 7794.925009599329, 0.112, 0.968, 0.134, 192.0, 0.0, 0.0, 0.0, 0.0, 0.0, 0.0, 0.0, 0.0, 0.0, 1.729710374275321E9, 0.0, 2024-10-24 00:36:14.275
92.0, -59134.31157282729, -61211.68270250353, -61366.3344223898, -65719.69428297214, -68488.38251690657, -58790.16176344893, -21849.433702162947, 7503.212392713117, 0.112, 0.968, 0.134, 192.0, 0.0, 0.0, 0.0, 0.0, 0.0, 0.0, 0.0, 0.0, 0.0, 1.729710374279359E9, 0.0, 2024-10-24 00:36:14.279
93.0, -59114.99966561791, -61195.768260451354, -61356.25378564046, -65718.53199226045, -68492.60699660862, -58803.63986535548, -21890.33739451616, 7472.6575580427125, 0.112, 0.968, 0.134, 192.0, 0.0, 0.0, 0.0, 0.0, 0.0, 0.0, 0.0, 0.0, 0.0, 1.7297103742833824E9, 0.0, 2024-10-24 00:36:14.283
94.0, -59127.650752979614, -61210.028673413835, -61374.895140516186, -65739.9673151931, -68520.99371206686, -58834.664086659446, -21645.496385752725, 7741.079657206495, 0.112, 0.968, 0.134, 192.0, 0.0, 0.0, 0.0, 0.0, 0.0, 0.0, 0.0, 0.0, 0.0, 1.7297103742883687E9, 0.0, 2024-10-24 00:36:14.288
95.0, -59151.36595384669, -61229.474691089956, -61397.313940204855, -65751.05378044293, -68535.25412502934, -58830.50666219076, -21446.945839756234, 7946.827464917596, 0.112, 0.968, 0.134, 192.0, 0.0, 0.0, 0.0, 0.0, 0.0, 0.0, 0.0, 0.0, 0.0, 1.7297103742924223E9, 0.0, 2024-10-24 00:36:14.292
96.0, -59157.289166127346, -61223.819699742766, -61399.16913499465, -65739.43087332617, -68513.28236022977, -58806.83616481259, -21636.689798437335, 7721.857156974931, 0.112, 0.968, 0.134, 192.0, 0.0, 0.0, 0.0, 0.0, 0.0, 0.0, 0.0, 0.0, 0.0, 1.7297103742954443E9, 0.0, 2024-10-24 00:36:14.295
97.0, -59148.124950900674, -61212.8002897263, -61386.45099239958, -65729.64080925475, -68498.664319356, -58793.73804256178, -21893.556045717723, 7440.582804749347, 0.112, 0.968, 0.134, 192.0, 0.0, 0.0, 0.0, 0.0, 0.0, 0.0, 0.0, 0.0, 0.0, 1.7297103743004313E9, 0.0, 2024-10-24 00:36:14.300
98.0, -59133.5069100269, -61203.70312973299, -61377.19737019508, -65731.518355789, -68513.39411895206, -58800.823545554114, -21913.918484916507, 7433.229080823551, 0.116, 0.97, 0.134, 192.0, 3.0, 160.0, 30.0, 80.0, 4.0, 48.0, 0.0, 0.0, 0.0, 1.7297103743054998E9, 0.0, 2024-10-24 00:36:14.305
99.0, -59131.51760477038, -61204.55249602229, -61375.90096901667, -65736.39103608025, -68524.27941850178, -58808.95958053584, -21688.210569406816, 7686.228476313171, 0.116, 0.97, 0.134, 192.0, 0.0, 0.0, 0.0, 0.0, 0.0, 0.0, 0.0, 0.0, 0.0, 1.729710374308421E9, 0.0, 2024-10-24 00:36:14.308
100.0, -59157.42327659408, -61222.43389158653, -61395.41404192615, -65749.60091705334, -68535.49999421835, -58822.66119988695, -21484.161494274318, 7899.106490505516, 0.116, 0.97, 0.134, 192.0, 0.0, 0.0, 0.0, 0.0, 0.0, 0.0, 0.0, 0.0, 0.0, 1.729710374311515E9, 0.0, 2024-10-24 00:36:14.311
101.0, -59161.9159772296, -61214.47667056044, -61390.183733723614, -65734.28997210145, -68503.58170313618, -58796.487307129784, -21665.367086573493, 7683.322749533982, 0.116, 0.97, 0.134, 192.0, 0.0, 0.0, 0.0, 0.0, 0.0, 0.0, 0.0, 0.0, 0.0, 1.7297103743165643E9, 0.0, 2024-10-24 00:36:14.316
102.0, -59149.46605556799, -61200.48447853142, -61375.34217540529, -65716.87796317077, -68482.43695288146, -58773.8226382521, -21953.92810749151, 7371.65002484918, 0.116, 0.97, 0.134, 192.0, 0.0, 0.0, 0.0, 0.0, 0.0, 0.0, 0.0, 0.0, 0.0, 1.7297103743204548E9, 0.0, 2024-10-24 00:36:14.320
103.0, -59118.17361333056, -61184.525332990335, -61353.906852472646, -65707.66904445518, -68487.68961282846, -58778.33769063207, -22014.769555898853, 7326.074817904809, 0.116, 0.97, 0.134, 192.0, 0.0, 0.0, 0.0, 0.0, 0.0, 0.0, 0.0, 0.0, 0.0, 1.7297103743235064E9, 0.0, 2024-10-24 00:36:14.323
104.0, -59134.13275887165, -61208.68756874652, -61375.69980331657, -65733.55236453442, -68525.12878479109, -58816.760339350745, -21764.899404632975, 7603.683484039722, 0.116, 0.97, 0.134, 192.0, 0.0, 0.0, 0.0, 0.0, 0.0, 0.0, 0.0, 0.0, 0.0, 1.7297103743274302E9, 0.0, 2024-10-24 00:36:14.327
105.0, -59157.04329693834, -61228.53591782283, -61391.3907279242, -65745.80112049593, -68529.1744505375, -58831.35602848006, -21548.422759583325, 7829.16788210486, 0.116, 0.97, 0.134, 192.0, 0.0, 0.0, 0.0, 0.0, 0.0, 0.0, 0.0, 0.0, 0.0, 1.729710374331478E9, 0.0, 2024-10-24 00:36:14.331
106.0, -59152.37178234718, -61219.326999107245, -61376.95150100607, -65723.38232080726, -68498.39609842254, -58790.72055706031, -21728.48841291528, 7615.5299086010355, 0.116, 0.97, 0.134, 192.0, 0.0, 0.0, 0.0, 0.0, 0.0, 0.0, 0.0, 0.0, 0.0, 1.7297103743354578E9, 0.0, 2024-10-24 00:36:14.335
107.0, -59135.831491450255, -61199.38924305311, -61356.74552401847, -65701.2093903076, -68479.97826099137, -58766.848893982045, -22014.07665182074, 7306.405282784139, 0.116, 0.97, 0.134, 192.0, 0.0, 0.0, 0.0, 0.0, 0.0, 0.0, 0.0, 0.0, 0.0, 1.7297103743395884E9, 0.0, 2024-10-24 00:36:14.339
108.0, -59117.927744141554, -61189.01803362585, -61344.78734073488, -65700.00239610701, -68492.91992103099, -58780.326995888594, -22045.45850103599, 7288.3450732642505, 0.116, 0.97, 0.134, 192.0, 0.0, 0.0, 0.0, 0.0, 0.0, 0.0, 0.0, 0.0, 0.0, 1.7297103743445904E9, 0.0, 2024-10-24 00:36:14.344
109.0, -59138.78192171836, -61208.88873444662, -61365.19448342258, -65720.8118701949, -68521.97718882289, -58804.668045600425, -21785.753582209778, 7573.799201702977, 0.116, 0.968, 0.134, 192.0, 3.0, 160.0, 30.0, 64.0, 4.0, 48.0, 0.0, 0.0, 0.0, 1.7297103743486269E9, 0.0, 2024-10-24 00:36:14.348
110.0, -59155.92570971557, -61224.02086544286, -61381.8912365307, -65731.65246625572, -68533.01895058382, -58816.02273178372, -21555.821186998033, 7810.727692929232, 0.116, 0.968, 0.134, 192.0, 0.0, 0.0, 0.0, 0.0, 0.0, 0.0, 0.0, 0.0, 0.0, 1.7297103743515112E9, 0.0, 2024-10-24 00:36:14.351
111.0, -59146.314459599795, -61206.38533906762, -61367.876692757214, -65710.15008808972, -68498.93254028948, -58786.45137386935, -21748.604982925055, 7583.388100074304, 0.116, 0.968, 0.134, 192.0, 0.0, 0.0, 0.0, 0.0, 0.0, 0.0, 0.0, 0.0, 0.0, 1.7297103743554852E9, 0.0, 2024-10-24 00:36:14.355
112.0, -59126.68962796803, -61186.604045224674, -61354.68916352859, -65695.48734372704, -68485.18621744946, -58771.76627776221, -22032.807413674287, 7276.565703936304, 0.116, 0.968, 0.134, 192.0, 0.0, 0.0, 0.0, 0.0, 0.0, 0.0, 0.0, 0.0, 0.0, 1.729710374359714E9, 0.0, 2024-10-24 00:36:14.359
113.0, -59105.477822479945, -61177.50688523136, -61348.69889601456, -65703.1092885863, -68498.64196761155, -58794.74387106227, -22058.824844220264, 7263.892264830144, 0.116, 0.968, 0.134, 192.0, 0.0, 0.0, 0.0, 0.0, 0.0, 0.0, 0.0, 0.0, 0.0, 1.729710374363542E9, 0.0, 2024-10-24 00:36:14.363
114.0, -59108.96469461497, -61186.11230684666, -61361.57350082082, -65718.88962017174, -68518.08798528767, -58819.26373472974, -21852.719408597877, 7495.344578664849, 0.116, 0.968, 0.134, 192.0, 0.0, 0.0, 0.0, 0.0, 0.0, 0.0, 0.0, 0.0, 0.0, 1.729710374367643E9, 0.0, 2024-10-24 00:36:14.367
115.0, -59134.60214550521, -61207.05589140128, -61387.52387613343, -65738.2685826145, -68540.88676463209, -58833.92647909242, -21648.692685209833, 7707.060302145518, 0.116, 0.968, 0.134, 192.0, 0.0, 0.0, 0.0, 0.0, 0.0, 0.0, 0.0, 0.0, 0.0, 1.72971037437266E9, 0.0, 2024-10-24 00:36:14.372
116.0, -59143.922822943074, -61203.21139135497, -61388.86498080075, -65731.18307962216, -68522.55833417873, -58815.75451085025, -21816.576637813647, 7505.827546814388, 0.116, 0.968, 0.134, 192.0, 0.0, 0.0, 0.0, 0.0, 0.0, 0.0, 0.0, 0.0, 0.0, 1.7297103743768368E9, 0.0, 2024-10-24 00:36:14.376
117.0, -59160.12783767317, -61199.83627794222, -61392.82123956934, -65728.59027726535, -68512.54475266275, -58803.84103105558, -22104.444754653545, 7193.1936971180085, 0.116, 0.968, 0.134, 192.0, 0.0, 0.0, 0.0, 0.0, 0.0, 0.0, 0.0, 0.0, 0.0, 1.7297103743797312E9, 0.0, 2024-10-24 00:36:14.379
118.0, -59126.30964831229, -61177.439829998, -61370.961233492046, -65718.9119719162, -68515.11520327511, -58806.2326677123, -22143.895583617163, 7166.75158342738, 0.116, 0.968, 0.134, 192.0, 0.0, 0.0, 0.0, 0.0, 0.0, 0.0, 0.0, 0.0, 0.0, 1.7297103743836627E9, 0.0, 2024-10-24 00:36:14.383
119.0, -59118.95592438649, -61180.41261201056, -61373.17405619312, -65727.18211736466, -68535.7235116629, -58823.84584234308, -21891.253816038825, 7446.304851329905, 0.11800000000000001, 0.968, 0.138, 192.0, 3.0, 176.0, 30.0, 64.0, 4.0, 80.0, 0.0, 0.0, 0.0, 1.7297103743878124E9, 0.0, 2024-10-24 00:36:14.387
120.0, -59149.55546254581, -61206.050062900795, -61396.82220182684, -65744.95175420663, -68543.34545652216, -58837.994496583284, -21678.19698789084, 7668.056508071007, 0.11800000000000001, 0.968, 0.138, 192.0, 0.0, 0.0, 0.0, 0.0, 0.0, 0.0, 0.0, 0.0, 0.0, 1.729710374391754E9, 0.0, 2024-10-24 00:36:14.391
121.0, -59148.10259915622, -61198.45046978599, -61386.45099239958, -65728.4114633097, -68506.39802293754, -58808.95958053584, -21856.787426088744, 7454.396182822727, 0.11800000000000001, 0.968, 0.138, 192.0, 0.0, 0.0, 0.0, 0.0, 0.0, 0.0, 0.0, 0.0, 0.0, 1.7297103743956084E9, 0.0, 2024-10-24 00:36:14.395
122.0, -59135.51856702788, -61180.99375736639, -61370.335384647304, -65712.04998636842, -68488.33781341766, -58785.55730409113, -22137.793557380865, 7149.049001818777, 0.11800000000000001, 0.968, 0.138, 192.0, 0.0, 0.0, 0.0, 0.0, 0.0, 0.0, 0.0, 0.0, 0.0, 1.7297103744005437E9, 0.0, 2024-10-24 00:36:14.400
123.0, -59116.810156918786, -61170.175513050024, -61358.26544264144, -65711.04415786793, -68499.55838913422, -58795.14620246246, -22183.793447469885, 7116.750731080858, 0.11800000000000001, 0.968, 0.138, 192.0, 0.0, 0.0, 0.0, 0.0, 0.0, 0.0, 0.0, 0.0, 0.0, 1.729710374404644E9, 0.0, 2024-10-24 00:36:14.404
124.0, -59126.734331456944, -61190.046213870795, -61372.90583525966, -65730.7136929886, -68529.8226511267, -58819.82252834112, -21927.86597345662, 7399.656760651679, 0.11800000000000001, 0.968, 0.138, 192.0, 0.0, 0.0, 0.0, 0.0, 0.0, 0.0, 0.0, 0.0, 0.0, 1.7297103744076457E9, 0.0, 2024-10-24 00:36:14.407
125.0, -59148.99666893443, -61211.59329552571, -61390.02727151242, -65741.59899253833, -68541.87024138811, -58825.566926666135, -21709.265912683717, 7629.253879696594, 0.11800000000000001, 0.968, 0.138, 192.0, 0.0, 0.0, 0.0, 0.0, 0.0, 0.0, 0.0, 0.0, 0.0, 1.729710374411558E9, 0.0, 2024-10-24 00:36:14.411
126.0, -59144.481616554454, -61200.21625759796, -61375.655099827665, -65721.30360857291, -68509.1249357611, -58796.15203096295, -21901.42385976599, 7403.70242639809, 0.11800000000000001, 0.968, 0.138, 192.0, 0.0, 0.0, 0.0, 0.0, 0.0, 0.0, 0.0, 0.0, 0.0, 1.7297103744155865E9, 0.0, 2024-10-24 00:36:14.415
127.0, -59129.01420939138, -61186.64874871359, -61353.01278269444, -65702.21521880808, -68478.3689353906, -58772.794458007156, -22212.180162928125, 7073.053070670733, 0.11800000000000001, 0.968, 0.138, 192.0, 0.0, 0.0, 0.0, 0.0, 0.0, 0.0, 0.0, 0.0, 0.0, 1.729710374419709E9, 0.0, 2024-10-24 00:36:14.419
128.0, -59102.86266837868, -61171.360155506154, -61334.08085514079, -65695.88967512724, -68485.94617676093, -58775.74488827526, -22274.385067747244, 7025.466206725384, 0.11800000000000001, 0.968, 0.138, 192.0, 0.0, 0.0, 0.0, 0.0, 0.0, 0.0, 0.0, 0.0, 0.0, 1.72971037442367E9, 0.0, 2024-10-24 00:36:14.423
129.0, -59120.297029053814, -61187.76633593635, -61354.57740480631, -65715.73802420354, -68517.43978469846, -58799.773013564714, -22038.998846888408, 7288.3450732642505, 0.11800000000000001, 0.97, 0.134, 192.0, 3.0, 176.0, 30.0, 80.0, 4.0, 48.0, 0.0, 0.0, 0.0, 1.7297103744277122E9, 0.0, 2024-10-24 00:36:14.427
130.0, -59143.69930549852, -61201.82558319874, -61371.22945442551, -65724.5669632634, -68531.43197672749, -58807.57377237961, -21822.678664049945, 7514.276506218494, 0.11800000000000001, 0.97, 0.134, 192.0, 0.0, 0.0, 0.0, 0.0, 0.0, 0.0, 0.0, 0.0, 0.0, 1.7297103744326067E9, 0.0, 2024-10-24 00:36:14.432
131.0, -59150.1142561572, -61194.62832148413, -61367.34025089029, -65709.07720435587, -68500.81008682372, -58776.23662665327, -22009.092212807205, 7295.497631489949, 0.11800000000000001, 0.97, 0.134, 192.0, 0.0, 0.0, 0.0, 0.0, 0.0, 0.0, 0.0, 0.0, 0.0, 1.729710374435672E9, 0.0, 2024-10-24 00:36:14.435
132.0, -59140.570061274775, -61185.0394231128, -61357.192558907576, -65700.65059669621, -68480.89468251404, -58764.43490558087, -22284.21983530758, 6999.3146657126745, 0.11800000000000001, 0.97, 0.134, 192.0, 0.0, 0.0, 0.0, 0.0, 0.0, 0.0, 0.0, 0.0, 0.0, 1.7297103744397192E9, 0.0, 2024-10-24 00:36:14.439
133.0, -59117.05602610779, -61177.596292209186, -61344.876747712704, -65704.60685546481, -68497.68084259998, -58786.25020816925, -22310.03610015346, 6988.228200462842, 0.11800000000000001, 0.97, 0.134, 192.0, 0.0, 0.0, 0.0, 0.0, 0.0, 0.0, 0.0, 0.0, 0.0, 1.7297103744436152E9, 0.0, 2024-10-24 00:36:14.443
134.0, -59108.71882542597, -61178.44565849849, -61347.76012274744, -65709.45718401161, -68514.80227885275, -58802.34346417707, -22073.33112637176, 7251.330584446262, 0.11800000000000001, 0.97, 0.134, 192.0, 0.0, 0.0, 0.0, 0.0, 0.0, 0.0, 0.0, 0.0, 0.0, 1.7297103744477265E9, 0.0, 2024-10-24 00:36:14.447
135.0, -59140.21243336349, -61199.121022119645, -61373.66579457114, -65724.6116667523, -68533.10835756164, -58820.62719114151, -21874.892339097543, 7458.6877177581455, 0.11800000000000001, 0.97, 0.134, 192.0, 0.0, 0.0, 0.0, 0.0, 0.0, 0.0, 0.0, 0.0, 0.0, 1.7297103744517326E9, 0.0, 2024-10-24 00:36:14.451
136.0, -59152.70705851401, -61193.22016158345, -61376.0350794834, -65710.9100474012, -68511.24835148435, -58794.49800187326, -22051.225251105458, 7246.837883810746, 0.11800000000000001, 0.97, 0.134, 192.0, 0.0, 0.0, 0.0, 0.0, 0.0, 0.0, 0.0, 0.0, 0.0, 1.7297103744557412E9, 0.0, 2024-10-24 00:36:14.455
137.0, -59128.72363671347, -61164.20759728046, -61357.01374495194, -65684.49028545503, -68491.98114776387, -58765.083106170074, -22329.146841662747, 6945.558720297661, 0.11800000000000001, 0.97, 0.134, 192.0, 0.0, 0.0, 0.0, 0.0, 0.0, 0.0, 0.0, 0.0, 0.0, 1.729710374460612E9, 0.0, 2024-10-24 00:36:14.460
138.0, -59114.954962129, -61155.46806519843, -61351.89519547167, -65690.77112564696, -68505.28043571478, -58788.932417503886, -22375.973746296615, 6913.841594915581, 0.11800000000000001, 0.97, 0.134, 192.0, 0.0, 0.0, 0.0, 0.0, 0.0, 0.0, 0.0, 0.0, 0.0, 1.7297103744636412E9, 0.0, 2024-10-24 00:36:14.463
139.0, -59115.24553480691, -61163.31352750224, -61363.51810258843, -65709.18896307814, -68529.15209879304, -58817.520298662224, -22139.38053123719, 7178.441545777506, 0.116, 0.966, 0.136, 192.0, 3.0, 160.0, 30.0, 48.0, 4.0, 64.0, 0.0, 0.0, 0.0, 1.7297103744676688E9, 0.0, 2024-10-24 00:36:14.467
140.0, -59133.35044781571, -61175.60698695266, -61381.57831210832, -65724.5669632634, -68544.88772688959, -58829.143205778986, -21950.06125570074, 7376.925036540632, 0.116, 0.966, 0.136, 192.0, 0.0, 0.0, 0.0, 0.0, 0.0, 0.0, 0.0, 0.0, 0.0, 1.7297103744718306E9, 0.0, 2024-10-24 00:36:14.471
141.0, -59146.7614944889, -61172.94712936248, -61389.848457556785, -65721.95180916213, -68528.1239185481, -58811.530031148206, -22129.56811542131, 7164.9410921265, 0.116, 0.966, 0.136, 192.0, 0.0, 0.0, 0.0, 0.0, 0.0, 0.0, 0.0, 0.0, 0.0, 1.7297103744756513E9, 0.0, 2024-10-24 00:36:14.475
142.0, -59136.390285061636, -61159.64784141158, -61378.9855097515, -65713.54755324693, -68513.50587767432, -58796.21908619632, -22413.47997349262, 6859.616262867005, 0.116, 0.966, 0.136, 192.0, 0.0, 0.0, 0.0, 0.0, 0.0, 0.0, 0.0, 0.0, 0.0, 1.7297103744797657E9, 0.0, 2024-10-24 00:36:14.479
143.0, -59108.74117717042, -61147.68965812799, -61360.72413453152, -65716.78855619294, -68524.68174990198, -58811.06064451464, -22466.833587507437, 6820.947744959324, 0.116, 0.966, 0.136, 192.0, 0.0, 0.0, 0.0, 0.0, 0.0, 0.0, 0.0, 0.0, 0.0, 1.7297103744836924E9, 0.0, 2024-10-24 00:36:14.483
144.0, -59115.37964527365, -61159.64784141158, -61369.73188754701, -65736.5698500359, -68545.20065131196, -58835.40169422647, -22233.43667190512, 7080.563256807716, 0.116, 0.966, 0.136, 192.0, 0.0, 0.0, 0.0, 0.0, 0.0, 0.0, 0.0, 0.0, 0.0, 1.7297103744888368E9, 0.0, 2024-10-24 00:36:14.488
145.0, -59138.5584042738, -61180.79259166629, -61386.071012743836, -65752.48429208808, -68556.80120668426, -58849.01390659975, -22015.55186695479, 7307.20994558453, 0.116, 0.966, 0.136, 192.0, 0.0, 0.0, 0.0, 0.0, 0.0, 0.0, 0.0, 0.0, 0.0, 1.7297103744916549E9, 0.0, 2024-10-24 00:36:14.491
146.0, -59147.789674733845, -61178.44565849849, -61383.411155153655, -65739.09559715934, -68529.39796798205, -58823.06353128714, -22202.34539536779, 7086.061785943722, 0.116, 0.966, 0.136, 192.0, 0.0, 0.0, 0.0, 0.0, 0.0, 0.0, 0.0, 0.0, 0.0, 1.7297103744956288E9, 0.0, 2024-10-24 00:36:14.495
147.0, -59140.23478510795, -61168.11915256014, -61369.15074219117, -65722.53295451796, -68506.93446480446, -58800.823545554114, -22482.41275339279, 6782.726261940749, 0.116, 0.966, 0.136, 192.0, 0.0, 0.0, 0.0, 0.0, 0.0, 0.0, 0.0, 0.0, 0.0, 1.729710374500312E9, 0.0, 2024-10-24 00:36:14.500
148.0, -59118.28537205284, -61162.03947806829, -61354.06331468384, -65722.37649230678, -68517.1268602761, -58811.82060382612, -22515.940370075747, 6763.637872175917, 0.116, 0.966, 0.136, 192.0, 0.0, 0.0, 0.0, 0.0, 0.0, 0.0, 0.0, 0.0, 0.0, 1.7297103745038931E9, 0.0, 2024-10-24 00:36:14.503
149.0, -59130.69059022553, -61178.53506547631, -61367.09438170128, -65736.14516689125, -68538.11514831963, -58825.34340922158, -22257.26363149448, 7049.4943320148395, 0.114, 0.964, 0.132, 192.0, 3.0, 144.0, 30.0, 32.0, 4.0, 32.0, 0.0, 0.0, 0.0, 1.7297103745076733E9, 0.0, 2024-10-24 00:36:14.507
150.0, -59153.48936956994, -61191.67789121603, -61380.259559185455, -65739.9673151931, -68546.47470074591, -58818.883755074, -22053.84040520673, 7262.171180507086, 0.114, 0.964, 0.132, 192.0, 0.0, 0.0, 0.0, 0.0, 0.0, 0.0, 0.0, 0.0, 0.0, 1.7297103745116909E9, 0.0, 2024-10-24 00:36:14.511
151.0, -59161.84892199623, -61180.05498409927, -61374.22458818252, -65722.42119579569, -68511.24835148435, -58791.793440794165, -22259.252936751003, 7021.956982845901, 0.114, 0.964, 0.132, 192.0, 0.0, 0.0, 0.0, 0.0, 0.0, 0.0, 0.0, 0.0, 0.0, 1.729710374516714E9, 0.0, 2024-10-24 00:36:14.516
152.0, -59151.075381168775, -61165.503998458866, -61360.701782787066, -65706.9090851437, -68487.48844712836, -58776.281330142185, -22550.160890836825, 6708.071435460024, 0.114, 0.964, 0.132, 192.0, 0.0, 0.0, 0.0, 0.0, 0.0, 0.0, 0.0, 0.0, 0.0, 1.7297103745207217E9, 0.0, 2024-10-24 00:36:14.520
153.0, -59125.66144772309, -61151.55650991875, -61345.6814105131, -65701.34350077432, -68499.55838913422, -58780.30464414414, -22585.32018486502, 6690.637074784884, 0.114, 0.964, 0.132, 192.0, 0.0, 0.0, 0.0, 0.0, 0.0, 0.0, 0.0, 0.0, 0.0, 1.7297103745237105E9, 0.0, 2024-10-24 00:36:14.523
154.0, -59128.45541578, -61160.43015246751, -61351.76108500494, -65716.8556114263, -68519.29497948826, -58805.562115378634, -22364.730818835596, 6941.066019662145, 0.114, 0.964, 0.132, 192.0, 0.0, 0.0, 0.0, 0.0, 0.0, 0.0, 0.0, 0.0, 0.0, 1.7297103745276833E9, 0.0, 2024-10-24 00:36:14.527
155.0, -59159.390230106146, -61181.217274810944, -61376.213893439046, -65739.9673151931, -68536.43876748548, -58835.31228724865, -22161.48640650349, 7153.429943732017, 0.114, 0.964, 0.132, 192.0, 0.0, 0.0, 0.0, 0.0, 0.0, 0.0, 0.0, 0.0, 0.0, 1.7297103745318477E9, 0.0, 2024-10-24 00:36:14.531
156.0, -59162.18419816306, -61173.14829506258, -61372.88348351521, -65724.6116667523, -68515.29401723076, -58795.45912688484, -22351.342123906867, 6931.1641968684435, 0.114, 0.964, 0.132, 192.0, 0.0, 0.0, 0.0, 0.0, 0.0, 0.0, 0.0, 0.0, 0.0, 1.7297103745359037E9, 0.0, 2024-10-24 00:36:14.535
157.0, -59132.36697105968, -61147.86847208363, -61340.987544177486, -65696.4037652497, -68482.05697322571, -58759.67398401189, -22641.780691359127, 6621.570184417986, 0.114, 0.964, 0.132, 192.0, 0.0, 0.0, 0.0, 0.0, 0.0, 0.0, 0.0, 0.0, 0.0, 1.7297103745397832E9, 0.0, 2024-10-24 00:36:14.539
158.0, -59120.18527033154, -61144.96274530444, -61334.08085514079, -65703.86924789778, -68497.68084259998, -58778.091821443064, -22677.67759295435, 6602.839422564438, 0.114, 0.964, 0.132, 192.0, 0.0, 0.0, 0.0, 0.0, 0.0, 0.0, 0.0, 0.0, 0.0, 1.729710374545404E9, 0.0, 2024-10-24 00:36:14.545
159.0, -59137.150244373115, -61163.58174843571, -61356.633765296196, -65726.22099235309, -68525.32995049118, -58807.86434505753, -22438.245706349102, 6870.613321139017, 0.12, 0.968, 0.128, 192.0, 3.0, 192.0, 30.0, 64.0, 4.0, 0.0, 0.0, 0.0, 0.0, 1.7297103745477555E9, 0.0, 2024-10-24 00:36:14.547
160.0, -59160.485465584454, -61180.032632354814, -61375.789210294395, -65736.70396050262, -68531.58843893868, -58816.40271143946, -22251.36277095828, 7067.934521190467, 0.12, 0.968, 0.128, 192.0, 0.0, 0.0, 0.0, 0.0, 0.0, 0.0, 0.0, 0.0, 0.0, 1.729710374552137E9, 0.0, 2024-10-24 00:36:14.552
161.0, -59160.82074175129, -61169.50496071637, -61370.00010848047, -65723.27056208499, -68510.0190055393, -58794.63211233999, -22450.427407077244, 6835.677544555372, 0.12, 0.968, 0.128, 192.0, 0.0, 0.0, 0.0, 0.0, 0.0, 0.0, 0.0, 0.0, 0.0, 1.7297103745559616E9, 0.0, 2024-10-24 00:36:14.555
162.0, -59156.52920681587, -61158.39614372208, -61363.406343866154, -65717.12383235978, -68499.42427866749, -58786.74194654727, -22730.07008195759, 6533.459607775165, 0.12, 0.968, 0.128, 192.0, 0.0, 0.0, 0.0, 0.0, 0.0, 0.0, 0.0, 0.0, 0.0, 1.729710374559853E9, 0.0, 2024-10-24 00:36:14.559
163.0, -59140.10067464122, -61147.28732672779, -61357.125503674215, -65722.2647335845, -68521.06076730022, -58799.23657169779, -22766.905756819935, 6511.711360420151, 0.12, 0.968, 0.128, 192.0, 0.0, 0.0, 0.0, 0.0, 0.0, 0.0, 0.0, 0.0, 0.0, 1.7297103745627482E9, 0.0, 2024-10-24 00:36:14.562
164.0, -59137.88785194014, -61154.14931227557, -61367.51906484593, -65734.6699517572, -68542.56314546624, -58814.34635094957, -22532.055977828026, 6773.629101947439, 0.12, 0.968, 0.128, 192.0, 0.0, 0.0, 0.0, 0.0, 0.0, 0.0, 0.0, 0.0, 0.0, 1.7297103745677817E9, 0.0, 2024-10-24 00:36:14.567
165.0, -59150.51658755739, -61171.85189388417, -61382.15945746416, -65749.19858565314, -68547.34641877966, -58827.91385983394, -22332.49960333104, 6982.528505626739, 0.12, 0.968, 0.128, 192.0, 0.0, 0.0, 0.0, 0.0, 0.0, 0.0, 0.0, 0.0, 0.0, 1.7297103745797749E9, 0.0, 2024-10-24 00:36:14.579
166.0, -59162.85475049672, -61167.91798686004, -61381.55596036386, -65740.14612914874, -68529.68854065998, -58806.92557179041, -22517.370881720886, 6763.637872175917, 0.12, 0.968, 0.128, 192.0, 0.0, 0.0, 0.0, 0.0, 0.0, 0.0, 0.0, 0.0, 0.0, 1.7297103745798037E9, 0.0, 2024-10-24 00:36:14.579
167.0, -59143.878119454166, -61144.180434248505, -61359.919471731126, -65717.10148061533, -68503.42524092499, -58785.28908315767, -22805.529571238705, 6452.546292846953, 0.12, 0.968, 0.128, 192.0, 0.0, 0.0, 0.0, 0.0, 0.0, 0.0, 0.0, 0.0, 0.0, 1.7297103745798178E9, 0.0, 2024-10-24 00:36:14.579
168.0, -59113.83737490623, -61125.36026541713, -61338.84177670977, -65710.57477123437, -68511.20364799544, -58797.91781877492, -22848.2437548928, 6425.098350655837, 0.12, 0.968, 0.128, 192.0, 0.0, 0.0, 0.0, 0.0, 0.0, 0.0, 0.0, 0.0, 0.0, 1.7297103745855677E9, 0.0, 2024-10-24 00:36:14.585
169.0, -59119.33590404224, -61139.933602802, -61349.41415183713, -65729.08201564336, -68539.14332856456, -58826.46099644435, -22621.462955649255, 6678.947112434758, 0.122, 0.968, 0.13, 192.0, 3.0, 208.0, 30.0, 64.0, 4.0, 16.0, 0.0, 0.0, 0.0, 1.7297103745920904E9, 0.0, 2024-10-24 00:36:14.592
170.0, -59144.906299699105, -61160.877187356615, -61370.91653000314, -65745.46584432911, -68552.2861543043, -58839.626173928526, -22421.14662184079, 6886.751280635748, 0.122, 0.968, 0.13, 192.0, 0.0, 0.0, 0.0, 0.0, 0.0, 0.0, 0.0, 0.0, 0.0, 1.7297103745924208E9, 0.0, 2024-10-24 00:36:14.592
171.0, -59152.84116898074, -61154.0822570422, -61366.93791949009, -65729.19377436565, -68527.31925574772, -58805.293894445174, -22605.012071730147, 6667.882998929382, 0.122, 0.968, 0.13, 192.0, 0.0, 0.0, 0.0, 0.0, 0.0, 0.0, 0.0, 0.0, 0.0, 1.7297103745957837E9, 0.0, 2024-10-24 00:36:14.595
172.0, -59148.32611660077, -61139.86654756863, -61356.343192618275, -65713.4581462691, -68510.26487472831, -58782.89744650095, -22896.14354326052, 6355.517370166465, 0.122, 0.968, 0.13, 192.0, 0.0, 0.0, 0.0, 0.0, 0.0, 0.0, 0.0, 0.0, 0.0, 1.7297103746004198E9, 0.0, 2024-10-24 00:36:14.600
173.0, -59124.02977037785, -61127.03664625128, -61339.04294240987, -65712.56407649089, -68511.918903818, -58797.58254260809, -22935.549668735228, 6333.500901877988, 0.122, 0.968, 0.13, 192.0, 0.0, 0.0, 0.0, 0.0, 0.0, 0.0, 0.0, 0.0, 0.0, 1.7297103746054227E9, 0.0, 2024-10-24 00:36:14.605
174.0, -59123.873308166665, -61135.7314748444, -61345.70376225755, -65723.09174812934, -68531.56608719422, -58815.95567655035, -22702.01864266618, 6595.306884682999, 0.122, 0.968, 0.13, 192.0, 0.0, 0.0, 0.0, 0.0, 0.0, 0.0, 0.0, 0.0, 0.0, 1.7297103746303592E9, 0.0, 2024-10-24 00:36:14.630
175.0, -59139.09484614073, -61147.01910579433, -61357.77370426342, -65727.07035864239, -68540.9761716099, -58822.348275464574, -22504.11629725889, 6801.457023794297, 0.122, 0.968, 0.13, 192.0, 0.0, 0.0, 0.0, 0.0, 0.0, 0.0, 0.0, 0.0, 0.0, 1.7297103746303928E9, 0.0, 2024-10-24 00:36:14.630
176.0, -59147.163825889096, -61139.5312714018, -61356.09732342927, -65713.10051835782, -68515.74105211986, -58805.58446712309, -22698.755287975706, 6572.329291382944, 0.122, 0.968, 0.13, 192.0, 0.0, 0.0, 0.0, 0.0, 0.0, 0.0, 0.0, 0.0, 0.0, 1.7297103746304085E9, 0.0, 2024-10-24 00:36:14.630
177.0, -59140.70417174151, -61127.66249509603, -61348.85535822575, -65697.92368387266, -68494.77511582078, -58782.31630114512, -22977.1239134221, 6271.832438925796, 0.122, 0.968, 0.13, 192.0, 0.0, 0.0, 0.0, 0.0, 0.0, 0.0, 0.0, 0.0, 0.0, 1.7297103746304216E9, 0.0, 2024-10-24 00:36:14.630
178.0, -59113.591505717224, -61108.99878847585, -61328.55997426033, -65689.2065035351, -68499.64779611204, -58776.23662665327, -23036.51249843985, 6229.989973305461, 0.122, 0.968, 0.13, 192.0, 0.0, 0.0, 0.0, 0.0, 0.0, 0.0, 0.0, 0.0, 0.0, 1.7297103746304348E9, 0.0, 2024-10-24 00:36:14.630
179.0, -59122.7557209439, -61123.125090971604, -61345.05556166835, -65709.01014912249, -68530.31438950473, -58801.35998742104, -22798.153495568455, 6498.434424213699, 0.122, 0.966, 0.132, 192.0, 3.0, 208.0, 30.0, 48.0, 4.0, 32.0, 0.0, 0.0, 0.0, 1.7297103746304483E9, 0.0, 2024-10-24 00:36:14.630
180.0, -59150.583642790756, -61144.29219297078, -61373.35287014877, -65728.00913190951, -68551.0344566148, -58815.39688293897, -22591.66808029033, 6714.553441352063, 0.122, 0.966, 0.132, 192.0, 0.0, 0.0, 0.0, 0.0, 0.0, 0.0, 0.0, 0.0, 0.0, 1.7297103746347668E9, 0.0, 2024-10-24 00:36:14.634
181.0, -59155.679840526565, -61137.96664928993, -61372.27998641491, -65719.3590068053, -68516.5233631758, -58799.124812975504, -22794.018422844223, 6476.820287325417, 0.122, 0.966, 0.132, 192.0, 0.0, 0.0, 0.0, 0.0, 0.0, 0.0, 0.0, 0.0, 0.0, 1.7297103746407127E9, 0.0, 2024-10-24 00:36:14.640
182.0, -59157.60209054972, -61128.802434063255, -61369.19544568008, -65714.59808523633, -68508.1191072606, -58791.21229543833, -23082.601795506693, 6165.12521089616, 0.122, 0.966, 0.132, 192.0, 0.0, 0.0, 0.0, 0.0, 0.0, 0.0, 0.0, 0.0, 0.0, 1.729710374640882E9, 0.0, 2024-10-24 00:36:14.640
183.0, -59119.045331364316, -61106.33893088567, -61349.52591055941, -65704.56215197589, -68512.7682701073, -58793.69333907287, -23107.769859763368, 6156.877417192151, 0.122, 0.966, 0.132, 192.0, 0.0, 0.0, 0.0, 0.0, 0.0, 0.0, 0.0, 0.0, 0.0, 1.729710374643885E9, 0.0, 2024-10-24 00:36:14.643
184.0, -59126.600220990214, -61118.90061126955, -61365.59681482278, -65720.54364926144, -68538.74099716438, -58813.631095127, -22883.067772754166, 6410.815585948895, 0.122, 0.966, 0.132, 192.0, 0.0, 0.0, 0.0, 0.0, 0.0, 0.0, 0.0, 0.0, 0.0, 1.7297103746468985E9, 0.0, 2024-10-24 00:36:14.646
185.0, -59153.80229399232, -61139.15129174606, -61385.66868134364, -65735.83224246887, -68548.75457868035, -58822.81766209813, -22692.653261739408, 6610.617829634885, 0.122, 0.966, 0.132, 192.0, 0.0, 0.0, 0.0, 0.0, 0.0, 0.0, 0.0, 0.0, 0.0, 1.7297103746509187E9, 0.0, 2024-10-24 00:36:14.650
186.0, -59160.61957605119, -61131.57405037571, -61386.071012743836, -65725.6174952528, -68530.18027903799, -58801.04706299867, -22897.73051711685, 6372.549399441409, 0.122, 0.966, 0.132, 192.0, 0.0, 0.0, 0.0, 0.0, 0.0, 0.0, 0.0, 0.0, 0.0, 1.7297103746559E9, 0.0, 2024-10-24 00:36:14.655
187.0, -59157.624442294175, -61124.06386423873, -61380.86305628575, -65721.68358822865, -68521.61956091161, -58793.335711161584, -23194.762849183422, 6053.232378152893, 0.122, 0.966, 0.132, 192.0, 0.0, 0.0, 0.0, 0.0, 0.0, 0.0, 0.0, 0.0, 0.0, 1.7297103746598804E9, 0.0, 2024-10-24 00:36:14.659
188.0, -59139.117197885185, -61120.979323503896, -61369.709535802554, -65725.59514350834, -68534.24829652885, -58802.36581592153, -23210.096145879765, 6052.8523984971525, 0.122, 0.966, 0.132, 192.0, 0.0, 0.0, 0.0, 0.0, 0.0, 0.0, 0.0, 0.0, 0.0, 1.7297103746638932E9, 0.0, 2024-10-24 00:36:14.663
189.0, -59134.08805538274, -61130.277649197305, -61371.54237884789, -65736.88277445827, -68545.67003794551, -58825.05283654366, -22966.573890039195, 6323.062637217359, 0.124, 0.968, 0.13, 192.0, 3.0, 224.0, 30.0, 64.0, 4.0, 16.0, 0.0, 0.0, 0.0, 1.7297103746691327E9, 0.0, 2024-10-24 00:36:14.669
190.0, -59152.84116898074, -61144.739227859885, -61385.020480754436, -65745.62230654029, -68554.05194211626, -58829.81375811264, -22794.443105988874, 6504.536450449998, 0.124, 0.968, 0.13, 192.0, 0.0, 0.0, 0.0, 0.0, 0.0, 0.0, 0.0, 0.0, 0.0, 1.72971037467192E9, 0.0, 2024-10-24 00:36:14.671
191.0, -59161.87127374069, -61139.084236512695, -61381.511256874954, -65730.04314065495, -68530.60496218264, -58797.58254260809, -23018.675806364514, 6245.725601401998, 0.124, 0.968, 0.13, 192.0, 0.0, 0.0, 0.0, 0.0, 0.0, 0.0, 0.0, 0.0, 0.0, 1.7297103746749568E9, 0.0, 2024-10-24 00:36:14.674
192.0, -59146.3591630887, -61123.75093981635, -61364.16630317763, -65715.22393408108, -68512.54475266275, -58784.327958146096, -23294.18340852063, 5946.2569291897935, 0.124, 0.968, 0.13, 192.0, 0.0, 0.0, 0.0, 0.0, 0.0, 0.0, 0.0, 0.0, 0.0, 1.729710374679037E9, 0.0, 2024-10-24 00:36:14.679
193.0, -59118.17361333056, -61109.8258030207, -61343.89327095667, -65710.35125378982, -68521.32898823368, -58791.83814428308, -23350.889784203744, 5904.123890891539, 0.124, 0.968, 0.13, 192.0, 0.0, 0.0, 0.0, 0.0, 0.0, 0.0, 0.0, 0.0, 0.0, 1.7297103746854355E9, 0.0, 2024-10-24 00:36:14.685
194.0, -59128.053084379804, -61134.50212889935, -61357.79605600787, -65734.44643431265, -68545.80414841225, -58825.34340922158, -23101.62313003816, 6182.067833193283, 0.124, 0.968, 0.13, 192.0, 0.0, 0.0, 0.0, 0.0, 0.0, 0.0, 0.0, 0.0, 0.0, 1.7297103746881182E9, 0.0, 2024-10-24 00:36:14.688
195.0, -59156.50685507141, -61152.33882097469, -61372.95053874857, -65742.53776580546, -68551.70500894845, -58828.69617088988, -22895.070659526667, 6397.605704975808, 0.124, 0.968, 0.13, 192.0, 0.0, 0.0, 0.0, 0.0, 0.0, 0.0, 0.0, 0.0, 0.0, 1.729710374691918E9, 0.0, 2024-10-24 00:36:14.691
196.0, -59154.919881215086, -61141.162948747035, -61365.75327703396, -65724.18698360765, -68526.44753771396, -58805.11508048953, -23102.67366202756, 6153.748172968409, 0.124, 0.968, 0.13, 192.0, 0.0, 0.0, 0.0, 0.0, 0.0, 0.0, 0.0, 0.0, 0.0, 1.7297103746959364E9, 0.0, 2024-10-24 00:36:14.695
197.0, -59139.83245370775, -61124.44384389447, -61351.671678027116, -65708.38430027776, -68512.29888347375, -58790.72055706031, -23372.39216236975, 5861.387355492992, 0.124, 0.968, 0.13, 192.0, 0.0, 0.0, 0.0, 0.0, 0.0, 0.0, 0.0, 0.0, 0.0, 1.7297103746989877E9, 0.0, 2024-10-24 00:36:14.698
198.0, -59110.32815102675, -61100.59453256065, -61330.973962661505, -65697.63311119475, -68513.90820907452, -58792.12871696099, -23423.10827053884, 5827.077427754096, 0.124, 0.968, 0.13, 192.0, 0.0, 0.0, 0.0, 0.0, 0.0, 0.0, 0.0, 0.0, 0.0, 1.7297103747029612E9, 0.0, 2024-10-24 00:36:14.702
199.0, -59117.45835750799, -61114.98905598987, -61346.57548029131, -65718.9566754051, -68539.76917740931, -58823.532917920704, -23183.609328700226, 6094.49369841739, 0.124, 0.97, 0.14200000000000002, 192.0, 3.0, 224.0, 30.0, 80.0, 4.0, 112.0, 0.0, 0.0, 0.0, 1.729710374707134E9, 0.0, 2024-10-24 00:36:14.707
200.0, -59146.582680533254, -61134.63623936609, -61372.19057943709, -65734.267620357, -68552.9343548935, -58833.72531339232, -22973.368820353608, 6312.803186512374, 0.124, 0.97, 0.14200000000000002, 192.0, 0.0, 0.0, 0.0, 0.0, 0.0, 0.0, 0.0, 0.0, 0.0, 1.7297103747334933E9, 0.0, 2024-10-24 00:36:14.733
201.0, -59149.13077940116, -61124.130919472096, -61369.642480569186, -65716.87796317077, -68530.20263078244, -58801.15882172094, -23157.10015977623, 6093.979608294918, 0.124, 0.97, 0.14200000000000002, 192.0, 0.0, 0.0, 0.0, 0.0, 0.0, 0.0, 0.0, 0.0, 0.0, 1.7297103747335289E9, 0.0, 2024-10-24 00:36:14.733
202.0, -59142.31349734229, -61099.007558704325, -61360.65707929815, -65702.259922297, -68514.08702303017, -58783.7244610458, -23450.31034354095, 5780.250523120228, 0.124, 0.97, 0.14200000000000002, 192.0, 0.0, 0.0, 0.0, 0.0, 0.0, 0.0, 0.0, 0.0, 0.0, 1.729710374733543E9, 0.0, 2024-10-24 00:36:14.733
203.0, -59121.12404359866, -61041.85414813211, -61347.64836402516, -65702.21521880808, -68511.8742003291, -58795.52618211821, -23490.811704493964, 5758.435220531848, 0.124, 0.97, 0.14200000000000002, 192.0, 0.0, 0.0, 0.0, 0.0, 0.0, 0.0, 0.0, 0.0, 0.0, 1.729710374733556E9, 0.0, 2024-10-24 00:36:14.733
204.0, -59134.021000149376, -61053.298241293225, -61367.29554740138, -65722.48825102905, -68538.2716105308, -58817.92263006242, -23251.759797544455, 6027.125540629094, 0.124, 0.97, 0.14200000000000002, 192.0, 0.0, 0.0, 0.0, 0.0, 0.0, 0.0, 0.0, 0.0, 0.0, 1.729710374733569E9, 0.0, 2024-10-24 00:36:14.733
205.0, -59158.250291138924, -61075.27000609279, -61388.10502148927, -65736.72631224708, -68556.66709621753, -58824.516394676735, -23060.719437684947, 6229.788807605363, 0.124, 0.97, 0.14200000000000002, 192.0, 0.0, 0.0, 0.0, 0.0, 0.0, 0.0, 0.0, 0.0, 0.0, 1.7297103747335808E9, 0.0, 2024-10-24 00:36:14.733
206.0, -59175.08115471377, -61075.49352353734, -61392.46361165805, -65727.7632627205, -68536.3717122521, -58799.75066182025, -23235.06304443634, 6020.174148103493, 0.124, 0.97, 0.14200000000000002, 192.0, 0.0, 0.0, 0.0, 0.0, 0.0, 0.0, 0.0, 0.0, 0.0, 1.7297103747356832E9, 0.0, 2024-10-24 00:36:14.735
207.0, -59148.10259915622, -61050.23605230285, -61366.08855320079, -65701.18703856315, -68502.19589497994, -58769.285234127674, -23532.98944628113, 5701.147699492896, 0.124, 0.97, 0.14200000000000002, 192.0, 0.0, 0.0, 0.0, 0.0, 0.0, 0.0, 0.0, 0.0, 0.0, 1.7297103747548327E9, 0.0, 2024-10-24 00:36:14.754
208.0, -59117.5030609969, -61035.14862479552, -61343.60269827875, -65695.04030883794, -68496.49620014384, -58775.074335941594, -23605.453801805237, 5646.967070933231, 0.124, 0.97, 0.14200000000000002, 192.0, 0.0, 0.0, 0.0, 0.0, 0.0, 0.0, 0.0, 0.0, 0.0, 1.7297103747548587E9, 0.0, 2024-10-24 00:36:14.754
209.0, -59135.94325017253, -61059.55672974071, -61366.557939834354, -65720.83422193935, -68534.74003490688, -58801.4270426544, -23361.23864188655, 5921.155920166483, 0.11800000000000001, 0.962, 0.146, 192.0, 3.0, 176.0, 30.0, 16.0, 4.0, 144.0, 0.0, 0.0, 0.0, 1.7297103747548695E9, 0.0, 2024-10-24 00:36:14.754
210.0, -59163.03356445236, -61082.310805596215, -61392.01657676895, -65737.97800993657, -68555.23658457238, -58820.113101019044, -23153.188604496554, 6139.532463494834, 0.11800000000000001, 0.962, 0.146, 192.0, 0.0, 0.0, 0.0, 0.0, 0.0, 0.0, 0.0, 0.0, 0.0, 1.7297103747550154E9, 0.0, 2024-10-24 00:36:14.755
211.0, -59161.960680718505, -61069.12327636758, -61382.427678397624, -65718.509640516, -68524.99467432436, -58790.608798338035, -23354.644877272236, 5900.279390845227, 0.11800000000000001, 0.962, 0.146, 192.0, 0.0, 0.0, 0.0, 0.0, 0.0, 0.0, 0.0, 0.0, 0.0, 1.7297103747560277E9, 0.0, 2024-10-24 00:36:14.756
212.0, -59149.5107590569, -61055.48871224985, -61368.50254160196, -65705.88090489876, -68509.01317703881, -58775.56607431961, -23647.944468014775, 5585.008035303121, 0.11800000000000001, 0.962, 0.146, 192.0, 0.0, 0.0, 0.0, 0.0, 0.0, 0.0, 0.0, 0.0, 0.0, 1.729710374759032E9, 0.0, 2024-10-24 00:36:14.759
213.0, -59134.19981410501, -61051.01836335878, -61362.57932932131, -65712.20644857961, -68524.70410164644, -58794.34153966207, -23695.620738937945, 5556.375450655872, 0.11800000000000001, 0.962, 0.146, 192.0, 0.0, 0.0, 0.0, 0.0, 0.0, 0.0, 0.0, 0.0, 0.0, 1.7297103747630453E9, 0.0, 2024-10-24 00:36:14.763
214.0, -59141.352372330715, -61069.52560776778, -61377.51029461745, -65733.6641232567, -68553.26963106032, -58821.76713010873, -23458.424026778226, 5824.037590508175, 0.11800000000000001, 0.962, 0.146, 192.0, 0.0, 0.0, 0.0, 0.0, 0.0, 0.0, 0.0, 0.0, 0.0, 1.7297103747680368E9, 0.0, 2024-10-24 00:36:14.768
215.0, -59150.226014879474, -61081.70730849592, -61384.39463190969, -65740.21318438211, -68553.1355205936, -58828.427949956415, -23255.514890612947, 6037.832026223186, 0.11800000000000001, 0.962, 0.146, 192.0, 0.0, 0.0, 0.0, 0.0, 0.0, 0.0, 0.0, 0.0, 0.0, 1.7297103747720165E9, 0.0, 2024-10-24 00:36:14.772
216.0, -59157.82560799427, -61072.3642793136, -61379.94663476308, -65725.4163295527, -68526.24637201386, -58806.344426434574, -23450.35504702986, 5807.117319955507, 0.11800000000000001, 0.962, 0.146, 192.0, 0.0, 0.0, 0.0, 0.0, 0.0, 0.0, 0.0, 0.0, 0.0, 1.7297103747761004E9, 0.0, 2024-10-24 00:36:14.776
217.0, -59146.940308444544, -61059.869654163085, -61366.58029157881, -65710.46301251209, -68510.93542706197, -58788.15010644795, -23764.732332793756, 5468.8907228578, 0.11800000000000001, 0.962, 0.146, 192.0, 0.0, 0.0, 0.0, 0.0, 0.0, 0.0, 0.0, 0.0, 0.0, 1.7297103747800903E9, 0.0, 2024-10-24 00:36:14.780
218.0, -59127.6060494907, -61054.415828515994, -61353.43746583909, -65712.65348346872, -68527.92275284801, -58798.990702508774, -23809.100545537538, 5443.0968097563755, 0.11800000000000001, 0.962, 0.146, 192.0, 0.0, 0.0, 0.0, 0.0, 0.0, 0.0, 0.0, 0.0, 0.0, 1.7297103747872467E9, 0.0, 2024-10-24 00:36:14.787
219.0, -59141.352372330715, -61070.75495371282, -61368.48018985751, -65730.60193426632, -68555.70597120596, -58821.431853941904, -23576.70945843571, 5705.171013494852, 0.114, 0.966, 0.14400000000000002, 192.0, 3.0, 144.0, 30.0, 48.0, 4.0, 128.0, 0.0, 0.0, 0.0, 1.7297103747873993E9, 0.0, 2024-10-24 00:36:14.787
220.0, -59162.742991774445, -61085.90943645352, -61383.411155153655, -65740.34729484883, -68562.34443930918, -58831.020752313234, -23380.036458973464, 5911.83524272862, 0.114, 0.966, 0.14400000000000002, 192.0, 0.0, 0.0, 0.0, 0.0, 0.0, 0.0, 0.0, 0.0, 0.0, 1.729710374793553E9, 0.0, 2024-10-24 00:36:14.793
221.0, -59157.73620101645, -61069.167979856495, -61368.99427997998, -65720.07426262788, -68522.2230580119, -58805.1821357229, -23571.792074655543, 5686.306141174572, 0.114, 0.966, 0.14400000000000002, 192.0, 0.0, 0.0, 0.0, 0.0, 0.0, 0.0, 0.0, 0.0, 0.0, 1.7297103747964582E9, 0.0, 2024-10-24 00:36:14.796
222.0, -59140.05597115231, -61046.81623540119, -61348.6318407812, -65699.62241645127, -68497.32321468869, -58778.58355982108, -23876.647517281475, 5359.411878515706, 0.114, 0.966, 0.14400000000000002, 192.0, 0.0, 0.0, 0.0, 0.0, 0.0, 0.0, 0.0, 0.0, 0.0, 1.7297103748022263E9, 0.0, 2024-10-24 00:36:14.802
223.0, -59111.69160743852, -61034.09809280612, -61333.209137107035, -65701.74583217452, -68511.0248340398, -58789.58061809309, -23912.656177598976, 5340.032916072955, 0.114, 0.966, 0.14400000000000002, 192.0, 0.0, 0.0, 0.0, 0.0, 0.0, 0.0, 0.0, 0.0, 0.0, 1.7297103748040495E9, 0.0, 2024-10-24 00:36:14.804
224.0, -59129.7071134695, -61054.99697387183, -61356.92433797412, -65731.42894881117, -68543.99365711136, -58824.47169118783, -23667.25637522416, 5614.6688001953125, 0.114, 0.966, 0.14400000000000002, 192.0, 0.0, 0.0, 0.0, 0.0, 0.0, 0.0, 0.0, 0.0, 0.0, 1.7297103748080573E9, 0.0, 2024-10-24 00:36:14.808
225.0, -59144.0569334098, -61063.11065710911, -61370.42479162512, -65737.19569888063, -68547.90521239105, -58825.902202832964, -23480.596957277892, 5811.990000246764, 0.114, 0.966, 0.14400000000000002, 192.0, 0.0, 0.0, 0.0, 0.0, 0.0, 0.0, 0.0, 0.0, 0.0, 1.7297103748110535E9, 0.0, 2024-10-24 00:36:14.811
226.0, -59148.4602270675, -61053.164130826495, -61364.30041364437, -65721.88475392875, -68521.64191265606, -58802.83520255509, -23687.775276634133, 5570.211180473707, 0.114, 0.966, 0.14400000000000002, 192.0, 0.0, 0.0, 0.0, 0.0, 0.0, 0.0, 0.0, 0.0, 0.0, 1.729710374815102E9, 0.0, 2024-10-24 00:36:14.815
227.0, -59144.10163689872, -61041.87649987656, -61360.61237580924, -65712.56407649089, -68511.60597939564, -58789.64767332646, -23987.73568722435, 5248.457819039562, 0.114, 0.966, 0.14400000000000002, 192.0, 0.0, 0.0, 0.0, 0.0, 0.0, 0.0, 0.0, 0.0, 0.0, 1.7297103748193164E9, 0.0, 2024-10-24 00:36:14.819
228.0, -59126.33200005675, -61030.76768288227, -61353.079837927806, -65714.86630616979, -68526.22402026941, -58802.34346417707, -24053.919202556517, 5199.976885316001, 0.114, 0.966, 0.14400000000000002, 192.0, 0.0, 0.0, 0.0, 0.0, 0.0, 0.0, 0.0, 0.0, 0.0, 1.7297103748276377E9, 0.0, 2024-10-24 00:36:14.827
229.0, -59139.58658451874, -61045.94451736743, -61371.520027103434, -65734.24526861255, -68555.4824537614, -58825.67868538841, -23828.591266702566, 5454.987937806599, 0.114, 0.966, 0.14400000000000002, 192.0, 0.0, 0.0, 0.0, 0.0, 0.0, 0.0, 0.0, 0.0, 0.0, 1.7297103748276603E9, 0.0, 2024-10-24 00:36:14.827
230.0, -59153.13174165866, -61058.37208728458, -61383.52291387593, -65740.54846054893, -68552.88965140458, -58829.70199939037, -23628.833726505487, 5664.69200428629, 0.112, 0.968, 0.14400000000000002, 192.0, 3.0, 128.0, 30.0, 64.0, 4.0, 128.0, 0.0, 0.0, 0.0, 1.7297103748325572E9, 0.0, 2024-10-24 00:36:14.832
231.0, -59153.42231433658, -61046.25744178981, -61373.71049806005, -65722.19767835113, -68521.03841555577, -58805.718577589825, -23829.23946729177, 5428.545824115971, 0.112, 0.968, 0.14400000000000002, 192.0, 0.0, 0.0, 0.0, 0.0, 0.0, 0.0, 0.0, 0.0, 0.0, 1.7297103748361292E9, 0.0, 2024-10-24 00:36:14.836
232.0, -59149.35429684571, -61037.18263354095, -61365.39564912268, -65710.79828867893, -68511.74008986236, -58793.894504772965, -24111.363185806655, 5122.997477411924, 0.112, 0.968, 0.14400000000000002, 192.0, 0.0, 0.0, 0.0, 0.0, 0.0, 0.0, 0.0, 0.0, 0.0, 1.729710374846667E9, 0.0, 2024-10-24 00:36:14.846
233.0, -59130.3553140587, -61023.07868278965, -61349.928241959606, -65701.05292809641, -68514.91403757501, -58784.663234312924, -24138.654665786587, 5113.274468573865, 0.112, 0.968, 0.14400000000000002, 192.0, 0.0, 0.0, 0.0, 0.0, 0.0, 0.0, 0.0, 0.0, 0.0, 1.7297103748467703E9, 0.0, 2024-10-24 00:36:14.846
234.0, -59136.27852633936, -61033.092264305626, -61361.81937000983, -65713.21227708009, -68537.9810378529, -58799.9294757759, -23893.768953534243, 5386.926875940189, 0.112, 0.968, 0.14400000000000002, 192.0, 0.0, 0.0, 0.0, 0.0, 0.0, 0.0, 0.0, 0.0, 0.0, 1.7297103748490248E9, 0.0, 2024-10-24 00:36:14.849
235.0, -59168.24152091045, -61055.48871224985, -61388.932036034115, -65729.77491972147, -68554.07429386071, -58816.5815253951, -23706.707204187776, 5582.750509113134, 0.112, 0.968, 0.14400000000000002, 192.0, 0.0, 0.0, 0.0, 0.0, 0.0, 0.0, 0.0, 0.0, 0.0, 1.7297103748515952E9, 0.0, 2024-10-24 00:36:14.851
236.0, -59158.250291138924, -61041.58592719864, -61378.71728881804, -65708.09372759983, -68528.57095343721, -58781.91396974492, -23900.96621524885, 5355.433268002662, 0.112, 0.968, 0.14400000000000002, 192.0, 0.0, 0.0, 0.0, 0.0, 0.0, 0.0, 0.0, 0.0, 0.0, 1.7297103748561184E9, 0.0, 2024-10-24 00:36:14.856
237.0, -59147.38734333365, -61024.777415368255, -61366.826160767814, -65689.74294540203, -68511.0248340398, -58762.53500730217, -24196.255111247912, 5036.339764158698, 0.112, 0.968, 0.14400000000000002, 192.0, 0.0, 0.0, 0.0, 0.0, 0.0, 0.0, 0.0, 0.0, 0.0, 1.7297103748600836E9, 0.0, 2024-10-24 00:36:14.860
238.0, -59126.44375877902, -61012.08162451764, -61353.95155596156, -65687.68658491214, -68521.82072661171, -58776.63895805347, -24234.47659426649, 5015.351476115165, 0.112, 0.968, 0.14400000000000002, 192.0, 0.0, 0.0, 0.0, 0.0, 0.0, 0.0, 0.0, 0.0, 0.0, 1.7297103748642025E9, 0.0, 2024-10-24 00:36:14.864
239.0, -59133.03752339334, -61026.31968573567, -61366.5355880899, -65705.07624209837, -68545.89355539007, -58802.16465022143, -23986.57339651268, 5293.608342839282, 0.112, 0.968, 0.14400000000000002, 192.0, 0.0, 0.0, 0.0, 0.0, 0.0, 0.0, 0.0, 0.0, 0.0, 1.7297103748679924E9, 0.0, 2024-10-24 00:36:14.867
240.0, -59157.222110893985, -61046.21273830089, -61387.16624822214, -65717.6602742267, -68555.34834329467, -58812.44645267087, -23790.615652873, 5498.417377283261, 0.11800000000000001, 0.972, 0.138, 192.0, 3.0, 176.0, 30.0, 96.0, 4.0, 80.0, 0.0, 0.0, 0.0, 1.7297103748712077E9, 0.0, 2024-10-24 00:36:14.871
241.0, -59155.99276494894, -61037.4061509855, -61378.650233584674, -65699.13067807326, -68521.91013358952, -58780.39405112196, -24007.27111187829, 5246.379106805219, 0.11800000000000001, 0.972, 0.138, 192.0, 0.0, 0.0, 0.0, 0.0, 0.0, 0.0, 0.0, 0.0, 0.0, 1.7297103748752716E9, 0.0, 2024-10-24 00:36:14.875
242.0, -59141.061799652794, -61023.101034534106, -61361.55114907637, -65687.26190176749, -68503.40288918054, -58766.357155604026, -24307.209170724058, 4927.3079547057105, 0.11800000000000001, 0.972, 0.138, 192.0, 0.0, 0.0, 0.0, 0.0, 0.0, 0.0, 0.0, 0.0, 0.0, 1.7297103748791833E9, 0.0, 2024-10-24 00:36:14.879
243.0, -59117.77128193036, -61014.54031640772, -61346.86605296923, -65689.76529714648, -68515.11520327511, -58780.70697554434, -24351.86795614576, 4901.983428237847, 0.11800000000000001, 0.972, 0.138, 192.0, 0.0, 0.0, 0.0, 0.0, 0.0, 0.0, 0.0, 0.0, 0.0, 1.7297103748851388E9, 0.0, 2024-10-24 00:36:14.885
244.0, -59125.57204074527, -61028.01841831427, -61358.57836706381, -65707.95961713309, -68537.69046517498, -58804.46687990033, -24120.14742137759, 5164.6834808210715, 0.11800000000000001, 0.972, 0.138, 192.0, 0.0, 0.0, 0.0, 0.0, 0.0, 0.0, 0.0, 0.0, 0.0, 1.7297103748881755E9, 0.0, 2024-10-24 00:36:14.888
245.0, -59142.84993920922, -61040.46833997588, -61369.68718405809, -65716.29681781493, -68544.15011932256, -58814.14518524947, -23939.232401756337, 5356.461448247605, 0.11800000000000001, 0.972, 0.138, 192.0, 0.0, 0.0, 0.0, 0.0, 0.0, 0.0, 0.0, 0.0, 0.0, 1.7297103748924055E9, 0.0, 2024-10-24 00:36:14.892
246.0, -59141.46413105299, -61026.05146480221, -61362.19934966557, -65697.23077979455, -68518.89264808806, -58789.15593494844, -24133.893744217607, 5126.663163502594, 0.11800000000000001, 0.972, 0.138, 192.0, 0.0, 0.0, 0.0, 0.0, 0.0, 0.0, 0.0, 0.0, 0.0, 1.7297103748994892E9, 0.0, 2024-10-24 00:36:14.899
247.0, -59126.62257273467, -61006.22546747035, -61348.18480589209, -65683.23858776553, -68503.82757232519, -58776.01310920872, -24433.004788518523, 4806.139148013491, 0.11800000000000001, 0.972, 0.138, 192.0, 0.0, 0.0, 0.0, 0.0, 0.0, 0.0, 0.0, 0.0, 0.0, 1.7297103748996294E9, 0.0, 2024-10-24 00:36:14.899
248.0, -59106.48365098044, -61001.08456624563, -61338.439445309574, -65696.38141350525, -68527.52042144781, -58806.18796422338, -24454.35070447334, 4803.322828212122, 0.11800000000000001, 0.972, 0.138, 192.0, 0.0, 0.0, 0.0, 0.0, 0.0, 0.0, 0.0, 0.0, 0.0, 1.729710374905218E9, 0.0, 2024-10-24 00:36:14.905
249.0, -59110.81988940477, -61017.51309842028, -61346.016686679926, -65722.37649230678, -68561.98681139789, -58838.55329019467, -24221.177306315578, 5069.554456419284, 0.11800000000000001, 0.972, 0.138, 192.0, 0.0, 0.0, 0.0, 0.0, 0.0, 0.0, 0.0, 0.0, 0.0, 1.7297103749081879E9, 0.0, 2024-10-24 00:36:14.908
250.0, -59142.604070020214, -61046.61506970109, -61370.760067791954, -65750.3161728759, -68590.4405820895, -58862.02262187274, -24046.654885608543, 5257.107944143766, 0.11800000000000001, 0.972, 0.14, 192.0, 3.0, 176.0, 30.0, 96.0, 4.0, 96.0, 0.0, 0.0, 0.0, 1.7297103749121745E9, 0.0, 2024-10-24 00:36:14.912
251.0, -59153.019982936385, -61043.75404641081, -61370.02246022493, -65740.77197799349, -68564.57961375471, -58836.31811574914, -24242.769091459406, 5026.169720431533, 0.11800000000000001, 0.972, 0.14, 192.0, 0.0, 0.0, 0.0, 0.0, 0.0, 0.0, 0.0, 0.0, 0.0, 1.7297103749162033E9, 0.0, 2024-10-24 00:36:14.916
252.0, -59144.70513399901, -61029.29246774822, -61353.12454141671, -65721.63888473975, -68537.86927913061, -58806.903220045955, -24544.42823462823, 4702.561164207597, 0.11800000000000001, 0.972, 0.14, 192.0, 0.0, 0.0, 0.0, 0.0, 0.0, 0.0, 0.0, 0.0, 0.0, 1.729710374920185E9, 0.0, 2024-10-24 00:36:14.920
253.0, -59134.26686933838, -61026.16322352448, -61347.24603262497, -65723.02469289598, -68551.77206418182, -58814.368702694024, -24574.468979176163, 4689.552448934609, 0.11800000000000001, 0.972, 0.14, 192.0, 0.0, 0.0, 0.0, 0.0, 0.0, 0.0, 0.0, 0.0, 0.0, 1.7297103749232333E9, 0.0, 2024-10-24 00:36:14.923
254.0, -59143.654602009614, -61045.542185967235, -61357.46077984104, -65740.99549543804, -68563.9314131655, -58838.642697172494, -24324.554124421375, 4969.530399981785, 0.11800000000000001, 0.972, 0.14, 192.0, 0.0, 0.0, 0.0, 0.0, 0.0, 0.0, 0.0, 0.0, 0.0, 1.7297103749271934E9, 0.0, 2024-10-24 00:36:14.927
255.0, -59151.075381168775, -61051.01836335878, -61355.80675075135, -65733.44060581215, -68547.30171529076, -58824.449339443374, -24123.58959002371, 5182.251951962942, 0.11800000000000001, 0.972, 0.14, 192.0, 0.0, 0.0, 0.0, 0.0, 0.0, 0.0, 0.0, 0.0, 0.0, 1.7297103749312084E9, 0.0, 2024-10-24 00:36:14.931
0.0, -59153.08703816975, -61038.03199983025, -61344.92145120162, -65706.9090851437, -68510.46604042841, -58783.88092325699, -24342.547278707898, 4929.699591362428, 0.11800000000000001, 0.972, 0.14, 192.0, 0.0, 0.0, 0.0, 0.0, 0.0, 0.0, 0.0, 0.0, 0.0, 1.7297103749352047E9, 0.0, 2024-10-24 00:36:14.935
1.0, -59145.62155552168, -61023.81629035668, -61334.885517941184, -65689.6088349353, -68499.80425832323, -58768.48057132728, -24648.319142856497, 4603.677046737319, 0.11800000000000001, 0.972, 0.14, 192.0, 0.0, 0.0, 0.0, 0.0, 0.0, 0.0, 0.0, 0.0, 0.0, 1.729710374939215E9, 0.0, 2024-10-24 00:36:14.939
2.0, -59133.95394491601, -61021.335246722134, -61332.292715584364, -65695.5096954715, -68526.31342724722, -58788.59714133706, -24691.569768377518, 4580.520639481621, 0.11800000000000001, 0.972, 0.14, 192.0, 0.0, 0.0, 0.0, 0.0, 0.0, 0.0, 0.0, 0.0, 0.0, 1.7297103749442291E9, 0.0, 2024-10-24 00:36:14.944
3.0, -59134.44568329403, -61031.88527010504, -61341.2781168554, -65707.35612003281, -68547.12290133511, -58804.5786386226, -24422.25359943552, 4880.324587860655, 0.11800000000000001, 0.972, 0.14, 192.0, 0.0, 0.0, 0.0, 0.0, 0.0, 0.0, 0.0, 0.0, 0.0, 1.7297103749482088E9, 0.0, 2024-10-24 00:36:14.948
4.0, -59161.80421850732, -61047.68795343494, -61358.84658799727, -65715.42509978118, -68547.4358257575, -58807.462013657336, -24246.054797894336, 5066.7157848734605, 0.122, 0.968, 0.136, 192.0, 3.0, 208.0, 30.0, 64.0, 4.0, 64.0, 0.0, 0.0, 0.0, 1.7297103749514463E9, 0.0, 2024-10-24 00:36:14.951
5.0, -59165.5146080869, -61037.4061509855, -61353.57157630582, -65698.2589600395, -68522.75949987883, -58775.00728070823, -24485.03964961048, 4794.225668218812, 0.122, 0.968, 0.136, 192.0, 0.0, 0.0, 0.0, 0.0, 0.0, 0.0, 0.0, 0.0, 0.0, 1.729710374955262E9, 0.0, 2024-10-24 00:36:14.955
6.0, -59146.157997388604, -61020.7541013663, -61335.310201085835, -65678.16474177418, -68501.65945311302, -58745.34651581604, -24789.17983641384, 4469.365414305379, 0.122, 0.968, 0.136, 192.0, 0.0, 0.0, 0.0, 0.0, 0.0, 0.0, 0.0, 0.0, 0.0, 1.7297103749591966E9, 0.0, 2024-10-24 00:36:14.959
7.0, -59131.47290128147, -61018.273057731756, -61324.58136374729, -65684.42323022166, -68515.36107246412, -58764.3678503475, -24811.9562640138, 4466.727908459653, 0.122, 0.968, 0.136, 192.0, 0.0, 0.0, 0.0, 0.0, 0.0, 0.0, 0.0, 0.0, 0.0, 1.729710374963268E9, 0.0, 2024-10-24 00:36:14.963
8.0, -59140.860633952696, -61042.882328377054, -61341.725151744504, -65715.42509978118, -68540.7750059098, -58804.1316037335, -24558.845109801903, 4752.5620165541195, 0.122, 0.968, 0.136, 192.0, 0.0, 0.0, 0.0, 0.0, 0.0, 0.0, 0.0, 0.0, 0.0, 1.729710374969135E9, 0.0, 2024-10-24 00:36:14.969
9.0, -59166.095753442736, -61061.680145463964, -61362.37816362121, -65737.24040236956, -68555.23658457238, -58824.91872607693, -24377.751276225004, 4944.250577002833, 0.122, 0.968, 0.136, 192.0, 0.0, 0.0, 0.0, 0.0, 0.0, 0.0, 0.0, 0.0, 0.0, 1.7297103749722583E9, 0.0, 2024-10-24 00:36:14.972
10.0, -59172.55540759032, -61048.58202321315, -61361.37233512072, -65726.57862026436, -68536.170546552, -58804.377472922504, -24597.737145154137, 4687.496088444721, 0.122, 0.968, 0.136, 192.0, 0.0, 0.0, 0.0, 0.0, 0.0, 0.0, 0.0, 0.0, 0.0, 1.7297103749762497E9, 0.0, 2024-10-24 00:36:14.976
11.0, -59144.52632004337, -61022.31872347817, -61337.38891332018, -65703.7574891755, -68513.7740986078, -58780.52816158869, -24888.578044006594, 4373.856410247852, 0.122, 0.968, 0.136, 192.0, 0.0, 0.0, 0.0, 0.0, 0.0, 0.0, 0.0, 0.0, 0.0, 1.729710374979268E9, 0.0, 2024-10-24 00:36:14.979
12.0, -59121.19109883203, -61009.42176692746, -61321.58622999027, -65703.60102696432, -68522.93831383447, -58792.62045533901, -24939.048282986678, 4342.206340099137, 0.122, 0.968, 0.136, 192.0, 0.0, 0.0, 0.0, 0.0, 0.0, 0.0, 0.0, 0.0, 0.0, 1.729710374983281E9, 0.0, 2024-10-24 00:36:14.983
13.0, -59135.049180394315, -61031.46058696039, -61339.86995695472, -65729.57375402139, -68554.27545956081, -58828.38324646751, -24701.382184193397, 4610.784901474107, 0.122, 0.968, 0.136, 192.0, 0.0, 0.0, 0.0, 0.0, 0.0, 0.0, 0.0, 0.0, 0.0, 1.7297103749873023E9, 0.0, 2024-10-24 00:36:14.987
14.0, -59164.419372608594, -61055.55576748321, -61361.05941069835, -65745.39878909574, -68567.03830564479, -58845.68349667591, -24515.683891258705, 4805.71446486884, 0.124, 0.968, 0.136, 192.0, 3.0, 224.0, 30.0, 64.0, 4.0, 64.0, 0.0, 0.0, 0.0, 1.72971037499126E9, 0.0, 2024-10-24 00:36:14.991
15.0, -59164.08409644176, -61040.423636486965, -61349.794131492876, -65722.55530626241, -68535.70115991845, -58809.60778112504, -24721.78932688109, 4564.159162540336, 0.124, 0.968, 0.136, 192.0, 0.0, 0.0, 0.0, 0.0, 0.0, 0.0, 0.0, 0.0, 0.0, 1.7297103749953105E9, 0.0, 2024-10-24 00:36:14.995
16.0, -59139.00543916291, -61016.41786294197, -61330.079892883296, -65699.19773330662, -68511.74008986236, -58780.52816158869, -25011.84791467761, 4251.547664588412, 0.124, 0.968, 0.136, 192.0, 0.0, 0.0, 0.0, 0.0, 0.0, 0.0, 0.0, 0.0, 0.0, 1.7297103750022943E9, 0.0, 2024-10-24 00:36:15.002
17.0, -59115.24553480691, -61004.9514180364, -61316.24416306546, -65699.24243679552, -68521.75367137833, -58795.54853386266, -25056.126720443575, 4227.296021854403, 0.124, 0.968, 0.136, 192.0, 0.0, 0.0, 0.0, 0.0, 0.0, 0.0, 0.0, 0.0, 0.0, 1.7297103750043533E9, 0.0, 2024-10-24 00:36:15.004
18.0, -59121.7051889545, -61023.14573802301, -61324.73782595847, -65719.3143033164, -68547.18995656847, -58821.1859847529, -24823.08743275254, 4493.5276500615655, 0.124, 0.968, 0.136, 192.0, 0.0, 0.0, 0.0, 0.0, 0.0, 0.0, 0.0, 0.0, 0.0, 1.7297103750073397E9, 0.0, 2024-10-24 00:36:15.007
19.0, -59151.58947129124, -61046.65977319, -61344.38500933469, -65732.32301858938, -68564.3337445657, -58828.092673789586, -24629.25310483612, 4698.068463572081, 0.124, 0.968, 0.136, 192.0, 0.0, 0.0, 0.0, 0.0, 0.0, 0.0, 0.0, 0.0, 0.0, 1.7297103750113013E9, 0.0, 2024-10-24 00:36:15.011
20.0, -59162.385363863155, -61040.5577469537, -61339.73584648799, -65717.16853584869, -68538.80805239774, -58805.89739154546, -24841.482918439262, 4450.075858840449, 0.124, 0.968, 0.136, 192.0, 0.0, 0.0, 0.0, 0.0, 0.0, 0.0, 0.0, 0.0, 0.0, 1.7297103750153332E9, 0.0, 2024-10-24 00:36:15.015
21.0, -59139.4077705631, -61019.45770018789, -61317.071177610305, -65694.72738441556, -68516.99274980936, -58786.0266907247, -25144.237297086394, 4125.260308415926, 0.124, 0.968, 0.136, 192.0, 0.0, 0.0, 0.0, 0.0, 0.0, 0.0, 0.0, 0.0, 0.0, 1.729710375021327E9, 0.0, 2024-10-24 00:36:15.021
22.0, -59113.68091269505, -61012.327493706645, -61305.671787938096, -65698.6612914397, -68538.56218320873, -58805.919743289924, -25183.352849883184, 4106.95422970703, 0.124, 0.968, 0.136, 192.0, 0.0, 0.0, 0.0, 0.0, 0.0, 0.0, 0.0, 0.0, 0.0, 1.7297103750243118E9, 0.0, 2024-10-24 00:36:15.024
23.0, -59122.73336919944, -61029.6053921706, -61316.53473574338, -65716.38622479275, -68554.81190142773, -58824.717560376834, -24955.968553539344, 4364.714546765631, 0.124, 0.968, 0.136, 192.0, 0.0, 0.0, 0.0, 0.0, 0.0, 0.0, 0.0, 0.0, 0.0, 1.7297103750283065E9, 0.0, 2024-10-24 00:36:15.028
24.0, -59144.81689272129, -61043.75404641081, -61328.582326004784, -65720.14131786124, -68551.83911941518, -58817.34148470658, -24752.7911964406, 4576.653787690853, 0.126, 0.964, 0.136, 192.0, 3.0, 240.0, 30.0, 32.0, 4.0, 64.0, 0.0, 0.0, 0.0, 1.7297103750323322E9, 0.0, 2024-10-24 00:36:15.032
25.0, -59150.226014879474, -61030.36535148208, -61326.39185504817, -65701.96934961907, -68532.01312208333, -58790.00530123774, -24953.576916882626, 4336.864273174318, 0.126, 0.964, 0.136, 192.0, 0.0, 0.0, 0.0, 0.0, 0.0, 0.0, 0.0, 0.0, 0.0, 1.7297103750353675E9, 0.0, 2024-10-24 00:36:15.035
26.0, -59142.7605322314, -61016.730787364344, -61315.84183166526, -65689.74294540203, -68519.29497948826, -58777.957710976334, -25263.886185155654, 4002.906859267576, 0.126, 0.964, 0.136, 192.0, 0.0, 0.0, 0.0, 0.0, 0.0, 0.0, 0.0, 0.0, 0.0, 1.7297103750393584E9, 0.0, 2024-10-24 00:36:15.039
27.0, -59123.33686629974, -61010.13702275003, -61304.956532115524, -65691.12875355825, -68526.84986911414, -58791.0781849716, -25290.95414769103, 3996.3801498866264, 0.126, 0.964, 0.136, 192.0, 0.0, 0.0, 0.0, 0.0, 0.0, 0.0, 0.0, 0.0, 0.0, 1.729710375043347E9, 0.0, 2024-10-24 00:36:15.043
28.0, -59142.604070020214, -61035.55095619571, -61331.55510801734, -65716.96737014859, -68562.83617768719, -58819.10727251855, -25048.57183081768, 4270.501943886512, 0.126, 0.964, 0.136, 192.0, 0.0, 0.0, 0.0, 0.0, 0.0, 0.0, 0.0, 0.0, 0.0, 1.729710375047376E9, 0.0, 2024-10-24 00:36:15.047
29.0, -59158.29499462784, -61052.20300581492, -61346.28490761339, -65730.13254763276, -68573.45325630346, -58832.11598779154, -24842.86872659549, 4483.536420290044, 0.126, 0.964, 0.136, 192.0, 0.0, 0.0, 0.0, 0.0, 0.0, 0.0, 0.0, 0.0, 0.0, 1.7297103750513756E9, 0.0, 2024-10-24 00:36:15.051
30.0, -59160.95485221802, -61038.88136611955, -61337.07598889781, -65712.74289044653, -68535.25412502934, -58802.20935371034, -25055.72438904338, 4233.107475412783, 0.126, 0.964, 0.136, 192.0, 0.0, 0.0, 0.0, 0.0, 0.0, 0.0, 0.0, 0.0, 0.0, 1.729710375055369E9, 0.0, 2024-10-24 00:36:15.055
31.0, -59145.42038982158, -61021.67052288896, -61321.675636968095, -65699.53300947345, -68514.5787614082, -58783.903275001445, -25378.751799911475, 3889.2482387123396, 0.126, 0.964, 0.136, 192.0, 0.0, 0.0, 0.0, 0.0, 0.0, 0.0, 0.0, 0.0, 0.0, 1.729710375060368E9, 0.0, 2024-10-24 00:36:15.060
32.0, -59135.58562226124, -61025.827947357655, -61325.60954399223, -65722.37649230678, -68550.0286281143, -58824.248173743275, -25410.13364912673, 3881.2239624528843, 0.126, 0.964, 0.136, 192.0, 0.0, 0.0, 0.0, 0.0, 0.0, 0.0, 0.0, 0.0, 0.0, 1.729710375063402E9, 0.0, 2024-10-24 00:36:15.063
33.0, -59150.226014879474, -61045.050447589216, -61345.6814105131, -65749.19858565314, -68578.99648892839, -58853.685421190916, -25152.239221601394, 4171.9754543275185, 0.126, 0.964, 0.136, 192.0, 0.0, 0.0, 0.0, 0.0, 0.0, 0.0, 0.0, 0.0, 0.0, 1.7297103750673957E9, 0.0, 2024-10-24 00:36:15.067
34.0, -59173.53888434636, -61060.87548266357, -61358.62307055272, -65758.9662979801, -68577.32010809424, -58860.05566836068, -24966.272707733242, 4368.469639834123, 0.13, 0.966, 0.134, 192.0, 4.0, 16.0, 30.0, 48.0, 4.0, 48.0, 0.0, 0.0, 0.0, 1.729710375071417E9, 0.0, 2024-10-24 00:36:15.071
35.0, -59166.7663057764, -61039.0601800752, -61337.63478250919, -65730.6689894997, -68536.9752093524, -58819.39784519647, -25196.31686166726, 4103.28854361636, 0.13, 0.966, 0.134, 192.0, 0.0, 0.0, 0.0, 0.0, 0.0, 0.0, 0.0, 0.0, 0.0, 1.7297103750754006E9, 0.0, 2024-10-24 00:36:15.075
36.0, -59157.17740740507, -61028.30899099219, -61324.38019804719, -65716.74385270404, -68521.26193300032, -58798.14133621947, -25492.633937911265, 3784.7314816393236, 0.13, 0.966, 0.134, 192.0, 0.0, 0.0, 0.0, 0.0, 0.0, 0.0, 0.0, 0.0, 0.0, 1.7297103750794084E9, 0.0, 2024-10-24 00:36:15.079
37.0, -59141.10650314171, -61026.722017135864, -61316.17710783209, -65724.29874232993, -68536.7740436523, -58814.525164905215, -25522.697034203655, 3776.2825222352176, 0.13, 0.966, 0.134, 192.0, 0.0, 0.0, 0.0, 0.0, 0.0, 0.0, 0.0, 0.0, 0.0, 1.7297103750836337E9, 0.0, 2024-10-24 00:36:15.083
38.0, -59157.065648682794, -61053.03002035976, -61337.254802853444, -65751.27729788749, -68570.72634347992, -58842.621307685535, -25280.962917919507, 4050.9184063575753, 0.13, 0.966, 0.134, 192.0, 0.0, 0.0, 0.0, 0.0, 0.0, 0.0, 0.0, 0.0, 0.0, 1.729710375088476E9, 0.0, 2024-10-24 00:36:15.088
39.0, -59183.26189318441, -61073.70538398092, -61353.66098328364, -65761.4696933591, -68578.59415752819, -58853.30544153517, -25109.346223991663, 4233.040420179417, 0.13, 0.966, 0.134, 192.0, 0.0, 0.0, 0.0, 0.0, 0.0, 0.0, 0.0, 0.0, 0.0, 1.7297103750914552E9, 0.0, 2024-10-24 00:36:15.091
40.0, -59184.31242517381, -61065.99403214384, -61343.87091921222, -65742.78363499447, -68543.01018035534, -58830.21608951284, -25307.874418243697, 4000.9175540110537, 0.13, 0.966, 0.134, 192.0, 0.0, 0.0, 0.0, 0.0, 0.0, 0.0, 0.0, 0.0, 0.0, 1.7297103750954344E9, 0.0, 2024-10-24 00:36:15.095
41.0, -59171.43782036756, -61053.94644188243, -61328.582326004784, -65726.01982665299, -68526.20166852494, -58808.15491773545, -25592.099200737382, 3696.9338294188774, 0.13, 0.966, 0.134, 192.0, 0.0, 0.0, 0.0, 0.0, 0.0, 0.0, 0.0, 0.0, 0.0, 1.7297103750995653E9, 0.0, 2024-10-24 00:36:15.099
42.0, -59140.03361940785, -61040.155415553505, -61309.89626764015, -65716.52033525948, -68536.5728779522, -58807.193792723876, -25636.333303014435, 3675.2302855527746, 0.13, 0.966, 0.134, 192.0, 0.0, 0.0, 0.0, 0.0, 0.0, 0.0, 0.0, 0.0, 0.0, 1.7297103751035588E9, 0.0, 2024-10-24 00:36:15.103
43.0, -59148.95196544552, -61054.14760758253, -61319.03813112237, -65729.2161261101, -68554.96836363892, -58827.75739762276, -25391.089962850805, 3952.883655176599, 0.13, 0.966, 0.134, 192.0, 0.0, 0.0, 0.0, 0.0, 0.0, 0.0, 0.0, 0.0, 0.0, 1.729710375107444E9, 0.0, 2024-10-24 00:36:15.107
44.0, -59165.64871855363, -61062.864787920094, -61325.18486084758, -65726.08688188635, -68551.83911941518, -58821.02952254171, -25201.52481812535, 4152.976471540507, 0.124, 0.968, 0.13, 192.0, 3.0, 224.0, 30.0, 64.0, 4.0, 16.0, 0.0, 0.0, 0.0, 1.7297103751114535E9, 0.0, 2024-10-24 00:36:15.111
45.0, -59164.620538308685, -61050.079590091664, -61314.3219130423, -65703.26575079748, -68522.64774115656, -58789.87119077101, -25451.864356024787, 3869.7351658028565, 0.124, 0.968, 0.13, 192.0, 0.0, 0.0, 0.0, 0.0, 0.0, 0.0, 0.0, 0.0, 0.0, 1.7297103751164732E9, 0.0, 2024-10-24 00:36:15.116
46.0, -59162.85475049672, -61042.61410744359, -61309.13630832867, -65697.99073910603, -68515.2269619974, -58785.35613839104, -25767.091008077983, 3532.3579349944516, 0.124, 0.968, 0.13, 192.0, 0.0, 0.0, 0.0, 0.0, 0.0, 0.0, 0.0, 0.0, 0.0, 1.7297103751205244E9, 0.0, 2024-10-24 00:36:15.120
47.0, -59133.171633860075, -61024.97858106835, -61291.43372672007, -65692.17928554765, -68523.22888651238, -58793.38041465049, -25789.57686300002, 3527.954641336756, 0.124, 0.968, 0.13, 192.0, 0.0, 0.0, 0.0, 0.0, 0.0, 0.0, 0.0, 0.0, 0.0, 1.729710375124534E9, 0.0, 2024-10-24 00:36:15.124
48.0, -59131.65171523711, -61033.293430005724, -61294.473563965985, -65703.3104542864, -68540.28326753179, -58812.80408058216, -25534.34229306487, 3814.1016738535973, 0.124, 0.968, 0.13, 192.0, 0.0, 0.0, 0.0, 0.0, 0.0, 0.0, 0.0, 0.0, 0.0, 1.7297103751275845E9, 0.0, 2024-10-24 00:36:15.127
49.0, -59154.763419003895, -61052.98531687085, -61310.209192062524, -65716.52033525948, -68551.66030545955, -58819.889583574484, -25360.088093291295, 3998.3023999097827, 0.124, 0.968, 0.13, 192.0, 0.0, 0.0, 0.0, 0.0, 0.0, 0.0, 0.0, 0.0, 0.0, 1.72971037513158E9, 0.0, 2024-10-24 00:36:15.131
50.0, -59167.36980287669, -61047.419732501476, -61310.41035776262, -65706.17147757667, -68527.05103481424, -58792.575751850105, -25587.606500101865, 3735.825864771112, 0.124, 0.968, 0.13, 192.0, 0.0, 0.0, 0.0, 0.0, 0.0, 0.0, 0.0, 0.0, 0.0, 1.729710375135619E9, 0.0, 2024-10-24 00:36:15.135
51.0, -59156.03746843785, -61032.3546567386, -61298.407470990125, -65694.54857045991, -68508.47673517189, -58782.07043195611, -25890.87496887147, 3412.5078812250954, 0.124, 0.968, 0.13, 192.0, 0.0, 0.0, 0.0, 0.0, 0.0, 0.0, 0.0, 0.0, 0.0, 1.7297103751396353E9, 0.0, 2024-10-24 00:36:15.139
52.0, -59133.104578626706, -61023.19044151193, -61289.734994141465, -65700.38237576275, -68525.55346793574, -58804.15395547795, -25923.195591353848, 3402.896631109313, 0.124, 0.968, 0.13, 192.0, 0.0, 0.0, 0.0, 0.0, 0.0, 0.0, 0.0, 0.0, 0.0, 1.7297103751445332E9, 0.0, 2024-10-24 00:36:15.144
53.0, -59146.5603287888, -61043.59758419962, -61307.75050017244, -65726.3103993309, -68553.60490722716, -58837.033371571706, -25691.13978041885, 3667.675395926881, 0.124, 0.968, 0.13, 192.0, 0.0, 0.0, 0.0, 0.0, 0.0, 0.0, 0.0, 0.0, 0.0, 1.7297103751476407E9, 0.0, 2024-10-24 00:36:15.147
54.0, -59178.50097161543, -61065.32347981018, -61330.772796961406, -65740.88373671577, -68562.70206722047, -58845.99642109829, -25503.318071760903, 3863.789601777745, 0.116, 0.966, 0.134, 192.0, 3.0, 160.0, 30.0, 48.0, 4.0, 48.0, 0.0, 0.0, 0.0, 1.729710375151522E9, 0.0, 2024-10-24 00:36:15.151
55.0, -59170.45434361153, -61049.6102034581, -61316.82530842129, -65718.17436434918, -68533.39893023955, -58807.57377237961, -25723.102774989937, 3606.699837052803, 0.116, 0.966, 0.134, 192.0, 0.0, 0.0, 0.0, 0.0, 0.0, 0.0, 0.0, 0.0, 0.0, 1.7297103751558025E9, 0.0, 2024-10-24 00:36:15.155
56.0, -59162.541826074346, -61040.62480218706, -61310.075081595794, -65711.5582479904, -68521.73131963388, -58797.98487400829, -25996.554016656166, 3311.030961398001, 0.116, 0.966, 0.134, 192.0, 0.0, 0.0, 0.0, 0.0, 0.0, 0.0, 0.0, 0.0, 0.0, 1.7297103751595843E9, 0.0, 2024-10-24 00:36:15.159
57.0, -59140.41359906359, -61034.768645139775, -61301.58141870278, -65719.22489633858, -68537.9810378529, -58821.81183359765, -26010.5909121741, 3317.8035399679593, 0.116, 0.966, 0.134, 192.0, 0.0, 0.0, 0.0, 0.0, 0.0, 0.0, 0.0, 0.0, 0.0, 1.7297103751635928E9, 0.0, 2024-10-24 00:36:15.163
58.0, -59143.31932584278, -61044.08932257764, -61308.689273439566, -65731.65246625572, -68550.74388393687, -58840.40848498446, -25778.892729150382, 3581.5988280294932, 0.116, 0.966, 0.134, 192.0, 0.0, 0.0, 0.0, 0.0, 0.0, 0.0, 0.0, 0.0, 0.0, 1.7297103751677244E9, 0.0, 2024-10-24 00:36:15.167
59.0, -59167.39215462115, -61057.075686106175, -61323.8214044358, -65736.70396050262, -68554.34251479417, -58839.15678729496, -25616.30613998248, 3756.4788766478155, 0.116, 0.966, 0.134, 192.0, 0.0, 0.0, 0.0, 0.0, 0.0, 0.0, 0.0, 0.0, 0.0, 1.7297103751725776E9, 0.0, 2024-10-24 00:36:15.172
60.0, -59172.443648868044, -61052.20300581492, -61316.221811321004, -65720.8118701949, -68528.07921505919, -58808.95958053584, -25839.667122324365, 3498.338579933474, 0.116, 0.966, 0.134, 192.0, 0.0, 0.0, 0.0, 0.0, 0.0, 0.0, 0.0, 0.0, 0.0, 1.7297103751759071E9, 0.0, 2024-10-24 00:36:15.175
61.0, -59166.587491820756, -61045.92216562297, -61305.180049560084, -65709.92657064517, -68513.39411895206, -58793.000434994756, -26118.996872782336, 3197.685265265139, 0.116, 0.966, 0.134, 192.0, 0.0, 0.0, 0.0, 0.0, 0.0, 0.0, 0.0, 0.0, 0.0, 1.72971037517876E9, 0.0, 2024-10-24 00:36:15.178
62.0, -59138.46899729598, -61033.27107826127, -61283.11887778269, -65706.64086421023, -68521.15017427805, -58809.16074623594, -26157.55363196774, 3178.172192355656, 0.116, 0.966, 0.134, 192.0, 0.0, 0.0, 0.0, 0.0, 0.0, 0.0, 0.0, 0.0, 0.0, 1.7297103751837318E9, 0.0, 2024-10-24 00:36:15.183
63.0, -59141.352372330715, -61046.34684876762, -61287.902151096125, -65720.47659402808, -68539.85858438714, -58837.14513029398, -25934.572629281596, 3431.2386430786423, 0.116, 0.966, 0.134, 192.0, 0.0, 0.0, 0.0, 0.0, 0.0, 0.0, 0.0, 0.0, 0.0, 1.729710375187749E9, 0.0, 2024-10-24 00:36:15.187
64.0, -59173.00244247943, -61071.827837446675, -61310.700930440544, -65734.75935873501, -68557.29294506228, -58843.42597048593, -25758.95497309625, 3616.1322732129424, 0.108, 0.964, 0.138, 192.0, 3.0, 96.0, 30.0, 32.0, 4.0, 80.0, 0.0, 0.0, 0.0, 1.7297103751916356E9, 0.0, 2024-10-24 00:36:15.191
65.0, -59192.51551538891, -61071.693726979945, -61316.75825318793, -65723.762300463, -68545.69238968997, -58811.64178987048, -25944.18387939738, 3395.8558316058916, 0.108, 0.964, 0.138, 192.0, 0.0, 0.0, 0.0, 0.0, 0.0, 0.0, 0.0, 0.0, 0.0, 1.7297103751956627E9, 0.0, 2024-10-24 00:36:15.195
66.0, -59180.69144257205, -61049.453741246914, -61300.30736926883, -65699.17538156216, -68513.3717672076, -58779.61174006602, -26244.457214409977, 3074.594208549763, 0.108, 0.964, 0.138, 192.0, 0.0, 0.0, 0.0, 0.0, 0.0, 0.0, 0.0, 0.0, 0.0, 1.729710375200626E9, 0.0, 2024-10-24 00:36:15.200
67.0, -59141.66529675309, -61029.62774391506, -61275.65339513462, -65690.97229134706, -68519.69731088846, -58787.479554114296, -26279.482397971442, 3061.98782467697, 0.108, 0.964, 0.138, 192.0, 0.0, 0.0, 0.0, 0.0, 0.0, 0.0, 0.0, 0.0, 0.0, 1.7297103752037065E9, 0.0, 2024-10-24 00:36:15.203
68.0, -59147.70026775602, -61043.23995628834, -61291.70194765353, -65708.85368691132, -68551.83911941518, -58814.97219979432, -26043.87265966805, 3330.1640546517438, 0.108, 0.964, 0.138, 192.0, 0.0, 0.0, 0.0, 0.0, 0.0, 0.0, 0.0, 0.0, 0.0, 1.7297103752066553E9, 0.0, 2024-10-24 00:36:15.206
69.0, -59170.11906744469, -61064.60822398761, -61308.4210525061, -65722.93528591815, -68551.01210487033, -58826.93038307791, -25856.229764965745, 3527.641716914382, 0.108, 0.964, 0.138, 192.0, 0.0, 0.0, 0.0, 0.0, 0.0, 0.0, 0.0, 0.0, 0.0, 1.7297103752116232E9, 0.0, 2024-10-24 00:36:15.211
70.0, -59171.57193083429, -61058.685011706955, -61299.63681693516, -65711.04415786793, -68520.14434577756, -58800.30945543164, -26092.1077242026, 3256.8503328383367, 0.108, 0.964, 0.138, 192.0, 0.0, 0.0, 0.0, 0.0, 0.0, 0.0, 0.0, 0.0, 0.0, 1.7297103752157264E9, 0.0, 2024-10-24 00:36:15.215
71.0, -59163.25708189692, -61045.94451736743, -61294.048880821334, -65702.63990195273, -68512.56710440721, -58790.07235647111, -26412.78820190289, 2917.8190729402395, 0.108, 0.964, 0.138, 192.0, 0.0, 0.0, 0.0, 0.0, 0.0, 0.0, 0.0, 0.0, 0.0, 1.7297103752196572E9, 0.0, 2024-10-24 00:36:15.219
72.0, -59142.872290953674, -61039.529566708756, -61287.70098539603, -65710.12773634527, -68537.01991284131, -58806.94792353486, -26430.33432130031, 2923.474064287432, 0.108, 0.964, 0.138, 192.0, 0.0, 0.0, 0.0, 0.0, 0.0, 0.0, 0.0, 0.0, 0.0, 1.7297103752266452E9, 0.0, 2024-10-24 00:36:15.226
73.0, -59154.47284632598, -61051.264232547794, -61304.66595943761, -65730.78074822197, -68560.37748579711, -58834.6864384039, -26191.349469584165, 3195.427739075153, 0.108, 0.964, 0.138, 192.0, 0.0, 0.0, 0.0, 0.0, 0.0, 0.0, 0.0, 0.0, 0.0, 1.7297103752296758E9, 0.0, 2024-10-24 00:36:15.229
74.0, -59178.09864021524, -61068.65388973402, -61326.05657888134, -65746.96341120762, -68575.75548598236, -58848.74568566629, -26004.220665004334, 3392.212497259676, 0.114, 0.97, 0.138, 192.0, 3.0, 144.0, 30.0, 80.0, 4.0, 80.0, 0.0, 0.0, 0.0, 1.7297103752336495E9, 0.0, 2024-10-24 00:36:15.233
75.0, -59169.33675638876, -61052.04654360373, -61314.120747342204, -65726.73508247556, -68542.58549721069, -58819.10727251855, -26234.82361254974, 3128.014877797947, 0.114, 0.97, 0.138, 192.0, 0.0, 0.0, 0.0, 0.0, 0.0, 0.0, 0.0, 0.0, 0.0, 1.7297103752366743E9, 0.0, 2024-10-24 00:36:15.236
76.0, -59162.877102241175, -61043.06114233269, -61300.68734892456, -65714.37456779178, -68518.19974400995, -58801.53880137668, -26537.086252818855, 2804.5180802962877, 0.114, 0.97, 0.138, 192.0, 0.0, 0.0, 0.0, 0.0, 0.0, 0.0, 0.0, 0.0, 0.0, 1.7297103752406487E9, 0.0, 2024-10-24 00:36:15.240
77.0, -59140.61476476369, -61037.24968877431, -61289.93615984156, -65718.88962017174, -68537.04226458578, -58817.2297259843, -26568.19988110064, 2795.264458091791, 0.114, 0.97, 0.138, 192.0, 0.0, 0.0, 0.0, 0.0, 0.0, 0.0, 0.0, 0.0, 0.0, 1.7297103752436411E9, 0.0, 2024-10-24 00:36:15.243
78.0, -59147.6108607782, -61055.265194805295, -61303.59307570376, -65737.73214074757, -68562.00916314234, -58836.899261104976, -26339.63094230067, 3056.6234060076963, 0.114, 0.97, 0.138, 192.0, 0.0, 0.0, 0.0, 0.0, 0.0, 0.0, 0.0, 0.0, 0.0, 1.729710375247674E9, 0.0, 2024-10-24 00:36:15.247
79.0, -59174.99174773595, -61079.092154394646, -61320.222773578505, -65751.23259439858, -68572.1792068695, -58849.4385897444, -26154.290277277265, 3252.0223560359905, 0.114, 0.97, 0.138, 192.0, 0.0, 0.0, 0.0, 0.0, 0.0, 0.0, 0.0, 0.0, 0.0, 1.7297103752517073E9, 0.0, 2024-10-24 00:36:15.251
80.0, -59174.99174773595, -61071.13493336856, -61307.348168772245, -65732.4124255672, -68538.69629367546, -58826.37158946653, -26384.133265511187, 2987.668274363074, 0.114, 0.97, 0.138, 192.0, 0.0, 0.0, 0.0, 0.0, 0.0, 0.0, 0.0, 0.0, 0.0, 1.729710375255746E9, 0.0, 2024-10-24 00:36:15.255
81.0, -59173.494180857444, -61060.786075685755, -61298.407470990125, -65720.8118701949, -68520.36786322211, -58814.949848049866, -26689.23457732613, 2662.428040793901, 0.114, 0.97, 0.138, 192.0, 0.0, 0.0, 0.0, 0.0, 0.0, 0.0, 0.0, 0.0, 0.0, 1.729710375259848E9, 0.0, 2024-10-24 00:36:15.259
82.0, -59145.93447994405, -61046.4586074899, -61283.11887778269, -65713.6593119692, -68531.76725289432, -58804.7798043227, -26727.545467322525, 2645.172494074404, 0.114, 0.97, 0.138, 192.0, 0.0, 0.0, 0.0, 0.0, 0.0, 0.0, 0.0, 0.0, 0.0, 1.7297103752628112E9, 0.0, 2024-10-24 00:36:15.262
83.0, -59154.80812249281, -61061.255462319314, -61294.45121222153, -65729.08201564336, -68555.77302643932, -58820.87306033052, -26476.647135811705, 2928.0785236452252, 0.114, 0.97, 0.138, 192.0, 0.0, 0.0, 0.0, 0.0, 0.0, 0.0, 0.0, 0.0, 0.0, 1.7297103752676897E9, 0.0, 2024-10-24 00:36:15.267
84.0, -59189.922713032094, -61087.04937542074, -61320.222773578505, -65747.1198734188, -68569.27348009033, -58842.0401623297, -26283.90804337359, 3129.423037698631, 0.11800000000000001, 0.97, 0.14, 192.0, 3.0, 176.0, 30.0, 80.0, 4.0, 96.0, 0.0, 0.0, 0.0, 1.729710375271716E9, 0.0, 2024-10-24 00:36:15.271
85.0, -59192.940198533564, -61069.14562811204, -61314.65718920913, -65733.2170883676, -68545.69238968997, -58822.86236558705, -26486.280737671943, 2891.6228284386193, 0.11800000000000001, 0.97, 0.14, 192.0, 0.0, 0.0, 0.0, 0.0, 0.0, 0.0, 0.0, 0.0, 0.0, 1.7297103752757995E9, 0.0, 2024-10-24 00:36:15.275
86.0, -59169.940253489054, -61025.98440956884, -61289.17620053008, -65708.92074214468, -68511.20364799544, -58801.091766487574, -26786.86699710691, 2570.0929844490274, 0.11800000000000001, 0.97, 0.14, 192.0, 0.0, 0.0, 0.0, 0.0, 0.0, 0.0, 0.0, 0.0, 0.0, 1.729710375279781E9, 0.0, 2024-10-24 00:36:15.279
87.0, -59146.7614944889, -61014.09328151862, -61275.92161606808, -65705.72444268757, -68524.83821211317, -58808.244324713276, -26835.660855252845, 2543.2485393582033, 0.11800000000000001, 0.97, 0.14, 192.0, 0.0, 0.0, 0.0, 0.0, 0.0, 0.0, 0.0, 0.0, 0.0, 1.7297103752837825E9, 0.0, 2024-10-24 00:36:15.283
88.0, -59166.3639743762, -61045.16220631149, -61300.82145939129, -65735.5193180465, -68562.05386663126, -58844.40944724196, -26568.982192156578, 2843.097191226148, 0.11800000000000001, 0.97, 0.14, 192.0, 0.0, 0.0, 0.0, 0.0, 0.0, 0.0, 0.0, 0.0, 0.0, 1.7297103752877462E9, 0.0, 2024-10-24 00:36:15.287
89.0, -59180.40086989413, -61057.94740413993, -61305.112994326715, -65734.89346920175, -68560.48924451938, -58836.27341226023, -26374.633774117683, 3048.375612303688, 0.11800000000000001, 0.97, 0.14, 192.0, 0.0, 0.0, 0.0, 0.0, 0.0, 0.0, 0.0, 0.0, 0.0, 1.729710375290731E9, 0.0, 2024-10-24 00:36:15.290
90.0, -59190.30269268784, -61047.73265692385, -61299.458002979525, -65716.6097422373, -68536.48347097439, -58803.34929267756, -26591.64686103426, 2796.829080203662, 0.11800000000000001, 0.97, 0.14, 192.0, 0.0, 0.0, 0.0, 0.0, 0.0, 0.0, 0.0, 0.0, 0.0, 1.7297103752957232E9, 0.0, 2024-10-24 00:36:15.295
91.0, -59170.431991867066, -61023.41395895648, -61282.29186323784, -65696.9625588611, -68521.12782253358, -58783.79151627917, -26891.786085580123, 2476.170954247827, 0.11800000000000001, 0.97, 0.14, 192.0, 0.0, 0.0, 0.0, 0.0, 0.0, 0.0, 0.0, 0.0, 0.0, 1.7297103752997406E9, 0.0, 2024-10-24 00:36:15.299
92.0, -59141.10650314171, -61004.996121525306, -61268.210264231006, -65693.8109628929, -68529.64383717107, -58793.17924895039, -26925.403109240906, 2465.0621372535393, 0.11800000000000001, 0.97, 0.14, 192.0, 0.0, 0.0, 0.0, 0.0, 0.0, 0.0, 0.0, 0.0, 0.0, 1.7297103753038192E9, 0.0, 2024-10-24 00:36:15.303
93.0, -59154.13757015915, -61018.38481645403, -61285.84579060624, -65712.72053870208, -68550.07333160321, -58817.27442947322, -26687.334679047428, 2734.1771404954366, 0.11800000000000001, 0.97, 0.14, 192.0, 0.0, 0.0, 0.0, 0.0, 0.0, 0.0, 0.0, 0.0, 0.0, 1.7297103753078675E9, 0.0, 2024-10-24 00:36:15.307
94.0, -59181.20553269453, -61038.90371786401, -61306.67761643859, -65727.78561446496, -68562.21032884244, -58829.344371479085, -26494.327365675854, 2937.890939461105, 0.11800000000000001, 0.97, 0.14, 192.0, 0.0, 0.0, 0.0, 0.0, 0.0, 0.0, 0.0, 0.0, 0.0, 1.7297103753118725E9, 0.0, 2024-10-24 00:36:15.311
95.0, -59188.08986998676, -61032.801691627705, -61304.93418037107, -65716.96737014859, -68538.74099716438, -58808.60195262456, -26710.155810136297, 2685.964427705339, 0.116, 0.972, 0.136, 192.0, 3.0, 160.0, 30.0, 96.0, 4.0, 64.0, 0.0, 0.0, 0.0, 1.7297103753157866E9, 0.0, 2024-10-24 00:36:15.315
96.0, -59174.94704424704, -61018.94361006542, -61295.07706106628, -65706.39499502123, -68523.58651442367, -58791.83814428308, -27015.838267307077, 2359.047813302018, 0.116, 0.972, 0.136, 192.0, 0.0, 0.0, 0.0, 0.0, 0.0, 0.0, 0.0, 0.0, 0.0, 1.7297103753187747E9, 0.0, 2024-10-24 00:36:15.318
97.0, -59148.70609625651, -61012.08162451764, -61282.76124987141, -65711.78176543496, -68536.05878782974, -58805.1821357229, -27050.863450868543, 2347.5813683964457, 0.116, 0.972, 0.136, 192.0, 0.0, 0.0, 0.0, 0.0, 0.0, 0.0, 0.0, 0.0, 0.0, 1.7297103753227787E9, 0.0, 2024-10-24 00:36:15.322
98.0, -59172.80127677933, -61038.41197948599, -61305.22475304899, -65741.35312334933, -68564.80313119927, -58836.1393017935, -26821.623959734912, 2609.677923879376, 0.116, 0.972, 0.136, 192.0, 0.0, 0.0, 0.0, 0.0, 0.0, 0.0, 0.0, 0.0, 0.0, 1.729710375327748E9, 0.0, 2024-10-24 00:36:15.327
99.0, -59183.46305888451, -61051.979488370365, -61313.360788030725, -65750.53969032045, -68571.39689581358, -58833.390037225494, -26615.65263457926, 2823.539414827754, 0.116, 0.972, 0.136, 192.0, 0.0, 0.0, 0.0, 0.0, 0.0, 0.0, 0.0, 0.0, 0.0, 1.729710375331784E9, 0.0, 2024-10-24 00:36:15.331
100.0, -59185.09473622975, -61044.916337122486, -61303.41426174811, -65737.35216109183, -68547.97226762441, -58808.46784215783, -26832.59866626247, 2568.103679192505, 0.116, 0.972, 0.136, 192.0, 0.0, 0.0, 0.0, 0.0, 0.0, 0.0, 0.0, 0.0, 0.0, 1.7297103753357823E9, 0.0, 2024-10-24 00:36:15.335
101.0, -59175.77405879189, -61033.89692710602, -61286.73986038445, -65723.762300463, -68520.59138066666, -58794.028615239695, -27142.997341513317, 2236.403791475748, 0.116, 0.972, 0.136, 192.0, 0.0, 0.0, 0.0, 0.0, 0.0, 0.0, 0.0, 0.0, 0.0, 1.729710375339805E9, 0.0, 2024-10-24 00:36:15.339
102.0, -59157.915014972095, -61030.07477880416, -61277.843866091236, -65729.37258832129, -68536.30465701874, -58810.948885792364, -27180.257699520316, 2221.919861068709, 0.116, 0.972, 0.136, 192.0, 0.0, 0.0, 0.0, 0.0, 0.0, 0.0, 0.0, 0.0, 0.0, 1.729710375343793E9, 0.0, 2024-10-24 00:36:15.343
103.0, -59160.0607824398, -61042.63645918804, -61286.49399119544, -65743.87887047278, -68563.17145385403, -58831.847766858074, -26956.33792356705, 2480.373082205425, 0.116, 0.972, 0.136, 192.0, 0.0, 0.0, 0.0, 0.0, 0.0, 0.0, 0.0, 0.0, 0.0, 1.729710375346808E9, 0.0, 2024-10-24 00:36:15.346
104.0, -59183.53011411788, -61061.43427627496, -61299.74857565744, -65757.51343459051, -68573.2297388589, -58845.68349667591, -26762.01185727261, 2684.4221573379227, 0.116, 0.972, 0.136, 192.0, 0.0, 0.0, 0.0, 0.0, 0.0, 0.0, 0.0, 0.0, 0.0, 1.7297103753508017E9, 0.0, 2024-10-24 00:36:15.350
105.0, -59193.05195725584, -61061.14370359704, -61296.574627944785, -65746.69519027414, -68544.1277675781, -58823.77878710971, -26968.00553417272, 2441.7045642977437, 0.116, 0.968, 0.136, 192.0, 3.0, 160.0, 30.0, 64.0, 4.0, 64.0, 0.0, 0.0, 0.0, 1.7297103753563747E9, 0.0, 2024-10-24 00:36:15.356
106.0, -59176.176390192086, -61043.82110164418, -61278.067383535796, -65724.03052139646, -68518.57972366568, -58789.290045415175, -27278.717133845945, 2108.1718335356513, 0.116, 0.968, 0.136, 192.0, 0.0, 0.0, 0.0, 0.0, 0.0, 0.0, 0.0, 0.0, 0.0, 1.7297103753598633E9, 0.0, 2024-10-24 00:36:15.359
107.0, -59151.544767802334, -61034.2545550173, -61267.69617410853, -65725.2598673415, -68534.85179362915, -58806.63499911249, -27322.79477391181, 2084.9260193021323, 0.116, 0.968, 0.136, 192.0, 0.0, 0.0, 0.0, 0.0, 0.0, 0.0, 0.0, 0.0, 0.0, 1.7297103753638046E9, 0.0, 2024-10-24 00:36:15.363
108.0, -59167.88389299916, -61051.46539824789, -61285.30934873931, -65743.87887047278, -68560.93627940849, -58836.206357026866, -27056.809014893654, 2381.8465926464314, 0.116, 0.968, 0.136, 192.0, 0.0, 0.0, 0.0, 0.0, 0.0, 0.0, 0.0, 0.0, 0.0, 1.7297103753678155E9, 0.0, 2024-10-24 00:36:15.367
109.0, -59193.18606772257, -61069.592663001145, -61303.25779953692, -65753.62423105529, -68569.25112834587, -58847.27047053224, -26863.75699803317, 2582.2076299438036, 0.116, 0.968, 0.136, 192.0, 0.0, 0.0, 0.0, 0.0, 0.0, 0.0, 0.0, 0.0, 0.0, 1.7297103753718393E9, 0.0, 2024-10-24 00:36:15.371
110.0, -59203.31140796083, -61067.42454378898, -61299.301540768334, -65741.66604777171, -68544.17247106701, -58828.49500518978, -27074.176320335428, 2333.499769389602, 0.116, 0.968, 0.136, 192.0, 0.0, 0.0, 0.0, 0.0, 0.0, 0.0, 0.0, 0.0, 0.0, 1.7297103753758266E9, 0.0, 2024-10-24 00:36:15.375
111.0, -59185.34060541876, -61044.17872955546, -61280.68253763706, -65717.81673643789, -68521.59720916716, -58800.93530427639, -27393.22512069048, 1992.2333350459737, 0.116, 0.968, 0.136, 192.0, 0.0, 0.0, 0.0, 0.0, 0.0, 0.0, 0.0, 0.0, 0.0, 1.7297103753788624E9, 0.0, 2024-10-24 00:36:15.378
112.0, -59151.56711954679, -61021.69287463342, -61260.74478158293, -65710.7088817011, -68531.05199707174, -58812.44645267087, -27436.56515318932, 1971.9826545694657, 0.116, 0.968, 0.136, 192.0, 0.0, 0.0, 0.0, 0.0, 0.0, 0.0, 0.0, 0.0, 0.0, 1.729710375383855E9, 0.0, 2024-10-24 00:36:15.383
113.0, -59163.88293074167, -61034.768645139775, -61282.02364230438, -65730.19960286612, -68559.68458171899, -58839.64852567298, -27187.209092045916, 2253.6593381952453, 0.116, 0.968, 0.136, 192.0, 0.0, 0.0, 0.0, 0.0, 0.0, 0.0, 0.0, 0.0, 0.0, 1.7297103753878572E9, 0.0, 2024-10-24 00:36:15.387
114.0, -59196.80705032433, -61056.89687215053, -61321.94385790156, -65746.58343155187, -68583.22096863044, -58840.319078006636, -26986.19985415934, 2464.302177942059, 0.116, 0.968, 0.136, 192.0, 0.0, 0.0, 0.0, 0.0, 0.0, 0.0, 0.0, 0.0, 0.0, 1.7297103753919134E9, 0.0, 2024-10-24 00:36:15.391
115.0, -59217.46006220103, -61051.1077703366, -61334.058503396336, -65735.27344885748, -68561.1821485975, -58814.726330605314, -27191.366516514605, 2222.9927448025637, 0.12, 0.966, 0.138, 192.0, 3.0, 192.0, 30.0, 48.0, 4.0, 80.0, 0.0, 0.0, 0.0, 1.7297103753959212E9, 0.0, 2024-10-24 00:36:15.395
116.0, -59167.973299976984, -61008.93002854944, -61295.18881978856, -65695.66615768267, -68518.28915098777, -58773.37560336299, -27509.945930236096, 1881.2122203364636, 0.12, 0.966, 0.138, 192.0, 0.0, 0.0, 0.0, 0.0, 0.0, 0.0, 0.0, 0.0, 0.0, 1.7297103753998787E9, 0.0, 2024-10-24 00:36:15.399
117.0, -59143.8110642208, -60993.373214408544, -61288.527999940874, -65694.503866971, -68535.79056689628, -58788.03834772568, -27539.137308494726, 1873.590275477204, 0.12, 0.966, 0.138, 192.0, 0.0, 0.0, 0.0, 0.0, 0.0, 0.0, 0.0, 0.0, 0.0, 1.729710375402916E9, 0.0, 2024-10-24 00:36:15.402
118.0, -59157.60209054972, -61008.326531449144, -61314.09839559775, -65716.09565211483, -68571.01691615784, -58817.520298662224, -27287.657831628065, 2157.0103951704973, 0.12, 0.966, 0.138, 192.0, 0.0, 0.0, 0.0, 0.0, 0.0, 0.0, 0.0, 0.0, 0.0, 1.7297103754069424E9, 0.0, 2024-10-24 00:36:15.406
119.0, -59180.51262861641, -61024.33038047915, -61335.28784934138, -65726.35510281981, -68581.9916226854, -58826.63981039999, -27089.241396098307, 2364.211066271194, 0.12, 0.966, 0.138, 192.0, 0.0, 0.0, 0.0, 0.0, 0.0, 0.0, 0.0, 0.0, 0.0, 1.7297103754110196E9, 0.0, 2024-10-24 00:36:15.411
120.0, -59188.13457347567, -61015.52379316375, -61335.13138713019, -65710.50771600101, -68557.82938692921, -58799.840068798076, -27314.36816625216, 2104.5061474449813, 0.12, 0.966, 0.138, 192.0, 0.0, 0.0, 0.0, 0.0, 0.0, 0.0, 0.0, 0.0, 0.0, 1.7297103754160585E9, 0.0, 2024-10-24 00:36:15.416
121.0, -59181.9207885171, -61003.96794128036, -61326.25774458143, -65697.09666932782, -68539.99269485386, -58784.93145524639, -27619.067146666905, 1777.9024574640343, 0.12, 0.966, 0.138, 192.0, 0.0, 0.0, 0.0, 0.0, 0.0, 0.0, 0.0, 0.0, 0.0, 1.7297103754198844E9, 0.0, 2024-10-24 00:36:15.419
122.0, -59159.50198882842, -61000.391662167516, -61315.5736107318, -65698.48247748405, -68558.74580845187, -58796.889638529974, -27639.004902721037, 1779.3553208536293, 0.12, 0.966, 0.138, 192.0, 0.0, 0.0, 0.0, 0.0, 0.0, 0.0, 0.0, 0.0, 0.0, 1.7297103754238968E9, 0.0, 2024-10-24 00:36:15.423
123.0, -59176.22109368099, -61023.19044151193, -61334.43848305208, -65724.65637024121, -68584.7855907423, -58827.533880178205, -27388.75477179942, 2059.8250102788224, 0.12, 0.966, 0.138, 192.0, 0.0, 0.0, 0.0, 0.0, 0.0, 0.0, 0.0, 0.0, 0.0, 1.7297103754269896E9, 0.0, 2024-10-24 00:36:15.426
124.0, -59218.48824244598, -61051.264232547794, -61357.84075949679, -65746.89635597424, -68588.31716636625, -58844.14122630849, -27235.734729258387, 2220.1093697678293, 0.12, 0.966, 0.138, 192.0, 0.0, 0.0, 0.0, 0.0, 0.0, 0.0, 0.0, 0.0, 0.0, 1.7297103754309616E9, 0.0, 2024-10-24 00:36:15.430
125.0, -59184.78181180738, -61020.999970555305, -61319.26164856692, -65710.41830902318, -68538.71864541991, -58790.42998438239, -27461.643810468177, 1955.9788055394658, 0.126, 0.966, 0.14, 192.0, 3.0, 240.0, 30.0, 48.0, 4.0, 96.0, 0.0, 0.0, 0.0, 1.72971037543496E9, 0.0, 2024-10-24 00:36:15.434
126.0, -59177.495143114946, -61020.284714732734, -61312.33260778578, -65709.59129447833, -68535.45529072944, -58782.76333603422, -27732.524601522044, 1661.628682807527, 0.126, 0.966, 0.14, 192.0, 0.0, 0.0, 0.0, 0.0, 0.0, 0.0, 0.0, 0.0, 0.0, 1.7297103754399903E9, 0.0, 2024-10-24 00:36:15.439
127.0, -59160.88779698465, -61018.60833389859, -61301.02262509139, -65719.24724808303, -68546.09472109016, -58805.1821357229, -27751.63534303133, 1667.2389706658091, 0.126, 0.966, 0.14, 192.0, 0.0, 0.0, 0.0, 0.0, 0.0, 0.0, 0.0, 0.0, 0.0, 1.7297103754440541E9, 0.0, 2024-10-24 00:36:15.444
128.0, -59167.347451132235, -61037.920241107975, -61310.85739265173, -65740.97314369358, -68569.13936962359, -58826.55040342217, -27503.933310977616, 1949.809724069801, 0.126, 0.966, 0.14, 192.0, 0.0, 0.0, 0.0, 0.0, 0.0, 0.0, 0.0, 0.0, 0.0, 1.7297103754482396E9, 0.0, 2024-10-24 00:36:15.448
129.0, -59196.2706084574, -61062.75302919782, -61331.30923882833, -65756.52995783449, -68575.01787841534, -58836.765150638246, -27327.488640247422, 2133.7645809369783, 0.126, 0.966, 0.14, 192.0, 0.0, 0.0, 0.0, 0.0, 0.0, 0.0, 0.0, 0.0, 0.0, 1.7297103754520206E9, 0.0, 2024-10-24 00:36:15.452
130.0, -59194.01308226742, -61047.95617436841, -61316.221811321004, -65736.12281514678, -68538.4727762309, -58809.764243336234, -27561.690218650132, 1862.7943829052906, 0.126, 0.966, 0.14, 192.0, 0.0, 0.0, 0.0, 0.0, 0.0, 0.0, 0.0, 0.0, 0.0, 1.7297103754549737E9, 0.0, 2024-10-24 00:36:15.454
131.0, -59184.826515296285, -61035.48390096235, -61303.146040814645, -65722.17532660668, -68526.33577899168, -58796.30849317414, -27876.559242792042, 1526.4006288529192, 0.126, 0.966, 0.14, 192.0, 0.0, 0.0, 0.0, 0.0, 0.0, 0.0, 0.0, 0.0, 0.0, 1.7297103754589694E9, 0.0, 2024-10-24 00:36:15.458
132.0, -59160.61957605119, -61027.21375551388, -61291.7690028869, -65725.84101269735, -68546.51940423482, -58816.69328411738, -27886.461065585743, 1539.6775650593718, 0.126, 0.966, 0.14, 192.0, 0.0, 0.0, 0.0, 0.0, 0.0, 0.0, 0.0, 0.0, 0.0, 1.729710375463082E9, 0.0, 2024-10-24 00:36:15.463
133.0, -59173.60593957972, -61041.92120336548, -61309.22571530649, -65744.99645769554, -68569.76521846834, -58834.82054887063, -27632.94757997365, 1826.3386876986847, 0.126, 0.966, 0.14, 192.0, 0.0, 0.0, 0.0, 0.0, 0.0, 0.0, 0.0, 0.0, 0.0, 1.7297103754670544E9, 0.0, 2024-10-24 00:36:15.467
134.0, -59199.578666636786, -61056.82981691716, -61327.42003529311, -65756.19468166765, -68578.32593659472, -58845.68349667591, -27453.172499319615, 2016.1497016131523, 0.126, 0.966, 0.14, 192.0, 0.0, 0.0, 0.0, 0.0, 0.0, 0.0, 0.0, 0.0, 0.0, 1.7297103754720275E9, 0.0, 2024-10-24 00:36:15.472
135.0, -59206.30654171784, -61043.35171501061, -61324.402549791645, -65739.14030064826, -68557.71762820693, -58820.09074927458, -27673.113664759836, 1759.3728613105848, 0.11800000000000001, 0.966, 0.138, 192.0, 3.0, 176.0, 30.0, 48.0, 4.0, 80.0, 0.0, 0.0, 0.0, 1.7297103754761267E9, 0.0, 2024-10-24 00:36:15.476
136.0, -59187.64283509766, -61018.07189203166, -61309.78450891787, -65719.44841378313, -68538.69629367546, -58802.32111243262, -27979.82430217556, 1432.8809300519144, 0.11800000000000001, 0.966, 0.138, 192.0, 0.0, 0.0, 0.0, 0.0, 0.0, 0.0, 0.0, 0.0, 0.0, 1.729710375480142E9, 0.0, 2024-10-24 00:36:15.480
137.0, -59162.7653435189, -61001.12926973454, -61296.95460760053, -65716.96737014859, -68547.21230831294, -58815.75451085025, -28015.050651437123, 1420.8109880460488, 0.11800000000000001, 0.966, 0.138, 192.0, 0.0, 0.0, 0.0, 0.0, 0.0, 0.0, 0.0, 0.0, 0.0, 1.7297103754831295E9, 0.0, 2024-10-24 00:36:15.483
138.0, -59164.17350341958, -61013.28861871822, -61309.9186193846, -65734.64760001273, -68575.64372726009, -58838.06155181665, -27748.86372671887, 1718.6032794241048, 0.11800000000000001, 0.966, 0.138, 192.0, 0.0, 0.0, 0.0, 0.0, 0.0, 0.0, 0.0, 0.0, 0.0, 1.729710375487108E9, 0.0, 2024-10-24 00:36:15.487
139.0, -59191.04030025486, -61031.86291836059, -61334.10320688525, -65750.47263508709, -68588.04894543278, -58848.432761243916, -27542.624180629755, 1934.744648306924, 0.11800000000000001, 0.966, 0.138, 192.0, 0.0, 0.0, 0.0, 0.0, 0.0, 0.0, 0.0, 0.0, 0.0, 1.7297103754909945E9, 0.0, 2024-10-24 00:36:15.490
140.0, -59189.22980895398, -61017.222525742356, -61327.46473878202, -65734.4687860571, -68562.29973582027, -58822.21416499784, -27781.184349201245, 1661.3381101296081, 0.11800000000000001, 0.966, 0.138, 192.0, 0.0, 0.0, 0.0, 0.0, 0.0, 0.0, 0.0, 0.0, 0.0, 1.729710375495015E9, 0.0, 2024-10-24 00:36:15.495
141.0, -59181.56316060581, -61003.900886047, -61321.63093347919, -65724.85753594131, -68549.87216590311, -58807.61847586853, -28072.94166957637, 1347.9443011217477, 0.11800000000000001, 0.966, 0.138, 192.0, 0.0, 0.0, 0.0, 0.0, 0.0, 0.0, 0.0, 0.0, 0.0, 1.7297103754990325E9, 0.0, 2024-10-24 00:36:15.499
142.0, -59167.43685811006, -61001.75511857928, -61319.35105554474, -65732.74770173403, -68570.34636382418, -58823.21999349833, -28079.42367546841, 1363.9928536406583, 0.11800000000000001, 0.966, 0.138, 192.0, 0.0, 0.0, 0.0, 0.0, 0.0, 0.0, 0.0, 0.0, 0.0, 1.72971037550401E9, 0.0, 2024-10-24 00:36:15.504
143.0, -59186.011157752415, -61021.24583974431, -61342.373352333714, -65752.90897523273, -68599.78361127182, -58847.47163623234, -27829.128841057878, 1643.724935498826, 0.11800000000000001, 0.966, 0.138, 192.0, 0.0, 0.0, 0.0, 0.0, 0.0, 0.0, 0.0, 0.0, 0.0, 1.7297103755080504E9, 0.0, 2024-10-24 00:36:15.508
144.0, -59228.74769315097, -61044.71517142239, -61370.78241953641, -65765.4706556166, -68609.70778580998, -58853.394848512995, -27637.28381839798, 1840.979080316911, 0.11800000000000001, 0.966, 0.138, 192.0, 0.0, 0.0, 0.0, 0.0, 0.0, 0.0, 0.0, 0.0, 0.0, 1.7297103755111392E9, 0.0, 2024-10-24 00:36:15.511
145.0, -59209.05580628584, -61021.37995021105, -61350.554090804355, -65734.267620357, -68574.39202957059, -58815.06160677214, -27875.46400731373, 1563.571579882095, 0.12, 0.968, 0.14200000000000002, 192.0, 3.0, 192.0, 30.0, 64.0, 4.0, 112.0, 0.0, 0.0, 0.0, 1.7297103755151436E9, 0.0, 2024-10-24 00:36:15.515
146.0, -59199.55631489233, -61003.096223246604, -61334.192613863066, -65715.40274803672, -68552.44261651547, -58793.15689720594, -28176.00556325979, 1242.8911021818046, 0.12, 0.968, 0.14200000000000002, 192.0, 0.0, 0.0, 0.0, 0.0, 0.0, 0.0, 0.0, 0.0, 0.0, 1.7297103755190773E9, 0.0, 2024-10-24 00:36:15.519
147.0, -59178.389212893155, -60996.56951386565, -61322.14502360166, -65719.47076552759, -68568.17824461202, -58810.56890613663, -28188.54489189922, 1254.7822302320278, 0.12, 0.968, 0.14200000000000002, 192.0, 0.0, 0.0, 0.0, 0.0, 0.0, 0.0, 0.0, 0.0, 0.0, 1.729710375523107E9, 0.0, 2024-10-24 00:36:15.523
148.0, -59183.44070714006, -61004.638493614024, -61335.600773763756, -65732.8147569674, -68596.96729147044, -58831.847766858074, -27935.67960687633, 1540.0575447151118, 0.12, 0.968, 0.14200000000000002, 192.0, 0.0, 0.0, 0.0, 0.0, 0.0, 0.0, 0.0, 0.0, 0.0, 1.7297103755271227E9, 0.0, 2024-10-24 00:36:15.527
