%OpenBCI Raw EXG Data
%Number of channels = 8
%Sample Rate = 250 Hz
%Board = OpenBCI_GUI$BoardCytonSerial
Sample Index, EXG Channel 0, EXG Channel 1, EXG Channel 2, EXG Channel 3, EXG Channel 4, EXG Channel 5, EXG Channel 6, EXG Channel 7, Accel Channel 0, Accel Channel 1, Accel Channel 2, Other, Other, Other, Other, Other, Other, Other, Analog Channel 0, Analog Channel 1, Analog Channel 2, Timestamp, Other, Timestamp (Formatted)
0.0, 0.0, 0.0, 0.0, 0.0, 0.0, 0.0, 0.0, 0.0, 0.0, 0.0, 0.0, 192.0, 0.0, 0.0, 0.0, 0.0, 0.0, 0.0, 0.0, 0.0, 0.0, 1.7297110309149556E9, 0.0, 2024-10-24 00:47:10.914
1.0, -48031.84247396499, -50580.746004670385, -47254.91818844297, -55354.13984705685, -55230.80292115247, -48241.07715381112, 11900.582838127952, 40344.205837751135, 0.11800000000000001, 0.968, 0.146, 192.0, 3.0, 176.0, 30.0, 64.0, 4.0, 144.0, 0.0, 0.0, 0.0, 1.7297110309321046E9, 0.0, 2024-10-24 00:47:10.932
2.0, -48013.49169176718, -50556.02497530282, -47229.88423465303, -55328.41298918879, -55183.59603686286, -48215.082075009595, 11585.91497968614, 39993.37285678063, 0.11800000000000001, 0.968, 0.146, 192.0, 0.0, 0.0, 0.0, 0.0, 0.0, 0.0, 0.0, 0.0, 0.0, 1.7297110309351032E9, 0.0, 2024-10-24 00:47:10.935
3.0, -47990.469394978216, -50542.34570769617, -47219.378914759036, -55322.22155597468, -55185.384176419284, -48211.796368574665, 11467.204864884003, 39863.24100056184, 0.11800000000000001, 0.968, 0.146, 192.0, 0.0, 0.0, 0.0, 0.0, 0.0, 0.0, 0.0, 0.0, 0.0, 1.729711030939057E9, 0.0, 2024-10-24 00:47:10.939
4.0, -48001.086473594485, -50562.95401608396, -47239.67429872445, -55345.78029463057, -55214.66496165573, -48241.88181661151, 11764.840694050872, 40184.21205094005, 0.11800000000000001, 0.968, 0.146, 192.0, 0.0, 0.0, 0.0, 0.0, 0.0, 0.0, 0.0, 0.0, 0.0, 1.7297110309431093E9, 0.0, 2024-10-24 00:47:10.943
5.0, -48030.00963091965, -50585.2387053059, -47264.77530774776, -55364.354594272925, -55235.161511321254, -48263.33949128861, 12055.726296392239, 40495.50479596911, 0.11800000000000001, 0.968, 0.146, 192.0, 0.0, 0.0, 0.0, 0.0, 0.0, 0.0, 0.0, 0.0, 0.0, 1.72971103094622E9, 0.0, 2024-10-24 00:47:10.946
6.0, -48037.653927523366, -50578.510830224855, -47259.8579239676, -55348.708373154215, -55222.68923791519, -48236.65150840897, 11925.393274473343, 40337.142686503255, 0.11800000000000001, 0.968, 0.146, 192.0, 0.0, 0.0, 0.0, 0.0, 0.0, 0.0, 0.0, 0.0, 0.0, 1.7297110309500015E9, 0.0, 2024-10-24 00:47:10.950
7.0, -48014.20694758975, -50558.86364684864, -47237.9979178903, -55327.47421592167, -55194.0790050124, -48210.41056041844, 11624.650552827186, 40002.268851073844, 0.11800000000000001, 0.968, 0.146, 192.0, 0.0, 0.0, 0.0, 0.0, 0.0, 0.0, 0.0, 0.0, 0.0, 1.7297110309541173E9, 0.0, 2024-10-24 00:47:10.954
8.0, -47989.37415949991, -50547.84423683217, -47222.239938049315, -55323.83088157546, -55187.79816482046, -48208.46595865083, 11515.775205585385, 39882.88818393805, 0.108, 0.966, 0.148, 192.0, 3.0, 96.0, 30.0, 48.0, 4.0, 160.0, 0.0, 0.0, 0.0, 1.729711030958115E9, 0.0, 2024-10-24 00:47:10.958
9.0, -47994.02332234661, -50559.3330334822, -47237.05914462318, -55344.72976264117, -55218.956496591156, -48235.51156944175, 11799.374139234322, 40189.10708297576, 0.108, 0.966, 0.148, 192.0, 0.0, 0.0, 0.0, 0.0, 0.0, 0.0, 0.0, 0.0, 0.0, 1.7297110309620523E9, 0.0, 2024-10-24 00:47:10.962
10.0, -48019.10197962546, -50578.30966452476, -47258.87444721156, -55366.47800999618, -55237.530796233514, -48263.02656686623, 12095.668863733872, 40503.21614780619, 0.108, 0.966, 0.148, 192.0, 0.0, 0.0, 0.0, 0.0, 0.0, 0.0, 0.0, 0.0, 0.0, 1.7297110309670324E9, 0.0, 2024-10-24 00:47:10.967
11.0, -48035.55286354457, -50576.901504624075, -47254.87348495406, -55353.066963323, -55205.098415028864, -48235.9362525864, 11973.404821563343, 40349.570256420404, 0.108, 0.966, 0.148, 192.0, 0.0, 0.0, 0.0, 0.0, 0.0, 0.0, 0.0, 0.0, 0.0, 1.729711030971133E9, 0.0, 2024-10-24 00:47:10.971
12.0, -48006.58500273049, -50549.92294906652, -47223.983374116826, -55324.27791646456, -55173.73891755807, -48199.212336446326, 11661.93326257864, 40001.26302257336, 0.108, 0.966, 0.148, 192.0, 0.0, 0.0, 0.0, 0.0, 0.0, 0.0, 0.0, 0.0, 0.0, 1.7297110309741416E9, 0.0, 2024-10-24 00:47:10.974
13.0, -47976.49955469365, -50533.51676863632, -47211.51110071076, -55318.555869884, -55178.54454261596, -48200.01699924672, 11556.120104327216, 39883.60343976062, 0.108, 0.966, 0.148, 192.0, 0.0, 0.0, 0.0, 0.0, 0.0, 0.0, 0.0, 0.0, 0.0, 1.729711030978135E9, 0.0, 2024-10-24 00:47:10.978
14.0, -47979.49468845066, -50543.64210887458, -47224.475112494845, -55337.443093948736, -55206.05954004044, -48227.48729318229, 11831.694761716695, 40182.06628347233, 0.108, 0.966, 0.148, 192.0, 0.0, 0.0, 0.0, 0.0, 0.0, 0.0, 0.0, 0.0, 0.0, 1.7297110309830344E9, 0.0, 2024-10-24 00:47:10.983
15.0, -48012.44115977778, -50568.5866556867, -47255.365223332075, -55362.3652890164, -55234.75917992106, -48253.48237198382, 12135.49967235323, 40504.69136294024, 0.108, 0.966, 0.148, 192.0, 0.0, 0.0, 0.0, 0.0, 0.0, 0.0, 0.0, 0.0, 0.0, 1.7297110309872284E9, 0.0, 2024-10-24 00:47:10.987
16.0, -48025.11459888394, -50562.93166433951, -47251.40896456349, -55346.808474875514, -55207.758272619045, -48228.87310133852, 12001.90329574386, 40341.25540748303, 0.108, 0.966, 0.148, 192.0, 0.0, 0.0, 0.0, 0.0, 0.0, 0.0, 0.0, 0.0, 0.0, 1.7297110309901536E9, 0.0, 2024-10-24 00:47:10.990
17.0, -48008.79782543157, -50541.943376295974, -47234.533397499734, -55325.03787577604, -55185.69710084166, -48203.056836492644, 11701.428795031166, 40006.11335112016, 0.108, 0.966, 0.148, 192.0, 0.0, 0.0, 0.0, 0.0, 0.0, 0.0, 0.0, 0.0, 0.0, 1.7297110309941707E9, 0.0, 2024-10-24 00:47:10.994
18.0, -47990.469394978216, -50531.728629079895, -47227.470246251854, -55323.36149494189, -55189.20632472114, -48207.63894410598, 11625.790491794407, 39920.23794892287, 0.106, 0.972, 0.152, 192.0, 3.0, 80.0, 30.0, 96.0, 4.0, 192.0, 0.0, 0.0, 0.0, 1.729711030998215E9, 0.0, 2024-10-24 00:47:10.998
19.0, -47994.1797845578, -50541.67515536251, -47236.567406245165, -55335.25262299212, -55206.12659527381, -48225.25211873676, 11910.752881855116, 40227.172103783145, 0.106, 0.972, 0.152, 192.0, 0.0, 0.0, 0.0, 0.0, 0.0, 0.0, 0.0, 0.0, 0.0, 1.7297110310021973E9, 0.0, 2024-10-24 00:47:11.002
20.0, -48008.61901147592, -50559.28832999329, -47252.705365741895, -55351.12236155538, -55229.95355486317, -48244.586377690604, 12175.621053650506, 40510.99455487663, 0.106, 0.972, 0.152, 192.0, 0.0, 0.0, 0.0, 0.0, 0.0, 0.0, 0.0, 0.0, 0.0, 1.7297110310060945E9, 0.0, 2024-10-24 00:47:11.006
21.0, -48019.12433136992, -50555.42147820252, -47244.72579297135, -55338.42657070477, -55191.329740444395, -48230.16950251693, 12035.922650804836, 40340.160172004726, 0.106, 0.972, 0.152, 192.0, 0.0, 0.0, 0.0, 0.0, 0.0, 0.0, 0.0, 0.0, 0.0, 1.7297110310111556E9, 0.0, 2024-10-24 00:47:11.011
22.0, -47995.05150259155, -50531.90744303554, -47218.12721706954, -55310.397483157816, -55161.71367904111, -48194.98785674428, 11727.267411621502, 39992.411731769054, 0.106, 0.972, 0.152, 192.0, 0.0, 0.0, 0.0, 0.0, 0.0, 0.0, 0.0, 0.0, 0.0, 1.729711031015175E9, 0.0, 2024-10-24 00:47:11.015
23.0, -47961.90386556433, -50510.94150673646, -47205.20790877437, -55297.36641614037, -55171.9731297461, -48181.68856879337, 11633.948878520594, 39887.358532829116, 0.106, 0.972, 0.152, 192.0, 0.0, 0.0, 0.0, 0.0, 0.0, 0.0, 0.0, 0.0, 0.0, 1.7297110310181863E9, 0.0, 2024-10-24 00:47:11.018
24.0, -47970.21871450171, -50521.0221434858, -47225.860920651074, -55317.2594687056, -55202.997351050064, -48212.64573486397, 11900.716948594683, 40176.344236891775, 0.106, 0.972, 0.152, 192.0, 0.0, 0.0, 0.0, 0.0, 0.0, 0.0, 0.0, 0.0, 0.0, 1.7297110310221617E9, 0.0, 2024-10-24 00:47:11.022
25.0, -47996.772586914616, -50544.64793737506, -47246.424525549955, -55338.91830908279, -55218.91179310224, -48235.22099676383, 12187.154553789444, 40479.99268531713, 0.106, 0.972, 0.152, 192.0, 0.0, 0.0, 0.0, 0.0, 0.0, 0.0, 0.0, 0.0, 0.0, 1.7297110310262692E9, 0.0, 2024-10-24 00:47:11.026
26.0, -48017.02326739112, -50554.21448400194, -47252.68301399744, -55337.97953581566, -55215.49197620058, -48226.72733387081, 12059.123761549445, 40319.864788039304, 0.106, 0.972, 0.152, 192.0, 0.0, 0.0, 0.0, 0.0, 0.0, 0.0, 0.0, 0.0, 0.0, 1.7297110310301454E9, 0.0, 2024-10-24 00:47:11.030
27.0, -47999.2312788047, -50538.81413207223, -47233.75108644379, -55321.55100364101, -55183.95366477414, -48212.31045869714, 11763.723106828107, 39987.3378857777, 0.106, 0.972, 0.152, 192.0, 0.0, 0.0, 0.0, 0.0, 0.0, 0.0, 0.0, 0.0, 0.0, 1.7297110310342028E9, 0.0, 2024-10-24 00:47:11.034
28.0, -47966.01658654411, -50516.3729806391, -47212.382818744525, -55308.8552127904, -55173.18012394669, -48203.43681614838, 11655.674774131152, 39865.677340707465, 0.10400000000000001, 0.972, 0.148, 192.0, 3.0, 64.0, 30.0, 96.0, 4.0, 160.0, 0.0, 0.0, 0.0, 1.729711031039112E9, 0.0, 2024-10-24 00:47:11.039
29.0, -47976.611313415924, -50532.10860873564, -47227.69376369641, -55329.08354152245, -55199.42107193721, -48223.41927569143, 11951.1201323414, 40181.77571079442, 0.10400000000000001, 0.972, 0.148, 192.0, 0.0, 0.0, 0.0, 0.0, 0.0, 0.0, 0.0, 0.0, 0.0, 1.7297110310432303E9, 0.0, 2024-10-24 00:47:11.043
30.0, -48001.06412185003, -50547.464257176434, -47245.91043542748, -55344.55094868552, -55215.804900622956, -48243.15586604546, 12240.32935384862, 40488.1063685544, 0.10400000000000001, 0.972, 0.148, 192.0, 0.0, 0.0, 0.0, 0.0, 0.0, 0.0, 0.0, 0.0, 0.0, 1.7297110310461392E9, 0.0, 2024-10-24 00:47:11.046
31.0, -48009.915412654336, -50542.636280374085, -47238.75787720179, -55330.3575909564, -55196.090662013376, -48221.228804734805, 12096.138250367434, 40311.95227050212, 0.10400000000000001, 0.972, 0.148, 192.0, 0.0, 0.0, 0.0, 0.0, 0.0, 0.0, 0.0, 0.0, 0.0, 1.7297110310502093E9, 0.0, 2024-10-24 00:47:11.050
32.0, -47980.679330906794, -50515.590669583165, -47211.958135599874, -55303.93782901023, -55176.91286527072, -48192.35035089855, 11796.66957815523, 39975.7373304054, 0.10400000000000001, 0.972, 0.148, 192.0, 0.0, 0.0, 0.0, 0.0, 0.0, 0.0, 0.0, 0.0, 0.0, 1.729711031054156E9, 0.0, 2024-10-24 00:47:11.054
33.0, -47957.70173760674, -50502.96193396592, -47205.23026051882, -55304.921305766264, -55192.939066045175, -48200.128757968996, 11711.17415561368, 39880.787119959256, 0.10400000000000001, 0.972, 0.148, 192.0, 0.0, 0.0, 0.0, 0.0, 0.0, 0.0, 0.0, 0.0, 0.0, 1.7297110310581357E9, 0.0, 2024-10-24 00:47:11.058
34.0, -47970.28576973508, -50521.35741965263, -47222.3964002605, -55329.7093903672, -55215.29081050048, -48224.73802861429, 12015.09082497249, 40206.764961095454, 0.10400000000000001, 0.972, 0.148, 192.0, 0.0, 0.0, 0.0, 0.0, 0.0, 0.0, 0.0, 0.0, 0.0, 1.7297110310621471E9, 0.0, 2024-10-24 00:47:11.062
35.0, -47988.860069377435, -50538.300041949755, -47236.209778333876, -55345.847349863936, -55214.15087153326, -48241.725354400325, 12309.597409915616, 40516.1131043569, 0.10400000000000001, 0.972, 0.148, 192.0, 0.0, 0.0, 0.0, 0.0, 0.0, 0.0, 0.0, 0.0, 0.0, 1.729711031067244E9, 0.0, 2024-10-24 00:47:11.067
36.0, -47993.196307801765, -50511.589707325664, -47224.83274040613, -55331.6092886459, -55191.28503695549, -48219.44066517838, 12141.668753822894, 40315.685011826165, 0.10400000000000001, 0.972, 0.148, 192.0, 0.0, 0.0, 0.0, 0.0, 0.0, 0.0, 0.0, 0.0, 0.0, 1.7297110310701528E9, 0.0, 2024-10-24 00:47:11.070
37.0, -47980.031130317584, -50469.859000427605, -47211.57815594413, -55315.359570426896, -55183.90896128523, -48195.74781605576, 11833.527604762032, 39969.74706289137, 0.10400000000000001, 0.972, 0.148, 192.0, 0.0, 0.0, 0.0, 0.0, 0.0, 0.0, 0.0, 0.0, 0.0, 1.7297110310742338E9, 0.0, 2024-10-24 00:47:11.074
38.0, -47953.85723756042, -50453.229302552856, -47197.42950170392, -55310.06220699099, -55169.805010533935, -48194.83139453309, 11734.956411714127, 39862.101061594614, 0.1, 0.966, 0.14400000000000002, 192.0, 3.0, 32.0, 30.0, 48.0, 4.0, 128.0, 0.0, 0.0, 0.0, 1.729711031078184E9, 0.0, 2024-10-24 00:47:11.078
39.0, -47965.100165021446, -50470.4624975279, -47214.64034493451, -55333.35272471342, -55189.720414843614, -48224.35804895855, 12025.86436579995, 40177.03714096989, 0.1, 0.966, 0.14400000000000002, 192.0, 0.0, 0.0, 0.0, 0.0, 0.0, 0.0, 0.0, 0.0, 0.0, 1.729711031082167E9, 0.0, 2024-10-24 00:47:11.082
40.0, -47987.943647854765, -50485.14759363504, -47231.62767072054, -55342.33812598445, -55209.41230170874, -48232.40467696246, 12314.447738462417, 40482.49608069612, 0.1, 0.966, 0.14400000000000002, 192.0, 0.0, 0.0, 0.0, 0.0, 0.0, 0.0, 0.0, 0.0, 0.0, 1.7297110310861983E9, 0.0, 2024-10-24 00:47:11.086
41.0, -47991.74344441217, -50472.518858017786, -47219.82594964814, -55319.65110536231, -55179.88564728328, -48204.64381034897, 12159.97483253179, 40296.104883683314, 0.1, 0.966, 0.14400000000000002, 192.0, 0.0, 0.0, 0.0, 0.0, 0.0, 0.0, 0.0, 0.0, 0.0, 1.729711031090156E9, 0.0, 2024-10-24 00:47:11.090
42.0, -47971.60452265794, -50448.043697839224, -47191.93097256792, -55293.45486086069, -55142.66999276519, -48177.03940594666, 11838.087360630914, 39938.4769723984, 0.1, 0.966, 0.14400000000000002, 192.0, 0.0, 0.0, 0.0, 0.0, 0.0, 0.0, 0.0, 0.0, 0.0, 1.7297110310941904E9, 0.0, 2024-10-24 00:47:11.094
43.0, -47949.319833436, -50438.14187504553, -47185.20309748687, -55293.07488120495, -55154.24819639304, -48181.15212692644, 11738.666801293708, 39830.11571527907, 0.1, 0.966, 0.14400000000000002, 192.0, 0.0, 0.0, 0.0, 0.0, 0.0, 0.0, 0.0, 0.0, 0.0, 1.7297110310992908E9, 0.0, 2024-10-24 00:47:11.099
44.0, -47962.86499057591, -50458.92899738896, -47211.26523152176, -55321.26043096309, -55193.028473023, -48219.17244424492, 12049.62427015594, 40161.256809384446, 0.1, 0.966, 0.14400000000000002, 192.0, 0.0, 0.0, 0.0, 0.0, 0.0, 0.0, 0.0, 0.0, 0.0, 1.7297110311022496E9, 0.0, 2024-10-24 00:47:11.102
45.0, -47986.53548795408, -50474.4634597854, -47229.59366197511, -55334.69382938073, -55206.81949935192, -48227.174368759916, 12334.050218349723, 40460.591371129914, 0.1, 0.966, 0.14400000000000002, 192.0, 0.0, 0.0, 0.0, 0.0, 0.0, 0.0, 0.0, 0.0, 0.0, 1.7297110311062238E9, 0.0, 2024-10-24 00:47:11.106
46.0, -48001.35469452795, -50466.32742480367, -47224.117484583556, -55319.58405012895, -55181.58437986188, -48204.71086558233, 12176.068088539612, 40269.819232203874, 0.1, 0.966, 0.14400000000000002, 192.0, 0.0, 0.0, 0.0, 0.0, 0.0, 0.0, 0.0, 0.0, 0.0, 1.729711031110319E9, 0.0, 2024-10-24 00:47:11.110
47.0, -47977.5724384275, -50440.60056693561, -47206.705475652874, -55296.74056729562, -55175.750574559046, -48180.23570540377, 11861.355526608888, 39918.315698899714, 0.1, 0.966, 0.14400000000000002, 192.0, 0.0, 0.0, 0.0, 0.0, 0.0, 0.0, 0.0, 0.0, 0.0, 1.7297110311142578E9, 0.0, 2024-10-24 00:47:11.114
48.0, -47959.6686911188, -50432.12925578705, -47199.2399930048, -55299.17690744125, -55171.59315009036, -48190.18223168638, 11781.872723325816, 39829.109886778584, 0.096, 0.962, 0.15, 192.0, 3.0, 0.0, 30.0, 16.0, 4.0, 176.0, 0.0, 0.0, 0.0, 1.7297110311182263E9, 0.0, 2024-10-24 00:47:11.118
49.0, -47967.737670867165, -50441.6063954361, -47207.554841942176, -55313.83965180393, -55179.68448158318, -48210.52231914071, 12080.313215293076, 40149.924474945605, 0.096, 0.962, 0.15, 192.0, 0.0, 0.0, 0.0, 0.0, 0.0, 0.0, 0.0, 0.0, 0.0, 1.7297110311222813E9, 0.0, 2024-10-24 00:47:11.122
50.0, -47988.27892402159, -50452.111715330095, -47225.61505146206, -55324.52378565357, -55204.09258652837, -48224.3356972141, 12354.770285459792, 40440.72067030915, 0.096, 0.962, 0.15, 192.0, 0.0, 0.0, 0.0, 0.0, 0.0, 0.0, 0.0, 0.0, 0.0, 1.7297110311272461E9, 0.0, 2024-10-24 00:47:11.127
51.0, -47991.96696185672, -50440.7570291468, -47218.21662404736, -55306.48592787814, -55183.9760165186, -48199.838185291075, 12195.469402726818, 40247.69100519312, 0.096, 0.962, 0.15, 192.0, 0.0, 0.0, 0.0, 0.0, 0.0, 0.0, 0.0, 0.0, 0.0, 1.7297110311304357E9, 0.0, 2024-10-24 00:47:11.130
52.0, -47971.29159823556, -50419.56757540317, -47192.6909318794, -55286.414061357274, -55152.30359462543, -48181.68856879337, 11887.663529832786, 39903.69765802594, 0.096, 0.962, 0.15, 192.0, 0.0, 0.0, 0.0, 0.0, 0.0, 0.0, 0.0, 0.0, 0.0, 1.7297110311342072E9, 0.0, 2024-10-24 00:47:11.134
53.0, -47950.83975205896, -50410.53747064322, -47184.01845503074, -55286.056433445985, -55160.506684840526, -48190.15987994193, 11782.833848337395, 39789.83787177061, 0.096, 0.962, 0.15, 192.0, 0.0, 0.0, 0.0, 0.0, 0.0, 0.0, 0.0, 0.0, 0.0, 1.7297110311382232E9, 0.0, 2024-10-24 00:47:11.138
54.0, -47962.68617662027, -50427.59185166262, -47204.24678376279, -55308.45288139021, -55196.8282695804, -48216.49023491028, 12066.879816875437, 40097.353171986724, 0.096, 0.962, 0.15, 192.0, 0.0, 0.0, 0.0, 0.0, 0.0, 0.0, 0.0, 0.0, 0.0, 1.7297110311423564E9, 0.0, 2024-10-24 00:47:11.142
55.0, -47981.46164196273, -50444.780343148755, -47217.613126947064, -55322.31096295249, -55204.94195281767, -48221.69819136837, 12377.25614038183, 40425.11915267935, 0.096, 0.962, 0.15, 192.0, 0.0, 0.0, 0.0, 0.0, 0.0, 0.0, 0.0, 0.0, 0.0, 1.7297110311462493E9, 0.0, 2024-10-24 00:47:11.146
56.0, -47988.368330999416, -50434.18561627694, -47207.554841942176, -55303.28962842103, -55180.8244205504, -48192.842089276564, 12225.867775186036, 40240.69490917861, 0.096, 0.962, 0.15, 192.0, 0.0, 0.0, 0.0, 0.0, 0.0, 0.0, 0.0, 0.0, 0.0, 1.7297110311502845E9, 0.0, 2024-10-24 00:47:11.150
57.0, -47960.78627834157, -50407.6987990974, -47178.07289100563, -55275.66287227427, -55146.69330676715, -48161.34848133904, 11898.146497982323, 39878.44018679144, 0.096, 0.962, 0.15, 192.0, 0.0, 0.0, 0.0, 0.0, 0.0, 0.0, 0.0, 0.0, 0.0, 1.729711031155294E9, 0.0, 2024-10-24 00:47:11.155
58.0, -47946.79408631255, -50408.57051713116, -47175.61419911554, -55284.2012386562, -55148.07911492338, -48174.603065801035, 11811.868764384839, 39785.32281939063, 0.098, 0.976, 0.15, 192.0, 3.0, 16.0, 30.0, 128.0, 4.0, 176.0, 0.0, 0.0, 0.0, 1.7297110311584277E9, 0.0, 2024-10-24 00:47:11.158
59.0, -47958.32758645149, -50429.71526738587, -47191.17101325643, -55310.553945369, -55170.229693678586, -48213.42804591991, 12098.261666090688, 40094.000410318426, 0.098, 0.976, 0.15, 192.0, 0.0, 0.0, 0.0, 0.0, 0.0, 0.0, 0.0, 0.0, 0.0, 1.7297110311622996E9, 0.0, 2024-10-24 00:47:11.162
60.0, -47981.88632510738, -50452.156418819, -47215.646173434994, -55331.83280609045, -55200.8292318379, -48237.14324678698, 12378.194913648953, 40391.16685285173, 0.098, 0.976, 0.15, 192.0, 0.0, 0.0, 0.0, 0.0, 0.0, 0.0, 0.0, 0.0, 0.0, 1.7297110311662579E9, 0.0, 2024-10-24 00:47:11.166
61.0, -47990.89407812287, -50440.93584310244, -47208.82889137613, -55311.06803549147, -55170.006176234034, -48198.6758945794, 12230.852214199569, 40212.66582163165, 0.098, 0.976, 0.15, 192.0, 0.0, 0.0, 0.0, 0.0, 0.0, 0.0, 0.0, 0.0, 0.0, 1.7297110311703143E9, 0.0, 2024-10-24 00:47:11.170
62.0, -47964.58607489897, -50411.74446484381, -47184.979580042316, -55278.859171731376, -55140.56892878639, -48156.788725470156, 11905.50022190812, 39851.21576204488, 0.098, 0.976, 0.15, 192.0, 0.0, 0.0, 0.0, 0.0, 0.0, 0.0, 0.0, 0.0, 0.0, 1.7297110311742747E9, 0.0, 2024-10-24 00:47:11.174
63.0, -47938.05455423052, -50400.18861296042, -47172.887286291996, -55276.08755541892, -55147.16269340071, -48161.54964703914, 11797.965979333638, 39734.69611819937, 0.098, 0.976, 0.15, 192.0, 0.0, 0.0, 0.0, 0.0, 0.0, 0.0, 0.0, 0.0, 0.0, 1.7297110311794155E9, 0.0, 2024-10-24 00:47:11.179
64.0, -47955.243045716656, -50416.41597943497, -47198.86001334906, -55300.13803245283, -55180.46679263911, -48189.80225203065, 12091.645549731917, 40051.64385457562, 0.098, 0.976, 0.15, 192.0, 0.0, 0.0, 0.0, 0.0, 0.0, 0.0, 0.0, 0.0, 0.0, 1.7297110311823404E9, 0.0, 2024-10-24 00:47:11.182
65.0, -47973.07973779199, -50428.687087140934, -47209.1418157985, -55310.7551110691, -55174.29771116945, -48204.375589415504, 12366.01321292081, 40343.26706448401, 0.098, 0.976, 0.15, 192.0, 0.0, 0.0, 0.0, 0.0, 0.0, 0.0, 0.0, 0.0, 0.0, 1.7297110311853404E9, 0.0, 2024-10-24 00:47:11.185
66.0, -47980.7240343957, -50419.92520331445, -47200.20111801638, -55296.4499946177, -55152.99649870354, -48183.02967346069, 12219.385769293996, 40164.09548093027, 0.098, 0.976, 0.15, 192.0, 0.0, 0.0, 0.0, 0.0, 0.0, 0.0, 0.0, 0.0, 0.0, 1.7297110311904535E9, 0.0, 2024-10-24 00:47:11.190
67.0, -47967.469449933706, -50402.78141531723, -47190.09812952258, -55280.87082873235, -55150.58251030237, -48164.053042418134, 11919.559469170508, 39829.35575596759, 0.098, 0.976, 0.15, 192.0, 0.0, 0.0, 0.0, 0.0, 0.0, 0.0, 0.0, 0.0, 0.0, 1.7297110311944463E9, 0.0, 2024-10-24 00:47:11.194
68.0, -47944.938891522754, -50390.532659355726, -47185.15839399796, -55282.72602352215, -55160.43962960716, -48174.62541754549, 11825.011590124559, 39729.845789652565, 0.094, 0.97, 0.152, 192.0, 2.0, 240.0, 30.0, 80.0, 4.0, 192.0, 0.0, 0.0, 0.0, 1.7297110312004151E9, 0.0, 2024-10-24 00:47:11.200
69.0, -47953.79018232706, -50408.36935143106, -47198.882365093516, -55308.13995696783, -55177.426955393195, -48206.78957781668, 12109.035206918146, 40040.42327885905, 0.094, 0.97, 0.152, 192.0, 0.0, 0.0, 0.0, 0.0, 0.0, 0.0, 0.0, 0.0, 0.0, 1.7297110312033303E9, 0.0, 2024-10-24 00:47:11.203
70.0, -47972.25272324714, -50421.26630798177, -47208.11363555356, -55317.304172194505, -55189.42984216569, -48218.25602272225, 12372.897550213045, 40321.02707875098, 0.094, 0.97, 0.152, 192.0, 0.0, 0.0, 0.0, 0.0, 0.0, 0.0, 0.0, 0.0, 0.0, 1.7297110312083526E9, 0.0, 2024-10-24 00:47:11.208
71.0, -47980.7240343957, -50412.325610199645, -47198.591792415595, -55297.589933584924, -55170.40850763423, -48189.10934795253, 12215.384807036497, 40130.45610552503, 0.094, 0.97, 0.152, 192.0, 0.0, 0.0, 0.0, 0.0, 0.0, 0.0, 0.0, 0.0, 0.0, 1.729711031210457E9, 0.0, 2024-10-24 00:47:11.210
72.0, -47958.796973085045, -50386.956380242875, -47168.59575135657, -55268.443258815205, -55127.38139955776, -48161.08026040557, 11899.197029971723, 39778.93022047642, 0.094, 0.97, 0.152, 192.0, 0.0, 0.0, 0.0, 0.0, 0.0, 0.0, 0.0, 0.0, 0.0, 1.7297110312134745E9, 0.0, 2024-10-24 00:47:11.213
73.0, -47935.238234429155, -50374.528810325726, -47158.64922507396, -55264.93403493572, -55138.84784446334, -48163.069565662096, 11816.182651064713, 39690.59612638904, 0.094, 0.97, 0.152, 192.0, 0.0, 0.0, 0.0, 0.0, 0.0, 0.0, 0.0, 0.0, 0.0, 1.7297110312184207E9, 0.0, 2024-10-24 00:47:11.218
74.0, -47947.55404562403, -50390.13032795553, -47174.85423980406, -55283.93301772273, -55163.03243196398, -48188.7740717857, 12100.787413214137, 40001.33007780672, 0.094, 0.97, 0.152, 192.0, 0.0, 0.0, 0.0, 0.0, 0.0, 0.0, 0.0, 0.0, 0.0, 1.7297110312223864E9, 0.0, 2024-10-24 00:47:11.222
75.0, -47964.76488885461, -50402.40143566149, -47188.309989966154, -55295.06418646147, -55176.95756875963, -48208.7788830732, 12383.40287010704, 40299.83762500735, 0.094, 0.97, 0.152, 192.0, 0.0, 0.0, 0.0, 0.0, 0.0, 0.0, 0.0, 0.0, 0.0, 1.7297110312263496E9, 0.0, 2024-10-24 00:47:11.226
76.0, -47978.66767390582, -50397.931086770426, -47185.806594587164, -55283.12835492234, -55162.54069358596, -48186.78476652918, 12231.679228744415, 40116.03923035136, 0.094, 0.97, 0.152, 192.0, 0.0, 0.0, 0.0, 0.0, 0.0, 0.0, 0.0, 0.0, 0.0, 1.7297110312304752E9, 0.0, 2024-10-24 00:47:11.230
77.0, -47963.73670860967, -50381.52490634024, -47169.55687636815, -55262.9447296792, -55137.43968456265, -48156.34169058105, 11916.251410991123, 39766.256781370255, 0.094, 0.97, 0.152, 192.0, 0.0, 0.0, 0.0, 0.0, 0.0, 0.0, 0.0, 0.0, 0.0, 1.7297110312344687E9, 0.0, 2024-10-24 00:47:11.234
78.0, -47937.24989143013, -50371.35486261307, -47156.12347795052, -55261.17894186723, -55129.884794936755, -48157.258112103715, 11852.280718360034, 39696.27346948069, 0.094, 0.97, 0.152, 192.0, 0.0, 0.0, 0.0, 0.0, 0.0, 0.0, 0.0, 0.0, 0.0, 1.7297110312384148E9, 0.0, 2024-10-24 00:47:11.238
79.0, -47943.57543511098, -50380.29556039519, -47169.24395194578, -55277.02632868604, -55151.565987058406, -48174.26778963421, 12140.484111366763, 40008.75085696588, 0.1, 0.976, 0.154, 192.0, 3.0, 32.0, 30.0, 128.0, 4.0, 208.0, 0.0, 0.0, 0.0, 1.7297110312414148E9, 0.0, 2024-10-24 00:47:11.241
80.0, -47967.40239470034, -50397.32758967014, -47189.18170799992, -55290.37032012586, -55173.4706966246, -48185.46601360632, 12405.396986651062, 40292.37214235928, 0.1, 0.976, 0.154, 192.0, 0.0, 0.0, 0.0, 0.0, 0.0, 0.0, 0.0, 0.0, 0.0, 1.7297110312453673E9, 0.0, 2024-10-24 00:47:11.245
81.0, -47977.50538319414, -50391.359673900566, -47186.47714692082, -55276.24401763011, -55156.43866734966, -48165.237684874264, 12238.787083481204, 40096.995544075435, 0.1, 0.976, 0.154, 192.0, 0.0, 0.0, 0.0, 0.0, 0.0, 0.0, 0.0, 0.0, 0.0, 1.729711031250492E9, 0.0, 2024-10-24 00:47:11.250
82.0, -47958.55110389604, -50366.124554410526, -47168.34988216757, -55254.16049410826, -55127.38139955776, -48145.925777664874, 11903.64502711833, 39730.09165884157, 0.1, 0.976, 0.154, 192.0, 0.0, 0.0, 0.0, 0.0, 0.0, 0.0, 0.0, 0.0, 0.0, 1.7297110312544208E9, 0.0, 2024-10-24 00:47:11.254
83.0, -47925.87285350238, -50351.640624003485, -47153.21775117132, -55252.88644467431, -55124.45332103412, -48154.73236498027, 11818.57428772143, 39640.774087998165, 0.1, 0.976, 0.154, 192.0, 0.0, 0.0, 0.0, 0.0, 0.0, 0.0, 0.0, 0.0, 0.0, 1.72971103125851E9, 0.0, 2024-10-24 00:47:11.258
84.0, -47930.49966460463, -50365.47635382132, -47165.84648678857, -55270.92430244974, -55146.60389978933, -48173.39607160045, 12119.026436689668, 39966.93074309001, 0.1, 0.976, 0.154, 192.0, 0.0, 0.0, 0.0, 0.0, 0.0, 0.0, 0.0, 0.0, 0.0, 1.7297110312626183E9, 0.0, 2024-10-24 00:47:11.262
85.0, -47956.427688172786, -50383.961246485866, -47185.471318420336, -55287.50929683558, -55171.81666753491, -48185.53306883968, 12407.520402374317, 40273.239049105534, 0.1, 0.976, 0.154, 192.0, 0.0, 0.0, 0.0, 0.0, 0.0, 0.0, 0.0, 0.0, 0.0, 1.729711031266377E9, 0.0, 2024-10-24 00:47:11.266
86.0, -47962.86499057591, -50373.455926591865, -47174.138983981495, -55270.70078500519, -55143.63111777677, -48164.92476045189, 12240.441112570896, 40075.671979865074, 0.1, 0.976, 0.154, 192.0, 0.0, 0.0, 0.0, 0.0, 0.0, 0.0, 0.0, 0.0, 0.0, 1.7297110312696135E9, 0.0, 2024-10-24 00:47:11.269
87.0, -47941.25085368763, -50350.25481584726, -47152.323681393114, -55249.64544172829, -55126.37557105727, -48148.943263166344, 11917.436053447254, 39720.03337383668, 0.1, 0.976, 0.154, 192.0, 0.0, 0.0, 0.0, 0.0, 0.0, 0.0, 0.0, 0.0, 0.0, 1.7297110312734208E9, 0.0, 2024-10-24 00:47:11.273
88.0, -47912.88648997385, -50337.08963836308, -47140.52196032071, -55246.471494015634, -55136.72442874008, -48152.05015564563, 11827.62674422583, 39626.17839886885, 0.1, 0.976, 0.154, 192.0, 0.0, 0.0, 0.0, 0.0, 0.0, 0.0, 0.0, 0.0, 0.0, 1.7297110312784104E9, 0.0, 2024-10-24 00:47:11.278
89.0, -47921.737780778145, -50353.07113564863, -47156.99519598427, -55266.23043611413, -55164.75351628703, -48172.94903671134, 12110.644532518929, 39935.48183864139, 0.10200000000000001, 0.976, 0.152, 192.0, 3.0, 48.0, 30.0, 128.0, 4.0, 192.0, 0.0, 0.0, 0.0, 1.7297110312824504E9, 0.0, 2024-10-24 00:47:11.282
90.0, -47946.48116189017, -50372.29363588019, -47175.72595783782, -55284.0000729561, -55169.648548322744, -48190.45045261985, 12390.801297521746, 40234.83875213131, 0.10200000000000001, 0.976, 0.152, 192.0, 0.0, 0.0, 0.0, 0.0, 0.0, 0.0, 0.0, 0.0, 0.0, 1.7297110312864275E9, 0.0, 2024-10-24 00:47:11.286
91.0, -47941.876702532376, -50359.061403162654, -47161.420841386425, -55265.93986343621, -55140.367763086295, -48167.22699013078, 12203.091347586078, 40018.987955926415, 0.10200000000000001, 0.976, 0.152, 192.0, 0.0, 0.0, 0.0, 0.0, 0.0, 0.0, 0.0, 0.0, 0.0, 1.7297110312904449E9, 0.0, 2024-10-24 00:47:11.290
92.0, -47927.05749595851, -50340.12947560901, -47143.00300395525, -55248.393744038796, -55116.183175585655, -48147.80332419912, 11889.16109671129, 39672.80413780262, 0.10200000000000001, 0.976, 0.152, 192.0, 0.0, 0.0, 0.0, 0.0, 0.0, 0.0, 0.0, 0.0, 0.0, 1.7297110312944672E9, 0.0, 2024-10-24 00:47:11.294
93.0, -47899.98953342313, -50325.086751590585, -47127.89322470346, -55246.069162615444, -55110.55053598292, -48154.262978346705, 11833.304087317478, 39612.63324172893, 0.10200000000000001, 0.976, 0.152, 192.0, 0.0, 0.0, 0.0, 0.0, 0.0, 0.0, 0.0, 0.0, 0.0, 1.7297110312994523E9, 0.0, 2024-10-24 00:47:11.299
94.0, -47915.14401616383, -50341.47058027632, -47153.374213382514, -55268.89029370431, -55148.45909457911, -48178.49226933626, 12146.07204748059, 39949.652844626056, 0.10200000000000001, 0.976, 0.152, 192.0, 0.0, 0.0, 0.0, 0.0, 0.0, 0.0, 0.0, 0.0, 0.0, 1.729711031304484E9, 0.0, 2024-10-24 00:47:11.304
95.0, -47936.82520828548, -50349.02546990222, -47170.361539168545, -55275.23818912962, -55167.59218783286, -48184.169612427904, 12404.033530239289, 40225.67453690464, 0.10200000000000001, 0.976, 0.152, 192.0, 0.0, 0.0, 0.0, 0.0, 0.0, 0.0, 0.0, 0.0, 0.0, 1.7297110313085763E9, 0.0, 2024-10-24 00:47:11.308
96.0, -47935.931138507265, -50334.04980111716, -47153.59773082707, -55251.50063651808, -55129.4154083032, -48154.03946090215, 12235.076693901623, 40025.291147862816, 0.10200000000000001, 0.976, 0.152, 192.0, 0.0, 0.0, 0.0, 0.0, 0.0, 0.0, 0.0, 0.0, 0.0, 1.729711031311529E9, 0.0, 2024-10-24 00:47:11.311
97.0, -47915.8592719864, -50309.95462059434, -47131.983593938785, -55227.87484262882, -55108.94121038213, -48132.1123995915, 11917.301942980523, 39673.921725025386, 0.10200000000000001, 0.976, 0.152, 192.0, 0.0, 0.0, 0.0, 0.0, 0.0, 0.0, 0.0, 0.0, 0.0, 1.7297110313145745E9, 0.0, 2024-10-24 00:47:11.314
98.0, -47897.352027577406, -50302.8244141131, -47128.92140494841, -55232.54635721998, -55118.552460497915, -48145.18817009785, 11843.272965344546, 39595.31063977607, 0.10200000000000001, 0.976, 0.152, 192.0, 0.0, 0.0, 0.0, 0.0, 0.0, 0.0, 0.0, 0.0, 0.0, 1.7297110313185215E9, 0.0, 2024-10-24 00:47:11.318
99.0, -47909.578431794456, -50319.34235326557, -47147.786277268686, -55255.05456388648, -55150.67191728019, -48170.132716909975, 12143.658059079416, 39923.16602744652, 0.10400000000000001, 0.97, 0.152, 192.0, 3.0, 64.0, 30.0, 80.0, 4.0, 192.0, 0.0, 0.0, 0.0, 1.7297110313236265E9, 0.0, 2024-10-24 00:47:11.323
100.0, -47933.204225683716, -50337.380211041, -47165.19828619937, -55271.34898559439, -55167.72629829959, -48182.649693804946, 12427.8828415731, 40224.936929337615, 0.10400000000000001, 0.97, 0.152, 192.0, 0.0, 0.0, 0.0, 0.0, 0.0, 0.0, 0.0, 0.0, 0.0, 1.7297110313266344E9, 0.0, 2024-10-24 00:47:11.326
101.0, -47937.58516759696, -50326.22669055781, -47154.357690138546, -55251.858264429364, -55141.910033453714, -48154.397088813435, 12243.346839350086, 40010.471941288946, 0.10400000000000001, 0.97, 0.152, 192.0, 0.0, 0.0, 0.0, 0.0, 0.0, 0.0, 0.0, 0.0, 0.0, 1.7297110313295336E9, 0.0, 2024-10-24 00:47:11.329
102.0, -47916.82039699798, -50306.17717578139, -47131.491855560766, -55231.9875636086, -55109.16472782668, -48131.97828912477, 11913.54684991203, 39648.887771235444, 0.10400000000000001, 0.97, 0.152, 192.0, 0.0, 0.0, 0.0, 0.0, 0.0, 0.0, 0.0, 0.0, 0.0, 1.7297110313345976E9, 0.0, 2024-10-24 00:47:11.334
103.0, -47892.658161241794, -50293.79430935315, -47122.99819266775, -55231.74169441959, -55120.787634943445, -48137.09683860503, 11833.214680339657, 39568.06386328505, 0.10400000000000001, 0.97, 0.152, 192.0, 0.0, 0.0, 0.0, 0.0, 0.0, 0.0, 0.0, 0.0, 0.0, 1.7297110313386216E9, 0.0, 2024-10-24 00:47:11.338
104.0, -47907.81264398249, -50313.843824129566, -47149.9767482253, -55257.8932354323, -55154.33760337086, -48170.624455287994, 12126.35780887101, 39889.39254157455, 0.10400000000000001, 0.97, 0.152, 192.0, 0.0, 0.0, 0.0, 0.0, 0.0, 0.0, 0.0, 0.0, 0.0, 1.7297110313427007E9, 0.0, 2024-10-24 00:47:11.342
105.0, -47928.08567620345, -50324.99734461276, -47166.785260055694, -55266.7445262366, -55169.06740296691, -48180.79449901516, 12379.200742149442, 40162.5308588184, 0.10400000000000001, 0.97, 0.152, 192.0, 0.0, 0.0, 0.0, 0.0, 0.0, 0.0, 0.0, 0.0, 0.0, 1.7297110313465283E9, 0.0, 2024-10-24 00:47:11.346
106.0, -47923.19064416774, -50306.73596939278, -47147.85333250205, -55240.03419161251, -55128.23076584706, -48147.7139172213, 12181.901893842447, 39936.19709446396, 0.10400000000000001, 0.97, 0.152, 192.0, 0.0, 0.0, 0.0, 0.0, 0.0, 0.0, 0.0, 0.0, 0.0, 1.729711031349654E9, 0.0, 2024-10-24 00:47:11.349
107.0, -47901.48710030164, -50285.74768134924, -47123.020544412204, -55219.89526985828, -55098.59235269933, -48130.10074259052, 11876.219436671667, 39598.37282876645, 0.10400000000000001, 0.97, 0.152, 192.0, 0.0, 0.0, 0.0, 0.0, 0.0, 0.0, 0.0, 0.0, 0.0, 1.7297110313535366E9, 0.0, 2024-10-24 00:47:11.353
108.0, -47883.33748380393, -50284.94301854885, -47123.13230313448, -55227.80778739545, -55123.022809388975, -48141.94716715183, 11820.250668555578, 39540.34770016047, 0.10400000000000001, 0.97, 0.152, 192.0, 0.0, 0.0, 0.0, 0.0, 0.0, 0.0, 0.0, 0.0, 0.0, 1.729711031357525E9, 0.0, 2024-10-24 00:47:11.357
109.0, -47894.111024631384, -50305.81954787011, -47136.54334980767, -55250.2936423175, -55138.758437485514, -48166.4670308193, 12121.418073346385, 39870.72883495437, 0.10400000000000001, 0.968, 0.156, 192.0, 3.0, 64.0, 30.0, 64.0, 4.0, 224.0, 0.0, 0.0, 0.0, 1.7297110313615737E9, 0.0, 2024-10-24 00:47:11.361
110.0, -47915.56869930848, -50323.92446087891, -47148.18860866888, -55263.36941282385, -55144.92751895518, -48178.78284201418, 12387.157963175532, 40158.3287308608, 0.10400000000000001, 0.968, 0.156, 192.0, 0.0, 0.0, 0.0, 0.0, 0.0, 0.0, 0.0, 0.0, 0.0, 1.7297110313665962E9, 0.0, 2024-10-24 00:47:11.366
111.0, -47921.35780112241, -50312.41331248442, -47139.91846322042, -55243.632822469815, -55122.93340241115, -48146.14929510943, 12208.723987188816, 39951.55274290476, 0.10400000000000001, 0.968, 0.156, 192.0, 0.0, 0.0, 0.0, 0.0, 0.0, 0.0, 0.0, 0.0, 0.0, 1.729711031370525E9, 0.0, 2024-10-24 00:47:11.370
112.0, -47900.48127180115, -50286.17236449389, -47116.85146294254, -55216.430749467705, -55100.64871318921, -48111.95112609281, 11888.423489144265, 39601.144445078906, 0.10400000000000001, 0.968, 0.156, 192.0, 0.0, 0.0, 0.0, 0.0, 0.0, 0.0, 0.0, 0.0, 0.0, 1.7297110313745224E9, 0.0, 2024-10-24 00:47:11.374
113.0, -47881.90697215879, -50282.39491968095, -47115.66682048641, -55224.16445304924, -55114.68560870715, -48132.53708273615, 11805.319703259434, 39519.001784205655, 0.10400000000000001, 0.968, 0.156, 192.0, 0.0, 0.0, 0.0, 0.0, 0.0, 0.0, 0.0, 0.0, 0.0, 1.7297110313788488E9, 0.0, 2024-10-24 00:47:11.378
114.0, -47901.77767297956, -50307.78650138218, -47140.633719042984, -55253.8922731748, -55136.54561478444, -48165.640016274454, 12117.171241899878, 39861.07288134967, 0.10400000000000001, 0.968, 0.156, 192.0, 0.0, 0.0, 0.0, 0.0, 0.0, 0.0, 0.0, 0.0, 0.0, 1.7297110313826895E9, 0.0, 2024-10-24 00:47:11.382
115.0, -47926.364591880396, -50322.87392888951, -47156.12347795052, -55264.17407562424, -55148.70496376813, -48174.24543788975, 12372.696384512948, 40137.206332350535, 0.10400000000000001, 0.968, 0.156, 192.0, 0.0, 0.0, 0.0, 0.0, 0.0, 0.0, 0.0, 0.0, 0.0, 1.7297110313875856E9, 0.0, 2024-10-24 00:47:11.387
116.0, -47932.66778381679, -50309.61934442751, -47146.62398655701, -55242.55993873596, -55127.82843444687, -48146.573978254084, 12171.21775999281, 39908.54798657275, 0.10400000000000001, 0.968, 0.156, 192.0, 0.0, 0.0, 0.0, 0.0, 0.0, 0.0, 0.0, 0.0, 0.0, 1.7297110313905797E9, 0.0, 2024-10-24 00:47:11.390
117.0, -47913.557042307504, -50288.96633255081, -47125.90391944694, -55223.80682513796, -55107.13071908125, -48125.69744893282, 11863.791866754516, 39574.45646219927, 0.10400000000000001, 0.968, 0.156, 192.0, 0.0, 0.0, 0.0, 0.0, 0.0, 0.0, 0.0, 0.0, 0.0, 1.729711031394606E9, 0.0, 2024-10-24 00:47:11.394
118.0, -47892.83697519743, -50283.847783070545, -47121.3218118336, -55229.283002529504, -55122.28520182195, -48136.87332116048, 11805.565572448442, 39518.19712140526, 0.10400000000000001, 0.968, 0.156, 192.0, 0.0, 0.0, 0.0, 0.0, 0.0, 0.0, 0.0, 0.0, 0.0, 1.7297110313996615E9, 0.0, 2024-10-24 00:47:11.399
119.0, -47909.42196958327, -50305.931306592385, -47144.45586734484, -55257.62501449884, -55149.64373703525, -48167.87519071999, 12119.138195411944, 39863.39746277302, 0.1, 0.968, 0.158, 192.0, 3.0, 32.0, 30.0, 64.0, 4.0, 240.0, 0.0, 0.0, 0.0, 1.729711031405721E9, 0.0, 2024-10-24 00:47:11.405
120.0, -47934.187702439755, -50317.889489875975, -47156.77167853972, -55268.24209311511, -55146.20156838913, -48172.63611228897, 12401.59719009366, 40170.01869321093, 0.1, 0.968, 0.158, 192.0, 0.0, 0.0, 0.0, 0.0, 0.0, 0.0, 0.0, 0.0, 0.0, 1.7297110314086597E9, 0.0, 2024-10-24 00:47:11.408
121.0, -47924.28587964605, -50296.45416694334, -47133.70467826184, -55239.855377656866, -55117.59133548634, -48137.43211477186, 12200.99028360728, 39942.634396867084, 0.1, 0.968, 0.158, 192.0, 0.0, 0.0, 0.0, 0.0, 0.0, 0.0, 0.0, 0.0, 0.0, 1.729711031412664E9, 0.0, 2024-10-24 00:47:11.412
122.0, -47907.834995726946, -50278.86334405701, -47114.86215768602, -55221.30342975896, -55088.26584676097, -48119.014277340684, 11884.288416420033, 39597.21053805477, 0.1, 0.968, 0.158, 192.0, 0.0, 0.0, 0.0, 0.0, 0.0, 0.0, 0.0, 0.0, 0.0, 1.7297110314156604E9, 0.0, 2024-10-24 00:47:11.415
123.0, -47885.57265824946, -50269.98970150825, -47108.42485528289, -55222.21985128163, -55092.84795437431, -48129.027858856665, 11813.254572541067, 39527.56250233203, 0.1, 0.968, 0.158, 192.0, 0.0, 0.0, 0.0, 0.0, 0.0, 0.0, 0.0, 0.0, 0.0, 1.7297110314187024E9, 0.0, 2024-10-24 00:47:11.418
124.0, -47898.38020782235, -50292.58731515257, -47133.592919539566, -55249.82425568393, -55131.15884437071, -48163.561304040115, 12111.87387846397, 39858.055395848205, 0.1, 0.968, 0.158, 192.0, 0.0, 0.0, 0.0, 0.0, 0.0, 0.0, 0.0, 0.0, 0.0, 1.7297110314227357E9, 0.0, 2024-10-24 00:47:11.422
125.0, -47922.85536800091, -50312.212146784324, -47153.59773082707, -55265.26931110255, -55147.38621084526, -48175.63124604598, 12378.26196888232, 40146.16938187712, 0.1, 0.968, 0.158, 192.0, 0.0, 0.0, 0.0, 0.0, 0.0, 0.0, 0.0, 0.0, 0.0, 1.7297110314266653E9, 0.0, 2024-10-24 00:47:11.426
126.0, -47919.502606332615, -50294.24134424226, -47138.28678587518, -55240.41417126825, -55123.53689951145, -48140.986042140255, 12173.83291409408, 39914.35944013112, 0.1, 0.968, 0.158, 192.0, 0.0, 0.0, 0.0, 0.0, 0.0, 0.0, 0.0, 0.0, 0.0, 1.7297110314307048E9, 0.0, 2024-10-24 00:47:11.430
127.0, -47900.88360320134, -50273.92360853239, -47119.80189321064, -55222.42101698172, -55103.9567713686, -48122.83642564254, 11862.897796976304, 39577.02691281163, 0.1, 0.968, 0.158, 192.0, 0.0, 0.0, 0.0, 0.0, 0.0, 0.0, 0.0, 0.0, 0.0, 1.72971103143363E9, 0.0, 2024-10-24 00:47:11.433
128.0, -47877.12369884535, -50261.7642595487, -47107.17315759339, -55219.31412450244, -55103.24151554603, -48120.86947213048, 11790.411089707744, 39507.33417359998, 0.1, 0.968, 0.158, 192.0, 0.0, 0.0, 0.0, 0.0, 0.0, 0.0, 0.0, 0.0, 0.0, 1.7297110314376352E9, 0.0, 2024-10-24 00:47:11.437
129.0, -47885.63971348283, -50277.09755624504, -47118.617250754505, -55237.59785146688, -55123.00045764452, -48142.930643907865, 12095.62416024496, 39843.370299741066, 0.098, 0.962, 0.162, 192.0, 3.0, 16.0, 30.0, 16.0, 5.0, 16.0, 0.0, 0.0, 0.0, 1.7297110314416509E9, 0.0, 2024-10-24 00:47:11.441
130.0, -47908.01380968259, -50292.11792851901, -47135.29165211817, -55246.67265971573, -55129.61657400329, -48148.607986999516, 12349.830549935168, 40122.14125658766, 0.098, 0.962, 0.162, 192.0, 0.0, 0.0, 0.0, 0.0, 0.0, 0.0, 0.0, 0.0, 0.0, 1.72971103144568E9, 0.0, 2024-10-24 00:47:11.445
131.0, -47907.969106193676, -50275.55528587762, -47123.48993104576, -55224.14210130479, -55099.464070733084, -48122.54585296463, 12159.751315087238, 39907.676268538984, 0.098, 0.962, 0.162, 192.0, 0.0, 0.0, 0.0, 0.0, 0.0, 0.0, 0.0, 0.0, 0.0, 1.7297110314497669E9, 0.0, 2024-10-24 00:47:11.449
132.0, -47883.27042857056, -50243.90521572891, -47100.82526216809, -55195.84479282437, -55077.0005675555, -48098.76359686418, 11831.985334394614, 39552.752918333164, 0.098, 0.962, 0.162, 192.0, 0.0, 0.0, 0.0, 0.0, 0.0, 0.0, 0.0, 0.0, 0.0, 1.7297110314547684E9, 0.0, 2024-10-24 00:47:11.454
133.0, -47857.87884686933, -50232.81875047908, -47095.39378826544, -55196.47064166912, -55090.07633806185, -48106.36318997898, 11749.41799037671, 39474.63357146187, 0.098, 0.962, 0.162, 192.0, 0.0, 0.0, 0.0, 0.0, 0.0, 0.0, 0.0, 0.0, 0.0, 1.7297110314588013E9, 0.0, 2024-10-24 00:47:11.458
134.0, -47875.469669755665, -50254.79051527864, -47125.07690490209, -55223.695066415676, -55132.34348682684, -48136.7615624382, 12061.738915650716, 39820.32565120765, 0.098, 0.962, 0.162, 192.0, 0.0, 0.0, 0.0, 0.0, 0.0, 0.0, 0.0, 0.0, 0.0, 1.7297110314617047E9, 0.0, 2024-10-24 00:47:11.461
135.0, -47901.24123111263, -50272.291931187145, -47143.04770744416, -55240.59298522389, -55152.77298125899, -48155.872303947486, 12328.976372358367, 40113.13350357217, 0.098, 0.962, 0.162, 192.0, 0.0, 0.0, 0.0, 0.0, 0.0, 0.0, 0.0, 0.0, 0.0, 1.7297110314657607E9, 0.0, 2024-10-24 00:47:11.465
136.0, -47903.78932998054, -50262.166590948895, -47134.151713150946, -55228.79126415149, -55133.796350216435, -48139.10849560601, 12144.730942813272, 39906.782198760775, 0.098, 0.962, 0.162, 192.0, 0.0, 0.0, 0.0, 0.0, 0.0, 0.0, 0.0, 0.0, 0.0, 1.7297110314697611E9, 0.0, 2024-10-24 00:47:11.469
137.0, -47878.48715525713, -50237.57967204806, -47107.933116904875, -55209.54641217547, -55103.50973647949, -48120.355382008005, 11827.559688992464, 39566.23102023971, 0.098, 0.962, 0.162, 192.0, 0.0, 0.0, 0.0, 0.0, 0.0, 0.0, 0.0, 0.0, 0.0, 1.7297110314736767E9, 0.0, 2024-10-24 00:47:11.473
138.0, -47864.18203880573, -50234.24926212421, -47108.02252388269, -55223.270383271025, -55123.67100997818, -48143.288271819154, 11757.71048756963, 39502.416789819814, 0.098, 0.962, 0.162, 192.0, 0.0, 0.0, 0.0, 0.0, 0.0, 0.0, 0.0, 0.0, 0.0, 1.729711031477764E9, 0.0, 2024-10-24 00:47:11.477
139.0, -47882.39871053681, -50263.53004736067, -47132.63179452799, -55259.636671499815, -55162.183065674675, -48177.70995828032, 12051.568871923551, 39829.802790856695, 0.098, 0.968, 0.164, 192.0, 3.0, 16.0, 30.0, 64.0, 5.0, 32.0, 0.0, 0.0, 0.0, 1.729711031482741E9, 0.0, 2024-10-24 00:47:11.482
140.0, -47905.018675925574, -50286.88762031646, -47146.89220749047, -55278.90387522029, -55175.54940885895, -48193.40088288795, 12323.030808333257, 40128.28798631287, 0.098, 0.968, 0.164, 192.0, 0.0, 0.0, 0.0, 0.0, 0.0, 0.0, 0.0, 0.0, 0.0, 1.72971103148678E9, 0.0, 2024-10-24 00:47:11.486
141.0, -47908.08086491595, -50276.42700391138, -47129.18962588187, -55259.3908023108, -55139.3619345858, -48164.3659668405, 12151.034134749669, 39933.60429210714, 0.098, 0.968, 0.164, 192.0, 0.0, 0.0, 0.0, 0.0, 0.0, 0.0, 0.0, 0.0, 0.0, 1.7297110314898305E9, 0.0, 2024-10-24 00:47:11.489
142.0, -47885.460899527185, -50256.86922751299, -47104.96033489232, -55239.765970679044, -55108.47182374857, -48147.60215849902, 11842.401247310789, 39600.719761934255, 0.098, 0.968, 0.164, 192.0, 0.0, 0.0, 0.0, 0.0, 0.0, 0.0, 0.0, 0.0, 0.0, 1.7297110314937203E9, 0.0, 2024-10-24 00:47:11.493
143.0, -47856.53774220202, -50239.6583842824, -47087.101291072526, -55228.56774670693, -55098.94998061061, -48135.889844404446, 11776.217731978624, 39541.241769938686, 0.098, 0.968, 0.164, 192.0, 0.0, 0.0, 0.0, 0.0, 0.0, 0.0, 0.0, 0.0, 0.0, 1.7297110314977753E9, 0.0, 2024-10-24 00:47:11.497
144.0, -47868.51827723006, -50253.31530014459, -47108.40250353843, -55244.90687190377, -55131.15884437071, -48152.87717019048, 12086.996386885214, 39888.7666927298, 0.098, 0.968, 0.164, 192.0, 0.0, 0.0, 0.0, 0.0, 0.0, 0.0, 0.0, 0.0, 0.0, 1.7297110315018573E9, 0.0, 2024-10-24 00:47:11.501
145.0, -47885.84087918292, -50261.45133512632, -47114.68334373037, -55244.28102305902, -55131.71763798209, -48146.41751604289, 12331.546822970728, 40162.68732102958, 0.098, 0.968, 0.164, 192.0, 0.0, 0.0, 0.0, 0.0, 0.0, 0.0, 0.0, 0.0, 0.0, 1.729711031505808E9, 0.0, 2024-10-24 00:47:11.505
146.0, -47891.58527750794, -50257.09274495754, -47105.87675641498, -55228.61245019585, -55102.9062393792, -48126.8597396445, 12161.561806388117, 39971.08816755869, 0.098, 0.968, 0.164, 192.0, 0.0, 0.0, 0.0, 0.0, 0.0, 0.0, 0.0, 0.0, 0.0, 1.72971103151075E9, 0.0, 2024-10-24 00:47:11.510
147.0, -47870.44052725322, -50236.41738133638, -47081.35689274751, -55204.047883039464, -55077.46995418906, -48098.13774801943, 11854.560596294476, 39641.623454287466, 0.098, 0.968, 0.164, 192.0, 0.0, 0.0, 0.0, 0.0, 0.0, 0.0, 0.0, 0.0, 0.0, 1.7297110315147717E9, 0.0, 2024-10-24 00:47:11.514
148.0, -47850.435715965716, -50227.87901495445, -47074.24903801073, -55203.33262721689, -55093.76437589698, -48107.16785277938, 11807.599581193876, 39603.91606139136, 0.098, 0.968, 0.164, 192.0, 0.0, 0.0, 0.0, 0.0, 0.0, 0.0, 0.0, 0.0, 0.0, 1.7297110315177884E9, 0.0, 2024-10-24 00:47:11.517
149.0, -47861.700995171195, -50242.56411106159, -47093.94092487585, -55224.14210130479, -55126.12970186827, -48138.63910897245, 12122.289791380143, 39953.16206850554, 0.1, 0.966, 0.158, 192.0, 3.0, 32.0, 30.0, 48.0, 4.0, 240.0, 0.0, 0.0, 0.0, 1.729711031521853E9, 0.0, 2024-10-24 00:47:11.521
150.0, -47876.52020174506, -50252.48828559975, -47106.5696604931, -55232.859281642355, -55129.750684470026, -48149.32324282208, 12386.956797475434, 40244.718223180564, 0.1, 0.966, 0.158, 192.0, 0.0, 0.0, 0.0, 0.0, 0.0, 0.0, 0.0, 0.0, 0.0, 1.7297110315257926E9, 0.0, 2024-10-24 00:47:11.525
151.0, -47872.318073787465, -50234.204558635305, -47089.44822424033, -55207.17712726321, -55105.11906208027, -48117.360248250996, 12179.800829863649, 40016.08222914723, 0.1, 0.966, 0.158, 192.0, 0.0, 0.0, 0.0, 0.0, 0.0, 0.0, 0.0, 0.0, 0.0, 1.729711031529756E9, 0.0, 2024-10-24 00:47:11.529
152.0, -47855.66602416826, -50214.44561653681, -47075.56779093359, -55187.73110958709, -55088.08703280533, -48099.76942536467, 11842.20008161069, 39654.29689339363, 0.1, 0.966, 0.158, 192.0, 0.0, 0.0, 0.0, 0.0, 0.0, 0.0, 0.0, 0.0, 0.0, 1.7297110315337806E9, 0.0, 2024-10-24 00:47:11.533
153.0, -47837.56111115946, -50207.136596099925, -47070.31513098659, -55189.809821821436, -55099.553477710906, -48103.18924226633, 11788.287673984489, 39609.77221843865, 0.1, 0.966, 0.158, 192.0, 0.0, 0.0, 0.0, 0.0, 0.0, 0.0, 0.0, 0.0, 0.0, 1.7297110315387683E9, 0.0, 2024-10-24 00:47:11.538
154.0, -47851.195675277195, -50227.29786959862, -47094.365608020504, -55213.59207792188, -55125.63796349025, -48127.418533255885, 12094.73009046675, 39953.430289439, 0.1, 0.966, 0.158, 192.0, 0.0, 0.0, 0.0, 0.0, 0.0, 0.0, 0.0, 0.0, 0.0, 1.729711031542792E9, 0.0, 2024-10-24 00:47:11.542
155.0, -47873.65917845478, -50243.435829095346, -47104.222727325294, -55224.58913619389, -55116.741969197035, -48136.515693249195, 12367.130800143577, 40254.5529907409, 0.1, 0.966, 0.158, 192.0, 0.0, 0.0, 0.0, 0.0, 0.0, 0.0, 0.0, 0.0, 0.0, 1.7297110315458553E9, 0.0, 2024-10-24 00:47:11.545
156.0, -47875.536724989026, -50232.394067334426, -47090.364645763, -55203.48908942808, -55091.506849706995, -48103.166890521876, 12162.1205999995, 40030.20853164298, 0.1, 0.966, 0.158, 192.0, 0.0, 0.0, 0.0, 0.0, 0.0, 0.0, 0.0, 0.0, 0.0, 1.7297110315508645E9, 0.0, 2024-10-24 00:47:11.550
157.0, -47858.66115792527, -50221.46406429578, -47072.974988576774, -55193.63197012329, -55074.720689621055, -48091.32046596056, 11873.939558737226, 39717.7758476467, 0.1, 0.966, 0.158, 192.0, 0.0, 0.0, 0.0, 0.0, 0.0, 0.0, 0.0, 0.0, 0.0, 1.7297110315549018E9, 0.0, 2024-10-24 00:47:11.554
158.0, -47842.16557051725, -50218.98302066124, -47070.69511064233, -55203.556144661445, -55088.355253738795, -48103.34570447751, 11838.959078664671, 39689.70205661083, 0.1, 0.966, 0.158, 192.0, 0.0, 0.0, 0.0, 0.0, 0.0, 0.0, 0.0, 0.0, 0.0, 1.729711031557843E9, 0.0, 2024-10-24 00:47:11.557
159.0, -47857.40946023577, -50235.99269819173, -47090.856384141014, -55227.27134552853, -55115.132643596255, -48131.10657109101, 12129.375294372476, 40017.75860998137, 0.1, 0.962, 0.152, 192.0, 3.0, 32.0, 30.0, 16.0, 4.0, 192.0, 0.0, 0.0, 0.0, 1.7297110315638576E9, 0.0, 2024-10-24 00:47:11.563
160.0, -47882.48811751463, -50254.209369922806, -47107.307268060125, -55241.75527593557, -55132.879928693765, -48146.39516429844, 12369.857712967125, 40288.21471789059, 0.1, 0.962, 0.152, 192.0, 0.0, 0.0, 0.0, 0.0, 0.0, 0.0, 0.0, 0.0, 0.0, 1.7297110315669975E9, 0.0, 2024-10-24 00:47:11.566
161.0, -47868.20535280769, -50243.05584943961, -47094.94675337634, -55222.9351071042, -55116.71961745258, -48114.05219007161, 12160.623033120995, 40058.81876454577, 0.1, 0.962, 0.152, 192.0, 0.0, 0.0, 0.0, 0.0, 0.0, 0.0, 0.0, 0.0, 0.0, 1.7297110315709505E9, 0.0, 2024-10-24 00:47:11.570
162.0, -47845.76420137456, -50235.255090624705, -47078.004131079215, -55214.68731340019, -55081.98500656903, -48101.78108236565, 11879.840419273427, 39755.572647520625, 0.1, 0.962, 0.152, 192.0, 0.0, 0.0, 0.0, 0.0, 0.0, 0.0, 0.0, 0.0, 0.0, 1.7297110315739377E9, 0.0, 2024-10-24 00:47:11.573
163.0, -47821.33374468491, -50230.71768650028, -47068.41523270789, -55219.44823496917, -55079.86159084578, -48113.71691390478, 11845.3963810678, 39732.59505422057, 0.1, 0.962, 0.152, 192.0, 0.0, 0.0, 0.0, 0.0, 0.0, 0.0, 0.0, 0.0, 0.0, 1.7297110315778356E9, 0.0, 2024-10-24 00:47:11.577
164.0, -47828.93333779971, -50246.09568668553, -47079.50169795772, -55238.76014217856, -55094.72550090856, -48135.62162347098, 12133.219794418788, 40060.07046223527, 0.1, 0.962, 0.152, 192.0, 0.0, 0.0, 0.0, 0.0, 0.0, 0.0, 0.0, 0.0, 0.0, 1.7297110315819268E9, 0.0, 2024-10-24 00:47:11.581
165.0, -47853.11792530036, -50265.89933227293, -47095.84082315455, -55250.07012487294, -55115.02088487398, -48145.165818353395, 12388.54377133176, 40347.04450929696, 0.1, 0.962, 0.152, 192.0, 0.0, 0.0, 0.0, 0.0, 0.0, 0.0, 0.0, 0.0, 0.0, 1.7297110315860317E9, 0.0, 2024-10-24 00:47:11.586
166.0, -47860.47164922615, -50259.70789905881, -47089.18000330687, -55234.401552009775, -55100.22403004456, -48127.30677453361, 12177.565655418117, 40116.59802396274, 0.1, 0.962, 0.152, 192.0, 0.0, 0.0, 0.0, 0.0, 0.0, 0.0, 0.0, 0.0, 0.0, 1.7297110315898786E9, 0.0, 2024-10-24 00:47:11.589
167.0, -47837.538759415, -50235.23273888025, -47065.844782095526, -55211.73688313209, -55083.460221703084, -48101.66932364337, 11855.320555605955, 39772.82819424012, 0.1, 0.962, 0.152, 192.0, 0.0, 0.0, 0.0, 0.0, 0.0, 0.0, 0.0, 0.0, 0.0, 1.7297110315938957E9, 0.0, 2024-10-24 00:47:11.593
168.0, -47807.65447707826, -50216.54668051561, -47055.51827615718, -55207.02066505202, -55092.78089914095, -48104.843271356025, 11826.263287814056, 39755.43853705389, 0.1, 0.962, 0.152, 192.0, 0.0, 0.0, 0.0, 0.0, 0.0, 0.0, 0.0, 0.0, 0.0, 1.7297110315988488E9, 0.0, 2024-10-24 00:47:11.598
169.0, -47823.8371400639, -50226.00146842021, -47072.84087811004, -55225.729075161114, -55113.523317995474, -48131.08421934655, 12124.122634425477, 40093.285154495854, 0.10400000000000001, 0.9580000000000001, 0.152, 192.0, 3.0, 64.0, 29.0, 240.0, 4.0, 192.0, 0.0, 0.0, 0.0, 1.7297110316029172E9, 0.0, 2024-10-24 00:47:11.602
170.0, -47852.44737296669, -50239.25605288221, -47090.81168065211, -55234.78153166551, -55121.74875995502, -48140.24843457323, 12387.962625975922, 40388.01525688353, 0.10400000000000001, 0.9580000000000001, 0.152, 192.0, 0.0, 0.0, 0.0, 0.0, 0.0, 0.0, 0.0, 0.0, 0.0, 1.7297110316059928E9, 0.0, 2024-10-24 00:47:11.605
171.0, -47847.17236127524, -50219.29594508361, -47072.14797403193, -55206.97596156311, -55088.04232931642, -48109.157158035894, 12176.381012961987, 40157.76993724942, 0.10400000000000001, 0.9580000000000001, 0.152, 192.0, 0.0, 0.0, 0.0, 0.0, 0.0, 0.0, 0.0, 0.0, 0.0, 1.7297110316099784E9, 0.0, 2024-10-24 00:47:11.609
172.0, -47837.38229720382, -50203.73913094272, -47057.954616302806, -55191.821478822414, -55064.237721471516, -48090.94048630482, 11876.219436671667, 39835.77070662627, 0.10400000000000001, 0.9580000000000001, 0.152, 192.0, 0.0, 0.0, 0.0, 0.0, 0.0, 0.0, 0.0, 0.0, 0.0, 1.7297110316139555E9, 0.0, 2024-10-24 00:47:11.613
173.0, -47808.2356224341, -50191.490374981215, -47050.01974702117, -55188.938103787674, -55074.83244834333, -48092.61686713897, 11834.444026284698, 39806.13229347853, 0.10400000000000001, 0.9580000000000001, 0.152, 192.0, 0.0, 0.0, 0.0, 0.0, 0.0, 0.0, 0.0, 0.0, 0.0, 1.7297110316179125E9, 0.0, 2024-10-24 00:47:11.617
174.0, -47817.24337544959, -50206.667209466366, -47068.81756410808, -55207.914734830236, -55097.69828292111, -48119.28249827415, 12127.989486216245, 40141.408460308136, 0.10400000000000001, 0.9580000000000001, 0.152, 192.0, 0.0, 0.0, 0.0, 0.0, 0.0, 0.0, 0.0, 0.0, 0.0, 1.729711031622038E9, 0.0, 2024-10-24 00:47:11.622
175.0, -47842.47849493963, -50226.33674458704, -47090.521107974186, -55221.25872627005, -55120.05002737642, -48130.61483271299, 12367.8684077106, 40414.77029499654, 0.10400000000000001, 0.9580000000000001, 0.152, 192.0, 0.0, 0.0, 0.0, 0.0, 0.0, 0.0, 0.0, 0.0, 0.0, 1.7297110316269736E9, 0.0, 2024-10-24 00:47:11.626
176.0, -47842.03146005052, -50212.47866302475, -47076.4618607118, -55201.90211557176, -55099.37466375526, -48106.0055620677, 12169.273158225198, 40197.62309761323, 0.10400000000000001, 0.9580000000000001, 0.152, 192.0, 0.0, 0.0, 0.0, 0.0, 0.0, 0.0, 0.0, 0.0, 0.0, 1.7297110316299326E9, 0.0, 2024-10-24 00:47:11.629
177.0, -47825.491169153596, -50191.71389242577, -47058.40165119191, -55183.014891507024, -55072.08318377533, -48088.124166503454, 11872.084363947435, 39878.61900074709, 0.10400000000000001, 0.9580000000000001, 0.152, 192.0, 0.0, 0.0, 0.0, 0.0, 0.0, 0.0, 0.0, 0.0, 0.0, 1.7297110316340244E9, 0.0, 2024-10-24 00:47:11.634
178.0, -47804.12290145432, -50182.1473457989, -47053.461915667285, -55183.90896128523, -55085.13660253723, -48089.08529151503, 11824.139872090802, 39839.3022822502, 0.10400000000000001, 0.9580000000000001, 0.152, 192.0, 0.0, 0.0, 0.0, 0.0, 0.0, 0.0, 0.0, 0.0, 0.0, 1.729711031637919E9, 0.0, 2024-10-24 00:47:11.637
179.0, -47817.19867196067, -50203.89559315391, -47072.773822876676, -55208.00414180805, -55103.26386729049, -48111.23587027024, 12136.505500853718, 40190.694056832086, 0.1, 0.96, 0.148, 192.0, 3.0, 32.0, 30.0, 0.0, 4.0, 160.0, 0.0, 0.0, 0.0, 1.7297110316419768E9, 0.0, 2024-10-24 00:47:11.641
180.0, -47841.65148039478, -50223.74394223022, -47086.85542188352, -55224.477377471616, -55103.06270159039, -48128.29025128964, 12403.11710871662, 40489.42512147727, 0.1, 0.96, 0.148, 192.0, 0.0, 0.0, 0.0, 0.0, 0.0, 0.0, 0.0, 0.0, 0.0, 1.729711031646071E9, 0.0, 2024-10-24 00:47:11.646
181.0, -47843.81959960695, -50218.37952356095, -47077.98177933476, -55213.010932566045, -55090.165745039674, -48112.37580923746, 12189.501486957251, 40258.01751113147, 0.1, 0.96, 0.148, 192.0, 0.0, 0.0, 0.0, 0.0, 0.0, 0.0, 0.0, 0.0, 0.0, 1.7297110316500475E9, 0.0, 2024-10-24 00:47:11.650
182.0, -47826.27348020953, -50201.99569487521, -47059.67570062586, -55196.40358643575, -55066.00350928349, -48090.40404443789, 11880.890951262827, 39929.491571127364, 0.1, 0.96, 0.148, 192.0, 0.0, 0.0, 0.0, 0.0, 0.0, 0.0, 0.0, 0.0, 0.0, 1.7297110316561167E9, 0.0, 2024-10-24 00:47:11.656
183.0, -47800.21134617464, -50190.12691856944, -47048.34336618702, -55195.75538584655, -55072.03848028642, -48092.92979156134, 11829.86191867136, 39890.353666586125, 0.1, 0.96, 0.148, 192.0, 0.0, 0.0, 0.0, 0.0, 0.0, 0.0, 0.0, 0.0, 0.0, 1.7297110316590495E9, 0.0, 2024-10-24 00:47:11.659
184.0, -47812.14717771378, -50211.472834524255, -47066.94001757384, -55222.06338907044, -55103.666198690684, -48126.59151871104, 12130.135253683955, 40228.848484617294, 0.1, 0.96, 0.148, 192.0, 0.0, 0.0, 0.0, 0.0, 0.0, 0.0, 0.0, 0.0, 0.0, 1.729711031662955E9, 0.0, 2024-10-24 00:47:11.662
185.0, -47833.60485239087, -50232.41641907888, -47084.866116626996, -55238.69308694519, -55122.732236711054, -48144.405859041915, 12392.902361500546, 40521.276357326075, 0.1, 0.96, 0.148, 192.0, 0.0, 0.0, 0.0, 0.0, 0.0, 0.0, 0.0, 0.0, 0.0, 1.7297110316662018E9, 0.0, 2024-10-24 00:47:11.666
186.0, -47834.83419833591, -50218.893613683416, -47070.3598344755, -55219.18001403571, -55094.54668695291, -48119.41660874088, 12199.582123706596, 40311.23701467956, 0.1, 0.96, 0.148, 192.0, 0.0, 0.0, 0.0, 0.0, 0.0, 0.0, 0.0, 0.0, 0.0, 1.7297110316700869E9, 0.0, 2024-10-24 00:47:11.670
187.0, -47814.96349751514, -50194.9995988607, -47048.566883631574, -55193.6766736122, -55066.60700638378, -48090.784024093635, 11912.83159408946, 40002.2912028183, 0.1, 0.96, 0.148, 192.0, 0.0, 0.0, 0.0, 0.0, 0.0, 0.0, 0.0, 0.0, 0.0, 1.7297110316741092E9, 0.0, 2024-10-24 00:47:11.674
188.0, -47794.19872691616, -50185.969494100755, -47042.5542643731, -55193.31904570092, -55079.86159084578, -48097.981285808244, 11897.095965992925, 39996.278583559826, 0.1, 0.96, 0.148, 192.0, 0.0, 0.0, 0.0, 0.0, 0.0, 0.0, 0.0, 0.0, 0.0, 1.7297110316780071E9, 0.0, 2024-10-24 00:47:11.678
189.0, -47798.40085487376, -50197.97238087325, -47060.97210180427, -55211.24514475407, -55107.3542365258, -48128.871396645474, 12187.489829956274, 40326.41384916471, 0.092, 0.964, 0.15, 192.0, 2.0, 224.0, 30.0, 32.0, 4.0, 176.0, 0.0, 0.0, 0.0, 1.7297110316830528E9, 0.0, 2024-10-24 00:47:11.683
190.0, -47820.70789584016, -50213.97622990325, -47077.35593049001, -55222.64453442628, -55118.75362619801, -48141.276614818176, 12432.107321275154, 40601.675582131815, 0.092, 0.964, 0.15, 192.0, 0.0, 0.0, 0.0, 0.0, 0.0, 0.0, 0.0, 0.0, 0.0, 1.7297110316861227E9, 0.0, 2024-10-24 00:47:11.686
191.0, -47821.289041195996, -50197.637104706424, -47063.31903497208, -55197.45411842515, -55079.59336991231, -48106.787873123634, 12222.447958284374, 40374.35834102134, 0.092, 0.964, 0.15, 192.0, 0.0, 0.0, 0.0, 0.0, 0.0, 0.0, 0.0, 0.0, 0.0, 1.729711031689078E9, 0.0, 2024-10-24 00:47:11.689
192.0, -47807.587421844895, -50182.92965685483, -47053.461915667285, -55183.59603686286, -55074.60893089878, -48089.57702989305, 11933.574012943986, 40062.99854075891, 0.092, 0.964, 0.15, 192.0, 0.0, 0.0, 0.0, 0.0, 0.0, 0.0, 0.0, 0.0, 0.0, 1.7297110316940343E9, 0.0, 2024-10-24 00:47:11.694
193.0, -47786.21915414562, -50177.587589930015, -47049.88563655444, -55189.027510765496, -55087.19296302712, -48099.031817797644, 11929.371884986387, 40070.82165131827, 0.092, 0.964, 0.15, 192.0, 0.0, 0.0, 0.0, 0.0, 0.0, 0.0, 0.0, 0.0, 0.0, 1.7297110316980996E9, 0.0, 2024-10-24 00:47:11.698
194.0, -47792.969380971124, -50191.490374981215, -47066.09065128454, -55205.72426387361, -55101.363969011785, -48121.78589365315, 12214.982475636301, 40395.63720174279, 0.092, 0.964, 0.15, 192.0, 0.0, 0.0, 0.0, 0.0, 0.0, 0.0, 0.0, 0.0, 0.0, 1.72971103170221E9, 0.0, 2024-10-24 00:47:11.702
195.0, -47815.835215548905, -50205.30375305459, -47084.10615731552, -55209.90404008675, -55119.08890236484, -48119.595422696526, 12450.212234283952, 40659.700710737794, 0.092, 0.964, 0.15, 192.0, 0.0, 0.0, 0.0, 0.0, 0.0, 0.0, 0.0, 0.0, 0.0, 1.7297110317061143E9, 0.0, 2024-10-24 00:47:11.706
196.0, -47817.46689289414, -50196.36305527247, -47075.54543918913, -55192.246161967065, -55092.71384390758, -48096.46136718528, 12245.358496351064, 40438.46314411917, 0.092, 0.964, 0.15, 192.0, 0.0, 0.0, 0.0, 0.0, 0.0, 0.0, 0.0, 0.0, 0.0, 1.7297110317121284E9, 0.0, 2024-10-24 00:47:11.712
197.0, -47801.75361654206, -50184.18135454433, -47054.28893021213, -55176.95756875963, -55048.09976197479, -48077.95412277629, 11962.005431891135, 40134.92645441609, 0.092, 0.964, 0.15, 192.0, 0.0, 0.0, 0.0, 0.0, 0.0, 0.0, 0.0, 0.0, 0.0, 1.7297110317151005E9, 0.0, 2024-10-24 00:47:11.715
198.0, -47782.776985499506, -50181.58855218751, -47050.355023188, -55181.36086241733, -55059.78972432491, -48087.163041491876, 11937.507919968119, 40121.73892518746, 0.092, 0.964, 0.15, 192.0, 0.0, 0.0, 0.0, 0.0, 0.0, 0.0, 0.0, 0.0, 0.0, 1.7297110317192032E9, 0.0, 2024-10-24 00:47:11.719
199.0, -47793.55052632696, -50208.812976934074, -47072.2597327542, -55209.63581915329, -55093.04912007441, -48116.71204766179, 12249.717086519848, 40473.77890035855, 0.092, 0.964, 0.15, 192.0, 0.0, 0.0, 0.0, 0.0, 0.0, 0.0, 0.0, 0.0, 0.0, 1.7297110317220936E9, 0.0, 2024-10-24 00:47:11.722
200.0, -47816.43871264919, -50226.873186453966, -47086.78836665015, -55220.09643555838, -55101.207506800594, -48119.796588396624, 12487.696109735503, 40742.44686871134, 0.094, 0.964, 0.154, 192.0, 2.0, 240.0, 30.0, 32.0, 4.0, 208.0, 0.0, 0.0, 0.0, 1.729711031726227E9, 0.0, 2024-10-24 00:47:11.726
201.0, -47814.158834714755, -50216.41257004888, -47072.79617462113, -55203.04205453898, -55086.92474209366, -48096.349608463, 12264.29042390471, 40500.15395881581, 0.094, 0.964, 0.154, 192.0, 0.0, 0.0, 0.0, 0.0, 0.0, 0.0, 0.0, 0.0, 0.0, 1.7297110317301E9, 0.0, 2024-10-24 00:47:11.730
202.0, -47801.574802586416, -50205.50491875469, -47059.85451458151, -55193.140231745274, -55065.80234358339, -48082.268009456166, 11965.984042404181, 40180.56871659383, 0.094, 0.964, 0.154, 192.0, 0.0, 0.0, 0.0, 0.0, 0.0, 0.0, 0.0, 0.0, 0.0, 1.729711031734198E9, 0.0, 2024-10-24 00:47:11.734
203.0, -47777.77019474151, -50199.76052042968, -47050.44443016582, -55195.3307027019, -55065.221198227555, -48086.581896136035, 11943.989925860158, 40170.197507166566, 0.094, 0.964, 0.154, 192.0, 0.0, 0.0, 0.0, 0.0, 0.0, 0.0, 0.0, 0.0, 0.0, 1.7297110317391963E9, 0.0, 2024-10-24 00:47:11.739
204.0, -47793.818747260426, -50220.59234626202, -47079.16642179089, -55224.812653638444, -55112.29397205043, -48121.92000411988, 12238.451807314374, 40501.89739488332, 0.094, 0.964, 0.154, 192.0, 0.0, 0.0, 0.0, 0.0, 0.0, 0.0, 0.0, 0.0, 0.0, 1.7297110317420783E9, 0.0, 2024-10-24 00:47:11.742
205.0, -47815.23171844861, -50237.82554123706, -47094.74558767624, -55240.905909646266, -55120.83233843236, -48139.10849560601, 12490.020691158854, 40782.389436052974, 0.094, 0.964, 0.154, 192.0, 0.0, 0.0, 0.0, 0.0, 0.0, 0.0, 0.0, 0.0, 0.0, 1.7297110317451189E9, 0.0, 2024-10-24 00:47:11.745
206.0, -47808.19091894518, -50223.40866606339, -47073.533782188155, -55218.33064774641, -55071.300872719396, -48113.8063208826, 12278.774354311749, 40553.06053794152, 0.094, 0.964, 0.154, 192.0, 0.0, 0.0, 0.0, 0.0, 0.0, 0.0, 0.0, 0.0, 0.0, 1.7297110317501028E9, 0.0, 2024-10-24 00:47:11.750
207.0, -47795.60688681685, -50209.30471531209, -47062.31320647159, -55202.930295816695, -55056.414610912165, -48091.58868689403, 11982.501981556652, 40236.135153309726, 0.094, 0.964, 0.154, 192.0, 0.0, 0.0, 0.0, 0.0, 0.0, 0.0, 0.0, 0.0, 0.0, 1.7297110317541142E9, 0.0, 2024-10-24 00:47:11.754
208.0, -47775.66913076271, -50201.52630824165, -47057.999319791714, -55204.42786269521, -55070.94324480811, -48095.5002421737, 11946.918004383804, 40212.93404256512, 0.094, 0.964, 0.154, 192.0, 0.0, 0.0, 0.0, 0.0, 0.0, 0.0, 0.0, 0.0, 0.0, 1.7297110317581255E9, 0.0, 2024-10-24 00:47:11.758
209.0, -47789.951895469654, -50217.351343316004, -47084.84376488254, -55226.10905481685, -55101.34161726733, -48122.948184364825, 12244.911461461958, 40550.35597686243, 0.094, 0.964, 0.154, 192.0, 0.0, 0.0, 0.0, 0.0, 0.0, 0.0, 0.0, 0.0, 0.0, 1.72971103176218E9, 0.0, 2024-10-24 00:47:11.762
210.0, -47811.72249456913, -50229.62245102197, -47103.77569243618, -55236.16733982174, -55121.05585587691, -48132.604137969516, 12484.589217256214, 40819.80625627116, 0.096, 0.968, 0.156, 192.0, 3.0, 0.0, 30.0, 64.0, 4.0, 224.0, 0.0, 0.0, 0.0, 1.7297110317671566E9, 0.0, 2024-10-24 00:47:11.767
211.0, -47813.82355854793, -50217.7536747162, -47094.857346398516, -55218.531813446505, -55097.47476547656, -48110.81118712559, 12275.980386254834, 40593.24897447217, 0.096, 0.968, 0.156, 192.0, 0.0, 0.0, 0.0, 0.0, 0.0, 0.0, 0.0, 0.0, 0.0, 1.7297110317701342E9, 0.0, 2024-10-24 00:47:11.770
212.0, -47792.52234608202, -50195.51368898317, -47075.03134906666, -55197.275304469505, -55065.847047072304, -48085.57606763555, 11989.743946760173, 40286.247764378524, 0.096, 0.968, 0.156, 192.0, 0.0, 0.0, 0.0, 0.0, 0.0, 0.0, 0.0, 0.0, 0.0, 1.7297110317732108E9, 0.0, 2024-10-24 00:47:11.773
213.0, -47771.98109292759, -50187.35530225698, -47068.61639840799, -55197.99056029208, -55069.15510525169, -48090.20287873779, 11974.589464019475, 40280.95040094262, 0.096, 0.968, 0.156, 192.0, 0.0, 0.0, 0.0, 0.0, 0.0, 0.0, 0.0, 0.0, 0.0, 1.7297110317782488E9, 0.0, 2024-10-24 00:47:11.778
214.0, -47775.64677901826, -50203.448558264805, -47082.765052648196, -55217.72715064611, -55091.931532851646, -48118.72370466277, 12291.917180051469, 40634.86792264794, 0.096, 0.968, 0.156, 192.0, 0.0, 0.0, 0.0, 0.0, 0.0, 0.0, 0.0, 0.0, 0.0, 1.7297110317823184E9, 0.0, 2024-10-24 00:47:11.782
215.0, -47802.960610742644, -50222.402837562906, -47106.9719918933, -55231.65228744177, -55114.28327730695, -48129.13961757894, 12521.022560718366, 40893.14232982902, 0.096, 0.968, 0.156, 192.0, 0.0, 0.0, 0.0, 0.0, 0.0, 0.0, 0.0, 0.0, 0.0, 1.729711031786221E9, 0.0, 2024-10-24 00:47:11.786
216.0, -47806.671000322225, -50217.59721250501, -47098.52303248919, -55218.0847785574, -55085.51658219297, -48110.94529759232, 12315.654732663004, 40670.51895505416, 0.096, 0.968, 0.156, 192.0, 0.0, 0.0, 0.0, 0.0, 0.0, 0.0, 0.0, 0.0, 0.0, 1.7297110317902324E9, 0.0, 2024-10-24 00:47:11.790
217.0, -47786.10739542334, -50200.47577625225, -47082.02744508117, -55196.425938180204, -55062.11430574826, -48085.821936824555, 12021.841051797994, 40355.31465474542, 0.096, 0.968, 0.156, 192.0, 0.0, 0.0, 0.0, 0.0, 0.0, 0.0, 0.0, 0.0, 0.0, 1.7297110317956407E9, 0.0, 2024-10-24 00:47:11.795
218.0, -47766.39315681376, -50195.02195060515, -47080.19460203584, -55198.7281678591, -55073.401936698196, -48095.9025735739, 12008.608819080451, 40350.86665759882, 0.096, 0.968, 0.156, 192.0, 0.0, 0.0, 0.0, 0.0, 0.0, 0.0, 0.0, 0.0, 0.0, 1.7297110317981696E9, 0.0, 2024-10-24 00:47:11.798
219.0, -47776.65260751875, -50212.2998490691, -47098.79125342265, -55218.30829600195, -55104.24734404652, -48120.33303026355, 12334.407846261007, 40715.848292809525, 0.096, 0.968, 0.156, 192.0, 0.0, 0.0, 0.0, 0.0, 0.0, 0.0, 0.0, 0.0, 0.0, 1.7297110318014088E9, 0.0, 2024-10-24 00:47:11.801
220.0, -47796.65741880625, -50225.30856434209, -47109.07305587209, -55224.87970887181, -55104.44850974662, -48120.645954685926, 12566.396601962639, 40978.32482794819, 0.096, 0.97, 0.158, 192.0, 3.0, 0.0, 30.0, 80.0, 4.0, 240.0, 0.0, 0.0, 0.0, 1.7297110318062155E9, 0.0, 2024-10-24 00:47:11.806
221.0, -47801.82067177542, -50220.7041049843, -47098.344218533544, -55212.653304654756, -55084.019015314465, -48102.16106202138, 12375.244483380853, 40769.13485159098, 0.096, 0.97, 0.158, 192.0, 0.0, 0.0, 0.0, 0.0, 0.0, 0.0, 0.0, 0.0, 0.0, 1.7297110318124092E9, 0.0, 2024-10-24 00:47:11.812
222.0, -47780.92179070971, -50202.91211639788, -47078.60762817951, -55194.34722594586, -55059.275634202444, -48086.35837869148, 12090.572665998063, 40462.424214175255, 0.096, 0.97, 0.158, 192.0, 0.0, 0.0, 0.0, 0.0, 0.0, 0.0, 0.0, 0.0, 0.0, 1.729711031815488E9, 0.0, 2024-10-24 00:47:11.815
223.0, -47759.8217439439, -50195.536040727624, -47072.12562228747, -55195.28599921298, -55067.23285522853, -48094.11443401747, 12084.828267673049, 40467.162783999775, 0.096, 0.97, 0.158, 192.0, 0.0, 0.0, 0.0, 0.0, 0.0, 0.0, 0.0, 0.0, 0.0, 1.7297110318182378E9, 0.0, 2024-10-24 00:47:11.818
224.0, -47762.772174212005, -50201.79452917511, -47081.93803810335, -55202.81853709442, -55082.208524013586, -48102.22811725475, 12362.21341636341, 40781.763587208225, 0.096, 0.97, 0.158, 192.0, 0.0, 0.0, 0.0, 0.0, 0.0, 0.0, 0.0, 0.0, 0.0, 1.729711031822261E9, 0.0, 2024-10-24 00:47:11.822
225.0, -47783.671055277715, -50217.06077063808, -47098.45597725582, -55213.12269128832, -55095.61957068677, -48111.43703597034, 12606.585038493282, 41054.87955270762, 0.096, 0.97, 0.158, 192.0, 0.0, 0.0, 0.0, 0.0, 0.0, 0.0, 0.0, 0.0, 0.0, 1.7297110318262246E9, 0.0, 2024-10-24 00:47:11.826
226.0, -47790.28717163648, -50210.75757870169, -47092.331599275065, -55200.33749345988, -55078.74400362301, -48095.43318694034, 12394.846963268157, 40823.69545980638, 0.096, 0.97, 0.158, 192.0, 0.0, 0.0, 0.0, 0.0, 0.0, 0.0, 0.0, 0.0, 0.0, 1.7297110318295565E9, 0.0, 2024-10-24 00:47:11.829
227.0, -47769.99178767107, -50195.066654094066, -47072.93028508786, -55184.87008629681, -55053.106552732774, -48078.557619876585, 12104.386044071442, 40511.39688627683, 0.096, 0.97, 0.158, 192.0, 0.0, 0.0, 0.0, 0.0, 0.0, 0.0, 0.0, 0.0, 0.0, 1.7297110318345428E9, 0.0, 2024-10-24 00:47:11.834
228.0, -47748.13178159378, -50190.97628485874, -47069.80104086412, -55190.12274624381, -55074.094840776306, -48085.821936824555, 12076.62517745795, 40494.45426397971, 0.096, 0.97, 0.158, 192.0, 0.0, 0.0, 0.0, 0.0, 0.0, 0.0, 0.0, 0.0, 0.0, 1.7297110318387675E9, 0.0, 2024-10-24 00:47:11.838
229.0, -47765.87906669129, -50216.725494471255, -47093.538593475656, -55219.73880764709, -55108.24830630402, -48115.393294738926, 12386.465059097418, 40841.71096583736, 0.096, 0.97, 0.158, 192.0, 0.0, 0.0, 0.0, 0.0, 0.0, 0.0, 0.0, 0.0, 0.0, 1.7297110318434334E9, 0.0, 2024-10-24 00:47:11.843
230.0, -47789.0801774359, -50232.170549889874, -47103.84274766955, -55228.85831938485, -55099.687588177636, -48121.62943144196, 12631.864861472233, 41114.49165516993, 0.096, 0.964, 0.158, 192.0, 3.0, 0.0, 30.0, 32.0, 4.0, 240.0, 0.0, 0.0, 0.0, 1.7297110318462763E9, 0.0, 2024-10-24 00:47:11.846
231.0, -47788.72254952462, -50216.14434911541, -47090.47640448528, -55207.7806243635, -55065.55647439438, -48098.09304453052, 12436.532966677305, 40899.44552176542, 0.096, 0.964, 0.158, 192.0, 0.0, 0.0, 0.0, 0.0, 0.0, 0.0, 0.0, 0.0, 0.0, 1.7297110318502376E9, 0.0, 2024-10-24 00:47:11.850
232.0, -47769.67886324869, -50198.754691929185, -47075.52308744468, -55191.06151951093, -55051.49722713199, -48077.19416346481, 12139.411227632909, 40580.46377664373, 0.096, 0.964, 0.158, 192.0, 0.0, 0.0, 0.0, 0.0, 0.0, 0.0, 0.0, 0.0, 0.0, 1.729711031854258E9, 0.0, 2024-10-24 00:47:11.854
233.0, -47753.9208834077, -50195.4466337498, -47079.814622380094, -55197.18589749168, -55084.778974625944, -48083.31854144556, 12107.582343528551, 40559.90017174485, 0.096, 0.964, 0.158, 192.0, 0.0, 0.0, 0.0, 0.0, 0.0, 0.0, 0.0, 0.0, 0.0, 1.7297110318572857E9, 0.0, 2024-10-24 00:47:11.857
234.0, -47769.99178767107, -50217.30663982709, -47103.79804418064, -55222.59983093737, -55101.60983820079, -48116.7567511507, 12429.000428795867, 40919.539740030734, 0.096, 0.964, 0.158, 192.0, 0.0, 0.0, 0.0, 0.0, 0.0, 0.0, 0.0, 0.0, 0.0, 1.7297110318612692E9, 0.0, 2024-10-24 00:47:11.861
235.0, -47789.30369488045, -50235.90329121391, -47115.2197855973, -55231.07114208593, -55098.03355908794, -48122.27763203116, 12695.522629680949, 41212.79462728437, 0.096, 0.964, 0.158, 192.0, 0.0, 0.0, 0.0, 0.0, 0.0, 0.0, 0.0, 0.0, 0.0, 1.729711031866267E9, 0.0, 2024-10-24 00:47:11.866
236.0, -47782.79933724396, -50221.329953829045, -47098.94771563384, -55208.76410111954, -55066.115268005764, -48092.19218399432, 12496.055662161787, 40991.17708101, 0.096, 0.964, 0.158, 192.0, 0.0, 0.0, 0.0, 0.0, 0.0, 0.0, 0.0, 0.0, 0.0, 1.72971103187029E9, 0.0, 2024-10-24 00:47:11.870
237.0, -47760.91697942221, -50204.141462342915, -47077.445337467834, -55191.06151951093, -55042.86945377225, -48074.26608494116, 12183.131239787488, 40655.31976882455, 0.096, 0.964, 0.158, 192.0, 0.0, 0.0, 0.0, 0.0, 0.0, 0.0, 0.0, 0.0, 0.0, 1.729711031874334E9, 0.0, 2024-10-24 00:47:11.874
238.0, -47744.75666818103, -50206.17547108835, -47078.27235201268, -55200.80688009344, -55061.89078830371, -48089.12999500394, 12186.416946222418, 40669.066091664565, 0.096, 0.964, 0.158, 192.0, 0.0, 0.0, 0.0, 0.0, 0.0, 0.0, 0.0, 0.0, 0.0, 1.7297110318788724E9, 0.0, 2024-10-24 00:47:11.878
239.0, -47754.63613923027, -50224.01216316369, -47093.69505568684, -55221.392836736784, -55086.58946592682, -48114.38746623844, 12506.985665200433, 41024.637642459595, 0.096, 0.964, 0.158, 192.0, 0.0, 0.0, 0.0, 0.0, 0.0, 0.0, 0.0, 0.0, 0.0, 1.7297110318825676E9, 0.0, 2024-10-24 00:47:11.882
240.0, -47773.523363295004, -50232.21525337878, -47104.289782558655, -55223.762121649044, -55087.863515360776, -48117.203786039805, 12753.860682709299, 41297.619497492255, 0.096, 0.976, 0.162, 192.0, 3.0, 0.0, 30.0, 128.0, 5.0, 16.0, 0.0, 0.0, 0.0, 1.72971103188531E9, 0.0, 2024-10-24 00:47:11.885
241.0, -47767.801316714445, -50215.58555550403, -47088.4647474843, -55198.884630070286, -55069.333919207325, -48085.888992057924, 12552.605575633714, 41075.55491632878, 0.096, 0.976, 0.162, 192.0, 0.0, 0.0, 0.0, 0.0, 0.0, 0.0, 0.0, 0.0, 0.0, 1.729711031889336E9, 0.0, 2024-10-24 00:47:11.889
242.0, -47754.21145608562, -50199.6487617074, -47076.70772990081, -55181.606731606335, -55054.09002948881, -48069.30399767208, 12248.219519641343, 40747.788935636156, 0.096, 0.976, 0.162, 192.0, 0.0, 0.0, 0.0, 0.0, 0.0, 0.0, 0.0, 0.0, 0.0, 1.7297110318963113E9, 0.0, 2024-10-24 00:47:11.896
243.0, -47735.41363899871, -50196.27364829465, -47070.69511064233, -55186.90409504224, -55061.309642947876, -48081.9997885227, 12250.857025487068, 40759.478897986286, 0.096, 0.976, 0.162, 192.0, 0.0, 0.0, 0.0, 0.0, 0.0, 0.0, 0.0, 0.0, 0.0, 1.7297110318983288E9, 0.0, 2024-10-24 00:47:11.898
244.0, -47752.60213048484, -50216.34551481551, -47087.66008468391, -55207.55710691895, -55085.58363742634, -48107.078445801555, 12559.646375137136, 41100.45475965199, 0.096, 0.976, 0.162, 192.0, 0.0, 0.0, 0.0, 0.0, 0.0, 0.0, 0.0, 0.0, 0.0, 1.7297110319042983E9, 0.0, 2024-10-24 00:47:11.904
245.0, -47771.95874118313, -50230.87414871147, -47103.99920988074, -55216.36369423434, -55102.88388763474, -48114.29805926062, 12815.462090428126, 41380.43271069917, 0.096, 0.976, 0.162, 192.0, 0.0, 0.0, 0.0, 0.0, 0.0, 0.0, 0.0, 0.0, 0.0, 1.7297110319073284E9, 0.0, 2024-10-24 00:47:11.907
246.0, -47769.16477312622, -50218.75950321669, -47085.98370384976, -55194.97307479061, -55062.561340637374, -48085.01727402416, 12615.078701386297, 41156.691748701545, 0.096, 0.976, 0.162, 192.0, 0.0, 0.0, 0.0, 0.0, 0.0, 0.0, 0.0, 0.0, 0.0, 1.729711031910358E9, 0.0, 2024-10-24 00:47:11.910
247.0, -47753.183275840674, -50204.72260769876, -47069.46576469729, -55180.93617927268, -55051.921910276644, -48070.68980582831, 12319.566287942684, 40837.26296869075, 0.096, 0.976, 0.162, 192.0, 0.0, 0.0, 0.0, 0.0, 0.0, 0.0, 0.0, 0.0, 0.0, 1.729711031913324E9, 0.0, 2024-10-24 00:47:11.913
248.0, -47736.93355762167, -50196.385407016925, -47068.48228794125, -55183.75249907404, -55063.45541041558, -48076.590666364515, 12284.675214847948, 40813.145436423474, 0.096, 0.976, 0.162, 192.0, 0.0, 0.0, 0.0, 0.0, 0.0, 0.0, 0.0, 0.0, 0.0, 1.7297110319173856E9, 0.0, 2024-10-24 00:47:11.917
249.0, -47754.524380507995, -50215.63025899295, -47087.52597421718, -55207.17712726321, -55077.22408500005, -48102.98807656623, 12603.411090780628, 41167.867620929195, 0.096, 0.976, 0.162, 192.0, 0.0, 0.0, 0.0, 0.0, 0.0, 0.0, 0.0, 0.0, 0.0, 1.7297110319223757E9, 0.0, 2024-10-24 00:47:11.922
250.0, -47787.6273140463, -50236.305622614105, -47114.28101233018, -55223.02451408202, -55091.99858808501, -48114.834501127545, 12853.393000768781, 41443.55403704096, 0.096, 0.97, 0.158, 192.0, 3.0, 0.0, 30.0, 80.0, 4.0, 240.0, 0.0, 0.0, 0.0, 1.729711031926524E9, 0.0, 2024-10-24 00:47:11.926
251.0, -47784.54277331147, -50225.822654464566, -47104.62505872548, -55206.148947018264, -55078.073451289354, -48090.98518979373, 12656.675297817625, 41224.90927277914, 0.096, 0.97, 0.158, 192.0, 0.0, 0.0, 0.0, 0.0, 0.0, 0.0, 0.0, 0.0, 0.0, 1.7297110319303396E9, 0.0, 2024-10-24 00:47:11.930
252.0, -47765.16381086872, -50210.31054381258, -47088.777671906675, -55188.78164157649, -55058.225102213044, -48070.89097152841, 12372.048183923744, 40915.94110917344, 0.096, 0.97, 0.158, 192.0, 0.0, 0.0, 0.0, 0.0, 0.0, 0.0, 0.0, 0.0, 0.0, 1.7297110319343364E9, 0.0, 2024-10-24 00:47:11.934
253.0, -47744.68961294766, -50204.007351876186, -47082.8097561371, -55191.55325788895, -55059.275634202444, -48078.490564643216, 12357.005459905322, 40909.548510259214, 0.096, 0.97, 0.158, 192.0, 0.0, 0.0, 0.0, 0.0, 0.0, 0.0, 0.0, 0.0, 0.0, 1.7297110319374342E9, 0.0, 2024-10-24 00:47:11.937
254.0, -47754.21145608562, -50220.36882881747, -47103.14984359143, -55211.535717431994, -55082.00735831349, -48102.317524232574, 12656.675297817625, 41244.5341044109, 0.096, 0.97, 0.158, 192.0, 0.0, 0.0, 0.0, 0.0, 0.0, 0.0, 0.0, 0.0, 0.0, 1.7297110319413855E9, 0.0, 2024-10-24 00:47:11.941
255.0, -47777.099642407855, -50234.36102084649, -47117.007925153724, -55221.817519881435, -55087.63999791622, -48114.678038916354, 12903.75148102659, 41518.43238096624, 0.096, 0.97, 0.158, 192.0, 0.0, 0.0, 0.0, 0.0, 0.0, 0.0, 0.0, 0.0, 0.0, 1.729711031945374E9, 0.0, 2024-10-24 00:47:11.945
0.0, -47780.36299709833, -50223.09574164102, -47111.73291346228, -55205.47839468461, -55073.29017797592, -48096.32725671855, 12696.75197562599, 41287.71767469856, 0.096, 0.97, 0.158, 192.0, 0.0, 0.0, 0.0, 0.0, 0.0, 0.0, 0.0, 0.0, 0.0, 1.729711031950457E9, 0.0, 2024-10-24 00:47:11.950
1.0, -47763.330967823385, -50206.46604376627, -47095.86317489901, -55188.803993320944, -55057.48749464602, -48076.76948032016, 12421.624353125615, 40988.20429899744, 0.096, 0.97, 0.158, 192.0, 0.0, 0.0, 0.0, 0.0, 0.0, 0.0, 0.0, 0.0, 0.0, 1.7297110319543867E9, 0.0, 2024-10-24 00:47:11.954
2.0, -47735.435990743164, -50193.05499709309, -47082.8097561371, -55183.52898162949, -55053.41947715515, -48080.39046292192, 12421.914925803534, 40998.888432847074, 0.096, 0.97, 0.158, 192.0, 0.0, 0.0, 0.0, 0.0, 0.0, 0.0, 0.0, 0.0, 0.0, 1.7297110319584148E9, 0.0, 2024-10-24 00:47:11.958
3.0, -47743.3708600248, -50208.27653506715, -47096.75724467722, -55203.62319989481, -55082.56615192487, -48109.49243420273, 12713.538135711926, 41323.771038504965, 0.096, 0.97, 0.158, 192.0, 0.0, 0.0, 0.0, 0.0, 0.0, 0.0, 0.0, 0.0, 0.0, 1.7297110319623797E9, 0.0, 2024-10-24 00:47:11.962
4.0, -47770.19295337117, -50230.024782422166, -47114.70569547483, -55217.54833669047, -55094.34552125282, -48118.14255930693, 12955.987507818641, 41586.94047772175, 0.098, 0.97, 0.16, 192.0, 3.0, 16.0, 30.0, 80.0, 5.0, 0.0, 0.0, 0.0, 0.0, 1.729711031965529E9, 0.0, 2024-10-24 00:47:11.965
5.0, -47767.086060891874, -50217.46310203828, -47099.35004703404, -55197.20824923614, -55071.39027969722, -48088.347683948006, 12739.846138935822, 41346.838038782844, 0.098, 0.97, 0.16, 192.0, 0.0, 0.0, 0.0, 0.0, 0.0, 0.0, 0.0, 0.0, 0.0, 1.729711031969472E9, 0.0, 2024-10-24 00:47:11.969
6.0, -47746.611862970814, -50202.01804661966, -47081.46865146979, -55183.52898162949, -55046.17751195163, -48077.19416346481, 12470.351156038185, 41051.347977083686, 0.098, 0.97, 0.16, 192.0, 0.0, 0.0, 0.0, 0.0, 0.0, 0.0, 0.0, 0.0, 0.0, 1.729711031973441E9, 0.0, 2024-10-24 00:47:11.973
7.0, -47727.881101117266, -50195.066654094066, -47078.11588980149, -55186.47941189759, -55050.80432305388, -48084.5478873906, 12493.909894694078, 41082.68512281002, 0.098, 0.97, 0.16, 192.0, 0.0, 0.0, 0.0, 0.0, 0.0, 0.0, 0.0, 0.0, 0.0, 1.7297110319774196E9, 0.0, 2024-10-24 00:47:11.977
8.0, -47743.08028734688, -50211.15991010188, -47100.9146691459, -55208.56293541944, -55085.29306474842, -48112.33110574855, 12800.933456532175, 41424.28683332048, 0.098, 0.97, 0.16, 192.0, 0.0, 0.0, 0.0, 0.0, 0.0, 0.0, 0.0, 0.0, 0.0, 1.7297110319824228E9, 0.0, 2024-10-24 00:47:11.982
9.0, -47771.35524408284, -50227.02964866515, -47120.42774205539, -55217.2354122681, -55103.28621903494, -48121.20474829731, 13031.871680244409, 41680.370769544934, 0.098, 0.97, 0.16, 192.0, 0.0, 0.0, 0.0, 0.0, 0.0, 0.0, 0.0, 0.0, 0.0, 1.7297110319864378E9, 0.0, 2024-10-24 00:47:11.986
10.0, -47777.68078776369, -50215.51850027067, -47110.68238147288, -55195.107185257344, -55077.447602444605, -48088.14651824791, 12834.461073215136, 41458.75322327056, 0.098, 0.97, 0.16, 192.0, 0.0, 0.0, 0.0, 0.0, 0.0, 0.0, 0.0, 0.0, 0.0, 1.7297110319905217E9, 0.0, 2024-10-24 00:47:11.990
11.0, -47754.367918296804, -50193.569087215554, -47086.14016606095, -55168.48625761107, -55038.39910488118, -48058.217532422255, 12552.918500056088, 41152.33315853276, 0.098, 0.97, 0.16, 192.0, 0.0, 0.0, 0.0, 0.0, 0.0, 0.0, 0.0, 0.0, 0.0, 1.7297110319933987E9, 0.0, 2024-10-24 00:47:11.993
12.0, -47734.944252365145, -50193.05499709309, -47082.11685205899, -55172.75544080204, -55056.28050044543, -48070.82391629505, 12544.201319718519, 41154.56833297829, 0.098, 0.97, 0.16, 192.0, 0.0, 0.0, 0.0, 0.0, 0.0, 0.0, 0.0, 0.0, 0.0, 1.729711031997424E9, 0.0, 2024-10-24 00:47:11.997
13.0, -47745.89660714824, -50212.14338685792, -47103.88745115846, -55193.74372884557, -55091.46214621808, -48094.04737878411, 12837.54561394997, 41481.574354359436, 0.098, 0.97, 0.16, 192.0, 0.0, 0.0, 0.0, 0.0, 0.0, 0.0, 0.0, 0.0, 0.0, 1.7297110320014496E9, 0.0, 2024-10-24 00:47:12.001
14.0, -47780.56416279843, -50237.04323018113, -47127.75911423673, -55212.69800814367, -55100.604009700306, -48111.10175980351, 13083.012471558151, 41750.287026201135, 0.1, 0.966, 0.162, 192.0, 3.0, 32.0, 30.0, 48.0, 5.0, 16.0, 0.0, 0.0, 0.0, 1.7297110320054471E9, 0.0, 2024-10-24 00:47:12.005
15.0, -47782.329950610394, -50227.2531661097, -47117.298497831645, -55198.661112625734, -55076.17355301065, -48088.45944267028, 12898.320007123948, 41540.47120099917, 0.1, 0.966, 0.162, 192.0, 0.0, 0.0, 0.0, 0.0, 0.0, 0.0, 0.0, 0.0, 0.0, 1.7297110320104446E9, 0.0, 2024-10-24 00:47:12.010
16.0, -47761.49812477805, -50207.002485633195, -47101.80873892412, -55184.758327574535, -55051.54193062091, -48074.46725064126, 12612.463547285028, 41228.59731061427, 0.1, 0.966, 0.162, 192.0, 0.0, 0.0, 0.0, 0.0, 0.0, 0.0, 0.0, 0.0, 0.0, 1.7297110320144475E9, 0.0, 2024-10-24 00:47:12.014
17.0, -47743.10263909133, -50201.81688091956, -47100.13235808997, -55193.83313582339, -55059.052116757885, -48091.49927991621, 12611.323608317805, 41237.426249674114, 0.1, 0.966, 0.162, 192.0, 0.0, 0.0, 0.0, 0.0, 0.0, 0.0, 0.0, 0.0, 0.0, 1.7297110320184612E9, 0.0, 2024-10-24 00:47:12.018
18.0, -47755.26198807502, -50217.12782587145, -47119.31015483262, -55212.45213895466, -55087.08120430484, -48107.637239412936, 12900.465774591657, 41559.3584250639, 0.1, 0.966, 0.162, 192.0, 0.0, 0.0, 0.0, 0.0, 0.0, 0.0, 0.0, 0.0, 0.0, 1.7297110320214949E9, 0.0, 2024-10-24 00:47:12.021
19.0, -47782.93344771069, -50237.93729995934, -47140.007870198235, -55230.489996730095, -55101.72159692307, -48121.76354190869, 13137.282507095637, 41819.39862005694, 0.1, 0.966, 0.162, 192.0, 0.0, 0.0, 0.0, 0.0, 0.0, 0.0, 0.0, 0.0, 0.0, 1.7297110320255E9, 0.0, 2024-10-24 00:47:12.025
20.0, -47779.1783546422, -50227.32022134307, -47126.440361313864, -55215.60373492286, -55079.99570131251, -48101.49050968773, 12935.736827342133, 41593.24366965815, 0.1, 0.966, 0.162, 192.0, 0.0, 0.0, 0.0, 0.0, 0.0, 0.0, 0.0, 0.0, 0.0, 1.729711032029476E9, 0.0, 2024-10-24 00:47:12.029
21.0, -47754.032642129976, -50208.56710774507, -47098.075997600085, -55194.21311547913, -55042.86945377225, -48078.71408208777, 12657.994050740488, 41289.21524157706, 0.1, 0.966, 0.162, 192.0, 0.0, 0.0, 0.0, 0.0, 0.0, 0.0, 0.0, 0.0, 0.0, 1.7297110320334945E9, 0.0, 2024-10-24 00:47:12.033
22.0, -47736.53122622147, -50207.628334477944, -47094.81264290961, -55202.25974348304, -55059.52150339145, -48095.27672472915, 12668.164094467653, 41308.59420401981, 0.1, 0.966, 0.162, 192.0, 0.0, 0.0, 0.0, 0.0, 0.0, 0.0, 0.0, 0.0, 0.0, 1.7297110320384426E9, 0.0, 2024-10-24 00:47:12.038
23.0, -47750.63517697277, -50226.51555854268, -47115.73387571977, -55224.8350053829, -55092.691492163125, -48123.52932972066, 12974.248883038626, 41649.01127207414, 0.1, 0.966, 0.162, 192.0, 0.0, 0.0, 0.0, 0.0, 0.0, 0.0, 0.0, 0.0, 0.0, 1.7297110320424404E9, 0.0, 2024-10-24 00:47:12.042
24.0, -47777.45727031914, -50244.37460236247, -47134.911672462425, -55238.64838345628, -55105.968428369575, -48139.75669619521, 13197.743975847243, 41897.71913262834, 0.094, 0.974, 0.158, 192.0, 2.0, 240.0, 30.0, 112.0, 4.0, 240.0, 0.0, 0.0, 0.0, 1.7297110320464995E9, 0.0, 2024-10-24 00:47:12.046
25.0, -47778.21722963062, -50230.985907433744, -47119.824244955096, -55218.48710995759, -55078.58754141183, -48108.79953012461, 12995.840668182454, 41671.653589207366, 0.094, 0.974, 0.158, 192.0, 0.0, 0.0, 0.0, 0.0, 0.0, 0.0, 0.0, 0.0, 0.0, 1.7297110320495312E9, 0.0, 2024-10-24 00:47:12.049
26.0, -47765.09675563536, -50217.59721250501, -47103.14984359143, -55201.72330161611, -55056.88399754572, -48080.18929722182, 12741.969554659076, 41390.93803059316, 0.094, 0.974, 0.158, 192.0, 0.0, 0.0, 0.0, 0.0, 0.0, 0.0, 0.0, 0.0, 0.0, 1.7297110320535383E9, 0.0, 2024-10-24 00:47:12.053
27.0, -47738.58758671136, -50206.01900887716, -47090.878735885475, -55198.795223092464, -55055.18526496712, -48082.17860247834, 12747.937470428644, 41405.37725751129, 0.094, 0.974, 0.158, 192.0, 0.0, 0.0, 0.0, 0.0, 0.0, 0.0, 0.0, 0.0, 0.0, 1.7297110320575163E9, 0.0, 2024-10-24 00:47:12.057
28.0, -47749.11525834981, -50223.20750036329, -47107.575488993585, -55219.35882799135, -55083.84020135882, -48107.10079754601, 13039.873604759408, 41731.51156085868, 0.094, 0.974, 0.158, 192.0, 0.0, 0.0, 0.0, 0.0, 0.0, 0.0, 0.0, 0.0, 0.0, 1.7297110320615218E9, 0.0, 2024-10-24 00:47:12.061
29.0, -47779.491279064576, -50242.742925017235, -47126.99915492525, -55230.489996730095, -55093.83143113035, -48116.644992428424, 13288.045023446683, 42001.69944783443, 0.094, 0.974, 0.158, 192.0, 0.0, 0.0, 0.0, 0.0, 0.0, 0.0, 0.0, 0.0, 0.0, 1.7297110320665164E9, 0.0, 2024-10-24 00:47:12.066
30.0, -47776.049110418455, -50225.17445387536, -47108.782483194176, -55207.84767959687, -55067.590483139815, -48091.85690782749, 13079.078564534017, 41767.22964849826, 0.094, 0.974, 0.158, 192.0, 0.0, 0.0, 0.0, 0.0, 0.0, 0.0, 0.0, 0.0, 0.0, 1.7297110320705624E9, 0.0, 2024-10-24 00:47:12.070
31.0, -47758.100659620846, -50207.628334477944, -47094.20914580931, -55190.79329857747, -55056.839294056816, -48075.49543088621, 12808.309532202427, 41470.26437166505, 0.094, 0.974, 0.158, 192.0, 0.0, 0.0, 0.0, 0.0, 0.0, 0.0, 0.0, 0.0, 0.0, 1.7297110320745633E9, 0.0, 2024-10-24 00:47:12.074
32.0, -47737.87233088879, -50203.13563384243, -47086.29662827213, -55194.548391645956, -55058.33686093532, -48089.97936129324, 12826.034465555485, 41496.93000280023, 0.094, 0.974, 0.158, 192.0, 0.0, 0.0, 0.0, 0.0, 0.0, 0.0, 0.0, 0.0, 0.0, 1.7297110320775688E9, 0.0, 2024-10-24 00:47:12.077
33.0, -47755.999595642046, -50226.8061312206, -47112.13524486247, -55218.39770297977, -55091.46214621808, -48117.42730348436, 13170.832475523053, 41872.79693756067, 0.094, 0.974, 0.158, 192.0, 0.0, 0.0, 0.0, 0.0, 0.0, 0.0, 0.0, 0.0, 0.0, 1.7297110320815425E9, 0.0, 2024-10-24 00:47:12.081
34.0, -47774.372729584305, -50239.77014300468, -47120.092465888556, -55219.60469718036, -55089.76341363948, -48109.09010280253, 13394.372271820579, 42116.3415451457, 0.098, 0.974, 0.156, 192.0, 3.0, 16.0, 30.0, 112.0, 4.0, 224.0, 0.0, 0.0, 0.0, 1.7297110320855408E9, 0.0, 2024-10-24 00:47:12.085
35.0, -47771.288188849474, -50226.00146842021, -47105.42972152588, -55200.58336264889, -55069.24451222951, -48083.005617023184, 13166.69740279882, 41864.05740547865, 0.098, 0.974, 0.156, 192.0, 0.0, 0.0, 0.0, 0.0, 0.0, 0.0, 0.0, 0.0, 0.0, 1.7297110320895696E9, 0.0, 2024-10-24 00:47:12.089
36.0, -47758.726508465596, -50209.103549611995, -47094.857346398516, -55187.99933052056, -55065.355308694285, -48073.304959929585, 12887.322948851937, 41559.24666634163, 0.098, 0.974, 0.156, 192.0, 0.0, 0.0, 0.0, 0.0, 0.0, 0.0, 0.0, 0.0, 0.0, 1.729711032093691E9, 0.0, 2024-10-24 00:47:12.093
37.0, -47746.09777284834, -50205.92960189934, -47093.71740743129, -55195.86714456882, -55078.341672222814, -48088.37003569246, 12920.045902734508, 41601.111483706416, 0.098, 0.974, 0.156, 192.0, 0.0, 0.0, 0.0, 0.0, 0.0, 0.0, 0.0, 0.0, 0.0, 1.7297110320985951E9, 0.0, 2024-10-24 00:47:12.098
38.0, -47765.05205214644, -50224.16862537487, -47116.13620711997, -55217.28011575701, -55101.006341100496, -48111.817015626075, 13235.38431350998, 41948.479944286344, 0.098, 0.974, 0.156, 192.0, 0.0, 0.0, 0.0, 0.0, 0.0, 0.0, 0.0, 0.0, 0.0, 1.72971103210257E9, 0.0, 2024-10-24 00:47:12.102
39.0, -47795.763349028035, -50245.112209929495, -47134.93402420689, -55232.367543264336, -55101.34161726733, -48126.926794877865, 13460.421676686012, 42195.48907226194, 0.098, 0.974, 0.156, 192.0, 0.0, 0.0, 0.0, 0.0, 0.0, 0.0, 0.0, 0.0, 0.0, 1.7297110321055515E9, 0.0, 2024-10-24 00:47:12.105
40.0, -47787.22498264611, -50230.13654114444, -47120.49479728875, -55213.45796745515, -55076.7994018554, -48107.972515579764, 13265.737982480287, 41974.31856087668, 0.098, 0.974, 0.156, 192.0, 0.0, 0.0, 0.0, 0.0, 0.0, 0.0, 0.0, 0.0, 0.0, 1.7297110321095665E9, 0.0, 2024-10-24 00:47:12.109
41.0, -47771.24348536057, -50208.41064553388, -47107.2178610823, -55195.48716491308, -55064.12596274924, -48084.88316355743, 12985.916493644298, 41667.42910950531, 0.098, 0.974, 0.156, 192.0, 0.0, 0.0, 0.0, 0.0, 0.0, 0.0, 0.0, 0.0, 0.0, 1.7297110321135716E9, 0.0, 2024-10-24 00:47:12.113
42.0, -47752.915054907215, -50206.13076759944, -47104.6697622144, -55204.87489758431, -55065.198846483094, -48099.031817797644, 12996.019482138096, 41686.808071948064, 0.098, 0.974, 0.156, 192.0, 0.0, 0.0, 0.0, 0.0, 0.0, 0.0, 0.0, 0.0, 0.0, 1.7297110321176383E9, 0.0, 2024-10-24 00:47:12.117
43.0, -47771.511706294026, -50228.7060294993, -47127.31207934763, -55231.7863979085, -55097.027730587455, -48131.17362632437, 13297.410404373457, 42020.74313411035, 0.098, 0.974, 0.156, 192.0, 0.0, 0.0, 0.0, 0.0, 0.0, 0.0, 0.0, 0.0, 0.0, 1.7297110321216393E9, 0.0, 2024-10-24 00:47:12.121
44.0, -47796.43390136169, -50243.94991921782, -47141.77365801021, -55242.51523524705, -55118.77597794247, -48137.43211477186, 13519.609096003664, 42264.77948007339, 0.098, 0.964, 0.158, 192.0, 3.0, 16.0, 30.0, 32.0, 4.0, 240.0, 0.0, 0.0, 0.0, 1.7297110321265998E9, 0.0, 2024-10-24 00:47:12.126
45.0, -47792.32118038192, -50230.53887254463, -47120.85242520004, -55222.48807221509, -55077.46995418906, -48103.83744285553, 13310.530878368721, 42031.76254412682, 0.098, 0.964, 0.158, 192.0, 0.0, 0.0, 0.0, 0.0, 0.0, 0.0, 0.0, 0.0, 0.0, 1.7297110321307316E9, 0.0, 2024-10-24 00:47:12.130
46.0, -47765.78965971347, -50204.05205536509, -47094.18679406486, -55197.05178702495, -55050.044363742396, -48076.456555897785, 13016.247810870149, 41712.177301904834, 0.098, 0.964, 0.158, 192.0, 0.0, 0.0, 0.0, 0.0, 0.0, 0.0, 0.0, 0.0, 0.0, 1.729711032133626E9, 0.0, 2024-10-24 00:47:12.133
47.0, -47751.305729306434, -50208.16477634487, -47096.62313421049, -55211.24514475407, -55064.84121857181, -48101.691675387825, 13055.318660178025, 41761.86522982898, 0.098, 0.964, 0.158, 192.0, 0.0, 0.0, 0.0, 0.0, 0.0, 0.0, 0.0, 0.0, 0.0, 1.7297110321375952E9, 0.0, 2024-10-24 00:47:12.137
48.0, -47761.96751141161, -50228.63897426593, -47115.957393164324, -55233.08279908691, -55091.506849706995, -48129.8101699126, 13377.943739645927, 42116.92269050154, 0.098, 0.964, 0.158, 192.0, 0.0, 0.0, 0.0, 0.0, 0.0, 0.0, 0.0, 0.0, 0.0, 1.7297110321417432E9, 0.0, 2024-10-24 00:47:12.141
49.0, -47787.8284797464, -50248.867302997984, -47132.78825673917, -55240.41417126825, -55105.63315220275, -48134.548739737125, 13623.74587342094, 42383.5566501089, 0.098, 0.964, 0.158, 192.0, 0.0, 0.0, 0.0, 0.0, 0.0, 0.0, 0.0, 0.0, 0.0, 1.7297110321457794E9, 0.0, 2024-10-24 00:47:12.145
50.0, -47778.46309881963, -50225.28621259764, -47112.60463149603, -55208.87585984181, -55076.86645708877, -48097.355436963495, 13397.926199188973, 42134.2452924544, 0.098, 0.964, 0.158, 192.0, 0.0, 0.0, 0.0, 0.0, 0.0, 0.0, 0.0, 0.0, 0.0, 1.729711032149681E9, 0.0, 2024-10-24 00:47:12.149
51.0, -47766.907246936236, -50206.35428504399, -47093.806814409116, -55189.34043518787, -55049.15029396419, -48077.52943963164, 13111.130966082927, 41820.672669490894, 0.098, 0.964, 0.158, 192.0, 0.0, 0.0, 0.0, 0.0, 0.0, 0.0, 0.0, 0.0, 0.0, 1.729711032154587E9, 0.0, 2024-10-24 00:47:12.154
52.0, -47752.2221508291, -50202.93446814233, -47095.59495396554, -55193.855487567846, -55069.71389886307, -48086.62659962495, 13129.772320958653, 41848.94762622686, 0.098, 0.964, 0.158, 192.0, 0.0, 0.0, 0.0, 0.0, 0.0, 0.0, 0.0, 0.0, 0.0, 1.7297110321586363E9, 0.0, 2024-10-24 00:47:12.158
53.0, -47765.54379052446, -50221.10643638449, -47119.4219135549, -55216.60956342335, -55106.86249814779, -48117.203786039805, 13456.107790006137, 42208.45308404602, 0.098, 0.964, 0.158, 192.0, 0.0, 0.0, 0.0, 0.0, 0.0, 0.0, 0.0, 0.0, 0.0, 1.729711032161696E9, 0.0, 2024-10-24 00:47:12.161
54.0, -47793.19289841568, -50239.859549982495, -47134.88932071797, -55226.44433098368, -55100.42519574466, -48126.90444313341, 13699.630045846707, 42469.54381102846, 0.096, 0.968, 0.158, 192.0, 3.0, 0.0, 30.0, 64.0, 4.0, 240.0, 0.0, 0.0, 0.0, 1.7297110321656547E9, 0.0, 2024-10-24 00:47:12.165
55.0, -47787.80612800195, -50226.090875398026, -47120.51714903321, -55204.204345250655, -55072.66432913117, -48098.07069278607, 13505.885124908105, 42248.12743045419, 0.096, 0.968, 0.158, 192.0, 0.0, 0.0, 0.0, 0.0, 0.0, 0.0, 0.0, 0.0, 0.0, 1.729711032169768E9, 0.0, 2024-10-24 00:47:12.169
56.0, -47763.86740969031, -50203.515613498166, -47101.071131357094, -55180.10916472783, -55047.02687824093, -48068.56639010506, 13220.654513913933, 41935.71709820236, 0.096, 0.968, 0.158, 192.0, 0.0, 0.0, 0.0, 0.0, 0.0, 0.0, 0.0, 0.0, 0.0, 1.729711032173669E9, 0.0, 2024-10-24 00:47:12.173
57.0, -47752.19979908464, -50204.700255954296, -47105.56383199261, -55189.04986250995, -55063.0977825043, -48081.217477466766, 13254.942089908373, 41977.60426731161, 0.096, 0.968, 0.158, 192.0, 0.0, 0.0, 0.0, 0.0, 0.0, 0.0, 0.0, 0.0, 0.0, 1.7297110321777449E9, 0.0, 2024-10-24 00:47:12.177
58.0, -47763.30861607893, -50223.162796874385, -47124.54046303516, -55211.87099359882, -55086.76827988247, -48108.57601268006, 13564.916082014572, 42317.77546617693, 0.096, 0.968, 0.158, 192.0, 0.0, 0.0, 0.0, 0.0, 0.0, 0.0, 0.0, 0.0, 0.0, 1.7297110321817815E9, 0.0, 2024-10-24 00:47:12.181
59.0, -47794.42224436072, -50243.48053258426, -47141.59484405456, -55226.66784842824, -55103.01799810147, -48121.56237620859, 13783.382032320742, 42555.24039927011, 0.096, 0.968, 0.158, 192.0, 0.0, 0.0, 0.0, 0.0, 0.0, 0.0, 0.0, 0.0, 0.0, 1.729711032186748E9, 0.0, 2024-10-24 00:47:12.186
60.0, -47783.89457272227, -50226.24733760922, -47120.13716937747, -55204.405510950746, -55066.56230289487, -48096.61782939647, 13561.049230223804, 42308.655954439164, 0.096, 0.968, 0.158, 192.0, 0.0, 0.0, 0.0, 0.0, 0.0, 0.0, 0.0, 0.0, 0.0, 1.7297110321898096E9, 0.0, 2024-10-24 00:47:12.189
61.0, -47771.73522373858, -50212.34455255802, -47103.19454708035, -55191.620313122316, -55048.03270674142, -48078.691730343315, 13306.664026577953, 42029.16974177, 0.096, 0.968, 0.158, 192.0, 0.0, 0.0, 0.0, 0.0, 0.0, 0.0, 0.0, 0.0, 0.0, 1.729711032193716E9, 0.0, 2024-10-24 00:47:12.193
62.0, -47759.08413637688, -50210.087026368026, -47103.37336103599, -55199.39872019276, -55059.409744669174, -48089.77819559314, 13339.811663605175, 42071.41453879053, 0.096, 0.968, 0.158, 192.0, 0.0, 0.0, 0.0, 0.0, 0.0, 0.0, 0.0, 0.0, 0.0, 1.7297110321978424E9, 0.0, 2024-10-24 00:47:12.197
63.0, -47769.32123533741, -50226.53791028714, -47120.025410655195, -55223.560955948946, -55089.29402700592, -48119.66247792989, 13659.665126760618, 42421.24169126054, 0.096, 0.968, 0.158, 192.0, 0.0, 0.0, 0.0, 0.0, 0.0, 0.0, 0.0, 0.0, 0.0, 1.729711032201857E9, 0.0, 2024-10-24 00:47:12.201
64.0, -47800.12193919682, -50248.666137297885, -47145.41699235642, -55241.822331168936, -55118.708922709106, -48133.29704204763, 13895.967769142124, 42675.29161873956, 0.096, 0.968, 0.158, 192.0, 0.0, 0.0, 0.0, 0.0, 0.0, 0.0, 0.0, 0.0, 0.0, 1.7297110322058256E9, 0.0, 2024-10-24 00:47:12.205
65.0, -47795.60688681685, -50234.45042782431, -47123.78050372368, -55221.41518848124, -55073.737212865024, -48106.18437602334, 13682.486257849487, 42436.55263621243, 0.094, 0.97, 0.16, 192.0, 2.0, 240.0, 30.0, 80.0, 5.0, 0.0, 0.0, 0.0, 0.0, 1.7297110322107232E9, 0.0, 2024-10-24 00:47:12.210
66.0, -47775.914999951725, -50213.32802931405, -47102.546346491145, -55199.48812717058, -55049.79849455339, -48083.027968767645, 13421.104958189126, 42148.66216762807, 0.094, 0.97, 0.16, 192.0, 0.0, 0.0, 0.0, 0.0, 0.0, 0.0, 0.0, 0.0, 0.0, 1.729711032214883E9, 0.0, 2024-10-24 00:47:12.214
67.0, -47755.75372645304, -50206.19782283281, -47099.23828831176, -55203.35497896135, -55070.16093375217, -48098.49537593072, 13462.410981942534, 42198.77477869687, 0.094, 0.97, 0.16, 192.0, 0.0, 0.0, 0.0, 0.0, 0.0, 0.0, 0.0, 0.0, 0.0, 1.7297110322177632E9, 0.0, 2024-10-24 00:47:12.217
68.0, -47765.49908703555, -50220.94997417331, -47114.95156466384, -55220.476415214114, -55103.28621903494, -48122.90348087591, 13754.995316862503, 42523.1879977212, 0.094, 0.97, 0.16, 192.0, 0.0, 0.0, 0.0, 0.0, 0.0, 0.0, 0.0, 0.0, 0.0, 1.7297110322247376E9, 0.0, 2024-10-24 00:47:12.224
69.0, -47795.338665883384, -50237.42320983687, -47129.79312298216, -55225.8855373723, -55100.53695446694, -48121.71883841978, 13977.059898025978, 42762.306959904075, 0.094, 0.97, 0.16, 192.0, 0.0, 0.0, 0.0, 0.0, 0.0, 0.0, 0.0, 0.0, 0.0, 1.729711032227778E9, 0.0, 2024-10-24 00:47:12.227
70.0, -47791.136537925784, -50220.7041049843, -47109.00600063873, -55201.96917080512, -55060.259110958476, -48089.93465780433, 13754.570633717853, 42512.50386387156, 0.094, 0.97, 0.16, 192.0, 0.0, 0.0, 0.0, 0.0, 0.0, 0.0, 0.0, 0.0, 0.0, 1.7297110322307196E9, 0.0, 2024-10-24 00:47:12.230
71.0, -47773.255142361544, -50203.49326175371, -47089.068244584596, -55186.39000491977, -55039.31552640385, -48076.098927986495, 13477.18548502749, 42207.73782822345, 0.094, 0.97, 0.16, 192.0, 0.0, 0.0, 0.0, 0.0, 0.0, 0.0, 0.0, 0.0, 0.0, 1.7297110322337873E9, 0.0, 2024-10-24 00:47:12.233
72.0, -47761.25225558904, -50202.37567453095, -47093.315076031104, -55194.57074339042, -55064.997680783, -48089.75584384869, 13524.325314083733, 42265.83001206279, 0.094, 0.97, 0.16, 192.0, 0.0, 0.0, 0.0, 0.0, 0.0, 0.0, 0.0, 0.0, 0.0, 1.7297110322377636E9, 0.0, 2024-10-24 00:47:12.237
73.0, -47773.70217725065, -50220.65940149539, -47111.017657639706, -55215.64843841177, -55088.71288165008, -48118.813111640586, 13833.561698622907, 42607.297612106515, 0.094, 0.97, 0.16, 192.0, 0.0, 0.0, 0.0, 0.0, 0.0, 0.0, 0.0, 0.0, 0.0, 1.7297110322427542E9, 0.0, 2024-10-24 00:47:12.242
74.0, -47797.64089556228, -50237.87024472598, -47122.48410254528, -55223.270383271025, -55092.266809018474, -48123.99871635422, 14040.762369723603, 42833.586672972044, 0.094, 0.97, 0.16, 192.0, 0.0, 0.0, 0.0, 0.0, 0.0, 0.0, 0.0, 0.0, 0.0, 1.729711032245926E9, 0.0, 2024-10-24 00:47:12.245
75.0, -47795.27161065002, -50224.7050672418, -47113.76692220771, -55204.02553129501, -55078.67694838965, -48098.964762564276, 13821.670570572684, 42587.27044907456, 0.094, 0.97, 0.158, 192.0, 2.0, 240.0, 30.0, 80.0, 4.0, 240.0, 0.0, 0.0, 0.0, 1.7297110322497413E9, 0.0, 2024-10-24 00:47:12.249
76.0, -47773.99274992857, -50204.85671816549, -47095.70671268782, -55186.05472875294, -55047.56332010786, -48084.27966645714, 13557.383544133132, 42297.189509533586, 0.094, 0.97, 0.158, 192.0, 0.0, 0.0, 0.0, 0.0, 0.0, 0.0, 0.0, 0.0, 0.0, 1.7297110322540684E9, 0.0, 2024-10-24 00:47:12.254
77.0, -47757.29599682045, -50200.47577625225, -47094.63382895396, -55187.619350864814, -55060.66144235867, -48090.24758222671, 13601.282370243356, 42353.29238811641, 0.094, 0.97, 0.158, 192.0, 0.0, 0.0, 0.0, 0.0, 0.0, 0.0, 0.0, 0.0, 0.0, 1.7297110322577972E9, 0.0, 2024-10-24 00:47:12.257
78.0, -47768.49422079256, -50214.13269211444, -47109.92242216139, -55197.901153314255, -55073.06666053137, -48093.510936917184, 13910.89873443827, 42695.49759572716, 0.094, 0.97, 0.158, 192.0, 0.0, 0.0, 0.0, 0.0, 0.0, 0.0, 0.0, 0.0, 0.0, 1.7297110322620616E9, 0.0, 2024-10-24 00:47:12.262
79.0, -47795.15985192774, -50235.61271853599, -47120.874776944496, -55210.86516509833, -55078.58754141183, -48106.81022486809, 14141.546385472582, 42944.45132547037, 0.094, 0.97, 0.158, 192.0, 0.0, 0.0, 0.0, 0.0, 0.0, 0.0, 0.0, 0.0, 0.0, 1.7297110322659197E9, 0.0, 2024-10-24 00:47:12.265
80.0, -47796.29979089496, -50227.23081436525, -47108.51426226071, -55194.14606024577, -55055.364078922765, -48087.54302114761, 13927.953115457669, 42705.5782324765, 0.094, 0.97, 0.158, 192.0, 0.0, 0.0, 0.0, 0.0, 0.0, 0.0, 0.0, 0.0, 0.0, 1.7297110322708404E9, 0.0, 2024-10-24 00:47:12.270
81.0, -47775.08798540688, -50211.6516484799, -47086.22957303877, -55177.270493182004, -55036.45450311357, -48068.7452040607, 13647.550481265842, 42398.062932260385, 0.094, 0.97, 0.158, 192.0, 0.0, 0.0, 0.0, 0.0, 0.0, 0.0, 0.0, 0.0, 0.0, 1.729711032273885E9, 0.0, 2024-10-24 00:47:12.273
82.0, -47762.07927013389, -50217.39604680491, -47087.168346305894, -55190.59213287737, -55061.62256737025, -48081.03866351112, 13705.262685449445, 42465.2746278375, 0.094, 0.97, 0.158, 192.0, 0.0, 0.0, 0.0, 0.0, 0.0, 0.0, 0.0, 0.0, 0.0, 1.729711032276826E9, 0.0, 2024-10-24 00:47:12.276
83.0, -47777.45727031914, -50237.982003448255, -47103.730988947274, -55214.59790642237, -55087.863515360776, -48110.09593130302, 14020.690503202737, 42812.9560128398, 0.094, 0.97, 0.158, 192.0, 0.0, 0.0, 0.0, 0.0, 0.0, 0.0, 0.0, 0.0, 0.0, 1.729711032281922E9, 0.0, 2024-10-24 00:47:12.281
84.0, -47802.826500275914, -50256.04221296814, -47116.94086992036, -55227.27134552853, -55098.72646316606, -48123.03759134264, 14234.507290662204, 43044.54243714124, 0.094, 0.97, 0.158, 192.0, 0.0, 0.0, 0.0, 0.0, 0.0, 0.0, 0.0, 0.0, 0.0, 1.729711032286026E9, 0.0, 2024-10-24 00:47:12.286
85.0, -47796.56801182843, -50242.22883489476, -47094.142090575944, -55207.51240343004, -55058.51567489096, -48096.170794507365, 14016.287209545042, 42800.86371908948, 0.10200000000000001, 0.97, 0.162, 192.0, 3.0, 48.0, 30.0, 80.0, 5.0, 16.0, 0.0, 0.0, 0.0, 1.7297110322898471E9, 0.0, 2024-10-24 00:47:12.289
86.0, -47769.12006963731, -50217.08312238254, -47065.151878017416, -55183.238408951576, -55028.92196523213, -48066.51002961517, 13737.806825376372, 42497.818767764424, 0.10200000000000001, 0.97, 0.162, 192.0, 0.0, 0.0, 0.0, 0.0, 0.0, 0.0, 0.0, 0.0, 0.0, 1.7297110322938411E9, 0.0, 2024-10-24 00:47:12.293
87.0, -47754.5690839969, -50214.915003170376, -47071.34331123153, -55195.15188874625, -55068.015166284466, -48091.49927991621, 13767.53464550193, 42541.315262474454, 0.10200000000000001, 0.97, 0.162, 192.0, 0.0, 0.0, 0.0, 0.0, 0.0, 0.0, 0.0, 0.0, 0.0, 1.7297110322989333E9, 0.0, 2024-10-24 00:47:12.298
88.0, -47775.89264820727, -50238.049058681616, -47103.596878480545, -55229.73003741861, -55124.47567277857, -48139.39906828393, 14083.320091166508, 42892.90820275643, 0.10200000000000001, 0.97, 0.162, 192.0, 0.0, 0.0, 0.0, 0.0, 0.0, 0.0, 0.0, 0.0, 0.0, 1.7297110323019507E9, 0.0, 2024-10-24 00:47:12.301
89.0, -47808.280325923006, -50259.774954292174, -47124.6745735019, -55246.918528904745, -55135.405675817216, -48155.96171092531, 14294.745241969258, 43125.76867649182, 0.10200000000000001, 0.97, 0.162, 192.0, 0.0, 0.0, 0.0, 0.0, 0.0, 0.0, 0.0, 0.0, 0.0, 1.72971103230607E9, 0.0, 2024-10-24 00:47:12.306
90.0, -47810.60490734636, -50249.157875675905, -47107.55313724913, -55226.37727575032, -55086.83533511584, -48123.68579193184, 14070.221968915697, 42878.93836247187, 0.10200000000000001, 0.97, 0.162, 192.0, 0.0, 0.0, 0.0, 0.0, 0.0, 0.0, 0.0, 0.0, 0.0, 1.7297110323108876E9, 0.0, 2024-10-24 00:47:12.310
91.0, -47790.22011640312, -50228.48251205475, -47081.62511368097, -55206.864202840836, -55056.07933474533, -48102.742207377225, 13802.11279417429, 42589.21505084218, 0.10200000000000001, 0.97, 0.162, 192.0, 0.0, 0.0, 0.0, 0.0, 0.0, 0.0, 0.0, 0.0, 0.0, 1.7297110323139184E9, 0.0, 2024-10-24 00:47:12.313
92.0, -47773.523363295004, -50222.604003263, -47076.88654385645, -55210.10520578685, -55069.91506456317, -48112.33110574855, 13830.275992187977, 42632.95741474121, 0.10200000000000001, 0.97, 0.162, 192.0, 0.0, 0.0, 0.0, 0.0, 0.0, 0.0, 0.0, 0.0, 0.0, 1.7297110323178847E9, 0.0, 2024-10-24 00:47:12.317
93.0, -47791.69533153717, -50242.56411106159, -47100.0653028566, -55233.84275839839, -55095.64192243123, -48140.628414228966, 14155.739743201702, 42995.65917201748, 0.10200000000000001, 0.97, 0.162, 192.0, 0.0, 0.0, 0.0, 0.0, 0.0, 0.0, 0.0, 0.0, 0.0, 1.7297110323240187E9, 0.0, 2024-10-24 00:47:12.324
94.0, -47815.835215548905, -50252.42123036638, -47110.302401817135, -55235.80971191046, -55099.30760852189, -48137.29800430513, 14366.360231204062, 43230.41954403157, 0.10200000000000001, 0.97, 0.162, 192.0, 0.0, 0.0, 0.0, 0.0, 0.0, 0.0, 0.0, 0.0, 0.0, 1.7297110323279028E9, 0.0, 2024-10-24 00:47:12.327
95.0, -47811.32016316893, -50236.79736099212, -47094.11973883149, -55213.86029885535, -55075.81592509937, -48105.55852717859, 14151.962298388757, 42996.66500051797, 0.098, 0.97, 0.158, 192.0, 3.0, 16.0, 30.0, 80.0, 4.0, 240.0, 0.0, 0.0, 0.0, 1.7297110323309968E9, 0.0, 2024-10-24 00:47:12.330
96.0, -47785.43684308969, -50212.56807000257, -47067.27529374067, -55188.71458634312, -55048.993831752996, -48077.17181172035, 13884.74719342556, 42707.6792964553, 0.098, 0.97, 0.158, 192.0, 0.0, 0.0, 0.0, 0.0, 0.0, 0.0, 0.0, 0.0, 0.0, 1.729711032333998E9, 0.0, 2024-10-24 00:47:12.333
97.0, -47765.81201145792, -50204.208517576284, -47061.68735762684, -55191.08387125539, -55059.499151646996, -48094.44971018431, 13913.156260628255, 42750.28172138712, 0.098, 0.97, 0.158, 192.0, 0.0, 0.0, 0.0, 0.0, 0.0, 0.0, 0.0, 0.0, 0.0, 1.7297110323379972E9, 0.0, 2024-10-24 00:47:12.337
98.0, -47781.569991298915, -50222.96163117429, -47087.32480851708, -55213.94970583317, -55097.720634665566, -48119.10368431851, 14225.365427179984, 43098.23132732288, 0.098, 0.97, 0.158, 192.0, 0.0, 0.0, 0.0, 0.0, 0.0, 0.0, 0.0, 0.0, 0.0, 1.7297110323419988E9, 0.0, 2024-10-24 00:47:12.341
99.0, -47808.50384336756, -50237.42320983687, -47102.14401509095, -55219.13531054679, -55102.123928323264, -48115.84032962803, 14440.612726284591, 43336.81384763883, 0.098, 0.97, 0.158, 192.0, 0.0, 0.0, 0.0, 0.0, 0.0, 0.0, 0.0, 0.0, 0.0, 1.7297110323460977E9, 0.0, 2024-10-24 00:47:12.346
100.0, -47804.65934332125, -50221.620526506966, -47081.35689274751, -55196.425938180204, -55055.69935508959, -48088.817070581565, 14218.01170325419, 43094.25271680984, 0.098, 0.97, 0.158, 192.0, 0.0, 0.0, 0.0, 0.0, 0.0, 0.0, 0.0, 0.0, 0.0, 1.7297110323500433E9, 0.0, 2024-10-24 00:47:12.350
101.0, -47787.67201753522, -50204.633200720935, -47066.962369318295, -55180.60090310585, -55039.47198861504, -48074.51195413017, 13954.037601237012, 42810.385562227435, 0.098, 0.97, 0.158, 192.0, 0.0, 0.0, 0.0, 0.0, 0.0, 0.0, 0.0, 0.0, 0.0, 1.7297110323548987E9, 0.0, 2024-10-24 00:47:12.354
102.0, -47767.77896496999, -50202.15215708639, -47067.92349432987, -55189.13926948777, -55058.6944888466, -48092.68392237234, 14003.904343116803, 42876.25615313723, 0.098, 0.97, 0.158, 192.0, 0.0, 0.0, 0.0, 0.0, 0.0, 0.0, 0.0, 0.0, 0.0, 1.7297110323579383E9, 0.0, 2024-10-24 00:47:12.357
103.0, -47786.21915414562, -50226.18028237585, -47091.86221264151, -55214.44144421118, -55091.015111328976, -48116.91321336189, 14337.995867490277, 43246.915131439586, 0.098, 0.97, 0.158, 192.0, 0.0, 0.0, 0.0, 0.0, 0.0, 0.0, 0.0, 0.0, 0.0, 1.7297110323609421E9, 0.0, 2024-10-24 00:47:12.360
104.0, -47811.1860527022, -50241.535930816644, -47101.495814501744, -55219.73880764709, -55086.00832057099, -48116.175605794866, 14538.491015254382, 43472.10895682681, 0.098, 0.97, 0.158, 192.0, 0.0, 0.0, 0.0, 0.0, 0.0, 0.0, 0.0, 0.0, 0.0, 1.7297110323660421E9, 0.0, 2024-10-24 00:47:12.366
105.0, -47801.97713398661, -50229.1530643884, -47080.529878202666, -55201.8797638273, -55060.05794525838, -48095.00850379569, 14298.030948404188, 43211.75583741139, 0.096, 0.966, 0.156, 192.0, 3.0, 0.0, 30.0, 48.0, 4.0, 224.0, 0.0, 0.0, 0.0, 1.7297110323700507E9, 0.0, 2024-10-24 00:47:12.370
106.0, -47789.43780534718, -50219.20653810579, -47070.29277924213, -55192.44732766716, -55059.633262113726, -48081.351587933495, 14042.550509280029, 42933.74483987628, 0.096, 0.966, 0.156, 192.0, 0.0, 0.0, 0.0, 0.0, 0.0, 0.0, 0.0, 0.0, 0.0, 1.7297110323739624E9, 0.0, 2024-10-24 00:47:12.373
107.0, -47769.38829057077, -50215.384389803934, -47061.75441286021, -55198.035263780985, -55051.98896551001, -48093.95797180629, 14085.376451656397, 42993.334590594124, 0.096, 0.966, 0.156, 192.0, 0.0, 0.0, 0.0, 0.0, 0.0, 0.0, 0.0, 0.0, 0.0, 1.7297110323780484E9, 0.0, 2024-10-24 00:47:12.378
108.0, -47779.91596220923, -50235.97034644728, -47073.533782188155, -55219.02355182452, -55073.8489715873, -48119.39425699643, 14387.9967198368, 43334.5786731933, 0.096, 0.966, 0.156, 192.0, 0.0, 0.0, 0.0, 0.0, 0.0, 0.0, 0.0, 0.0, 0.0, 1.7297110323820949E9, 0.0, 2024-10-24 00:47:12.382
109.0, -47817.84687254988, -50262.94890200483, -47095.773767921186, -55238.02253461153, -55093.22793403005, -48136.850969416024, 14617.638542370623, 43589.455615217164, 0.096, 0.966, 0.156, 192.0, 0.0, 0.0, 0.0, 0.0, 0.0, 0.0, 0.0, 0.0, 0.0, 1.7297110323861196E9, 0.0, 2024-10-24 00:47:12.386
110.0, -47815.87991903781, -50252.84591351103, -47079.36758749099, -55220.85639486986, -55069.57978839634, -48114.409817982894, 14407.018054368265, 43358.405632782655, 0.096, 0.966, 0.156, 192.0, 0.0, 0.0, 0.0, 0.0, 0.0, 0.0, 0.0, 0.0, 0.0, 1.7297110323889668E9, 0.0, 2024-10-24 00:47:12.388
111.0, -47803.02766597601, -50239.166645904384, -47065.53185767315, -55209.278191242, -55056.7945905679, -48099.47885268675, 14132.9856673462, 43063.876696095074, 0.096, 0.966, 0.156, 192.0, 0.0, 0.0, 0.0, 0.0, 0.0, 0.0, 0.0, 0.0, 0.0, 1.7297110323941288E9, 0.0, 2024-10-24 00:47:12.394
112.0, -47785.50389832305, -50231.94703244532, -47064.03429079465, -55211.1333860318, -55066.29408196141, -48102.83161435505, 14169.687231741815, 43119.84546421116, 0.096, 0.966, 0.156, 192.0, 0.0, 0.0, 0.0, 0.0, 0.0, 0.0, 0.0, 0.0, 0.0, 1.7297110323981311E9, 0.0, 2024-10-24 00:47:12.398
113.0, -47796.76917752853, -50250.23075940976, -47087.68243642836, -55232.05461884196, -55099.19584979962, -48128.78198966766, 14492.938160054466, 43482.502517998524, 0.096, 0.966, 0.156, 192.0, 0.0, 0.0, 0.0, 0.0, 0.0, 0.0, 0.0, 0.0, 0.0, 1.7297110324020162E9, 0.0, 2024-10-24 00:47:12.402
114.0, -47823.591270874895, -50262.74773630473, -47105.87675641498, -55237.84372065589, -55100.20167830011, -48137.18624558285, 14697.881304965176, 43713.776017877586, 0.096, 0.966, 0.156, 192.0, 0.0, 0.0, 0.0, 0.0, 0.0, 0.0, 0.0, 0.0, 0.0, 1.7297110324062324E9, 0.0, 2024-10-24 00:47:12.406
115.0, -47827.12284649883, -50250.498980343225, -47098.701846444834, -55221.035208825495, -55073.55839890938, -48119.28249827415, 14480.57764537068, 43478.590962718845, 0.094, 0.964, 0.156, 192.0, 2.0, 240.0, 30.0, 32.0, 4.0, 224.0, 0.0, 0.0, 0.0, 1.729711032409973E9, 0.0, 2024-10-24 00:47:12.409
116.0, -47805.061674721444, -50222.604003263, -47077.28887525664, -55193.94489454567, -55044.456427628575, -48085.41960542436, 14209.920371761367, 43189.91818307855, 0.094, 0.964, 0.156, 192.0, 0.0, 0.0, 0.0, 0.0, 0.0, 0.0, 0.0, 0.0, 0.0, 1.7297110324142077E9, 0.0, 2024-10-24 00:47:12.414
117.0, -47792.27647689301, -50218.29011658313, -47081.06632006959, -55201.030397538, -55067.56813139536, -48102.42928295485, 14277.467343505305, 43276.30767539831, 0.094, 0.964, 0.156, 192.0, 0.0, 0.0, 0.0, 0.0, 0.0, 0.0, 0.0, 0.0, 0.0, 1.729711032417048E9, 0.0, 2024-10-24 00:47:12.417
118.0, -47809.330857912406, -50235.59036679153, -47102.971029635795, -55221.28107801451, -55099.28525677744, -48128.44671350082, 14592.515181602857, 43630.47106629265, 0.094, 0.964, 0.156, 192.0, 0.0, 0.0, 0.0, 0.0, 0.0, 0.0, 0.0, 0.0, 0.0, 1.729711032422038E9, 0.0, 2024-10-24 00:47:12.422
119.0, -47830.3414977004, -50244.687526784845, -47105.74264594825, -55219.02355182452, -55094.09965206381, -48120.645954685926, 14797.748899191487, 43863.46565049478, 0.094, 0.964, 0.156, 192.0, 0.0, 0.0, 0.0, 0.0, 0.0, 0.0, 0.0, 0.0, 0.0, 1.7297110324262197E9, 0.0, 2024-10-24 00:47:12.426
120.0, -47826.92168079873, -50228.549567288115, -47086.87777362797, -55194.70485385715, -55067.746945351, -48094.40500669539, 14570.901044714576, 43619.96574639866, 0.094, 0.964, 0.156, 192.0, 0.0, 0.0, 0.0, 0.0, 0.0, 0.0, 0.0, 0.0, 0.0, 1.729711032430096E9, 0.0, 2024-10-24 00:47:12.430
121.0, -47805.44165437719, -50209.5505845011, -47067.230590251755, -55175.21413269212, -55042.82475028333, -48075.71894833076, 14288.30793956613, 43319.02185905241, 0.094, 0.964, 0.156, 192.0, 0.0, 0.0, 0.0, 0.0, 0.0, 0.0, 0.0, 0.0, 0.0, 1.7297110324341004E9, 0.0, 2024-10-24 00:47:12.434
122.0, -47791.69533153717, -50212.45631128029, -47068.437584452346, -55186.501763642045, -55055.364078922765, -48094.31559971757, 14368.505998671772, 43417.905976522685, 0.094, 0.964, 0.156, 192.0, 0.0, 0.0, 0.0, 0.0, 0.0, 0.0, 0.0, 0.0, 0.0, 1.7297110324383364E9, 0.0, 2024-10-24 00:47:12.438
123.0, -47799.674904307714, -50227.99077367673, -47083.12268055948, -55202.81853709442, -55083.28140774744, -48115.23683252774, 14683.553836769324, 43774.34924535146, 0.094, 0.964, 0.156, 192.0, 0.0, 0.0, 0.0, 0.0, 0.0, 0.0, 0.0, 0.0, 0.0, 1.729711032441327E9, 0.0, 2024-10-24 00:47:12.441
124.0, -47824.32887844192, -50243.59229130654, -47097.852480155525, -55209.61346740884, -55091.46214621808, -48114.968611594275, 14874.594196628834, 43992.99400961328, 0.094, 0.964, 0.156, 192.0, 0.0, 0.0, 0.0, 0.0, 0.0, 0.0, 0.0, 0.0, 0.0, 1.7297110324452672E9, 0.0, 2024-10-24 00:47:12.445
125.0, -47823.05482900797, -50231.09766615602, -47085.04493058264, -55192.69319685617, -55079.32514897885, -48092.594515394514, 14634.51410943438, 43737.75943967813, 0.094, 0.966, 0.158, 192.0, 2.0, 240.0, 30.0, 48.0, 4.0, 240.0, 0.0, 0.0, 0.0, 1.7297110324490738E9, 0.0, 2024-10-24 00:47:12.449
126.0, -47807.96740150063, -50216.52432877116, -47062.22379949377, -55178.96922576061, -55042.82475028333, -48079.47404139925, 14355.877263054523, 43441.91175006769, 0.094, 0.966, 0.158, 192.0, 0.0, 0.0, 0.0, 0.0, 0.0, 0.0, 0.0, 0.0, 0.0, 1.7297110324540863E9, 0.0, 2024-10-24 00:47:12.454
127.0, -47787.873183235315, -50218.692447983325, -47053.528970900654, -55189.45219391015, -55047.40685789667, -48093.35447470599, 14419.915010918978, 43526.15547491974, 0.094, 0.966, 0.158, 192.0, 0.0, 0.0, 0.0, 0.0, 0.0, 0.0, 0.0, 0.0, 0.0, 1.7297110324580605E9, 0.0, 2024-10-24 00:47:12.458
128.0, -47804.10054970987, -50243.078201184064, -47076.64067466744, -55218.06242681294, -55089.36108223928, -48120.04245758563, 14735.029904249895, 43881.57056350358, 0.094, 0.966, 0.158, 192.0, 0.0, 0.0, 0.0, 0.0, 0.0, 0.0, 0.0, 0.0, 0.0, 1.7297110324620974E9, 0.0, 2024-10-24 00:47:12.462
129.0, -47839.12573327133, -50264.80409679462, -47097.96423887781, -55235.1391595768, -55096.737157909534, -48138.884978161455, 14948.422008564712, 44122.54472047624, 0.094, 0.966, 0.158, 192.0, 0.0, 0.0, 0.0, 0.0, 0.0, 0.0, 0.0, 0.0, 0.0, 1.7297110324662328E9, 0.0, 2024-10-24 00:47:12.466
130.0, -47833.11311401286, -50250.09664894303, -47083.0109218372, -55218.62122042433, -55070.54091340792, -48122.724666920265, 14729.777244302899, 43886.97968566176, 0.094, 0.966, 0.158, 192.0, 0.0, 0.0, 0.0, 0.0, 0.0, 0.0, 0.0, 0.0, 0.0, 1.729711032470145E9, 0.0, 2024-10-24 00:47:12.470
131.0, -47814.82938704841, -50232.662288267886, -47064.660139639396, -55202.997351050064, -55052.279538187926, -48101.42345445436, 14458.807046271211, 43596.36230425385, 0.094, 0.966, 0.158, 192.0, 0.0, 0.0, 0.0, 0.0, 0.0, 0.0, 0.0, 0.0, 0.0, 1.729711032473156E9, 0.0, 2024-10-24 00:47:12.473
132.0, -47801.61950607532, -50232.12584640096, -47070.13631703095, -55213.97205757762, -55071.770259352954, -48111.57114643707, 14515.245201020862, 43669.92189525627, 0.094, 0.966, 0.158, 192.0, 0.0, 0.0, 0.0, 0.0, 0.0, 0.0, 0.0, 0.0, 0.0, 1.729711032477142E9, 0.0, 2024-10-24 00:47:12.477
133.0, -47820.70789584016, -50253.360003633505, -47096.71254118831, -55240.816502668444, -55102.59331495682, -48141.29896656263, 14833.288172875426, 44025.828722218124, 0.094, 0.966, 0.158, 192.0, 0.0, 0.0, 0.0, 0.0, 0.0, 0.0, 0.0, 0.0, 0.0, 1.7297110324821076E9, 0.0, 2024-10-24 00:47:12.482
134.0, -47852.82735262244, -50267.64276834045, -47111.86702392901, -55248.55020624998, -55105.02965510245, -48145.523446264684, 15045.473282989657, 44264.299483811796, 0.094, 0.966, 0.158, 192.0, 0.0, 0.0, 0.0, 0.0, 0.0, 0.0, 0.0, 0.0, 0.0, 1.729711032486258E9, 0.0, 2024-10-24 00:47:12.486
135.0, -47841.763239117055, -50243.86051224, -47090.47640448528, -55219.02355182452, -55074.27365473195, -48114.4545214718, 14811.539925520412, 44013.892890678995, 0.098, 0.972, 0.162, 192.0, 3.0, 16.0, 30.0, 96.0, 5.0, 16.0, 0.0, 0.0, 0.0, 1.7297110324901233E9, 0.0, 2024-10-24 00:47:12.490
136.0, -47821.60196561837, -50222.00050616271, -47073.466726954786, -55197.65528412525, -55054.80528531138, -48093.89091657292, 14541.620259478124, 43724.43779998276, 0.098, 0.972, 0.162, 192.0, 0.0, 0.0, 0.0, 0.0, 0.0, 0.0, 0.0, 0.0, 0.0, 1.7297110324961119E9, 0.0, 2024-10-24 00:47:12.496
137.0, -47806.02279973302, -50218.29011658313, -47073.15380253241, -55201.38802544928, -55056.63812835672, -48102.27282074366, 14606.596780609701, 43806.602812600475, 0.098, 0.972, 0.162, 192.0, 0.0, 0.0, 0.0, 0.0, 0.0, 0.0, 0.0, 0.0, 0.0, 1.7297110324991632E9, 0.0, 2024-10-24 00:47:12.499
138.0, -47820.6855440957, -50234.65159352441, -47099.17123307839, -55219.850566369365, -55084.577808925846, -48123.775198909665, 14925.310304797926, 44164.7224622634, 0.098, 0.972, 0.162, 192.0, 0.0, 0.0, 0.0, 0.0, 0.0, 0.0, 0.0, 0.0, 0.0, 1.729711032502161E9, 0.0, 2024-10-24 00:47:12.502
139.0, -47847.26176825306, -50252.35417513301, -47116.85146294254, -55230.31118277445, -55095.61957068677, -48136.53804499365, 15131.482795653677, 44397.67234297661, 0.098, 0.972, 0.162, 192.0, 0.0, 0.0, 0.0, 0.0, 0.0, 0.0, 0.0, 0.0, 0.0, 1.729711032506235E9, 0.0, 2024-10-24 00:47:12.506
140.0, -47845.38422171882, -50238.36198310399, -47110.74943670624, -55211.73688313209, -55083.97431182556, -48117.695524417824, 14910.75931915752, 44159.49215406086, 0.098, 0.972, 0.162, 192.0, 0.0, 0.0, 0.0, 0.0, 0.0, 0.0, 0.0, 0.0, 0.0, 1.729711032510183E9, 0.0, 2024-10-24 00:47:12.510
141.0, -47824.32887844192, -50216.2561078377, -47097.07016909959, -55191.39679567776, -55071.5467419084, -48091.409872938384, 14649.221557285973, 43878.463671024285, 0.098, 0.972, 0.162, 192.0, 0.0, 0.0, 0.0, 0.0, 0.0, 0.0, 0.0, 0.0, 0.0, 1.729711032514141E9, 0.0, 2024-10-24 00:47:12.514
142.0, -47803.16177644274, -50207.561279244575, -47087.52597421718, -55190.770946833014, -55067.14344825071, -48097.4001404524, 14718.377854630693, 43965.21079125533, 0.098, 0.972, 0.162, 192.0, 0.0, 0.0, 0.0, 0.0, 0.0, 0.0, 0.0, 0.0, 0.0, 1.7297110325181823E9, 0.0, 2024-10-24 00:47:12.518
143.0, -47811.27545968002, -50222.64870675191, -47102.88162265797, -55208.11590053033, -55089.13756479473, -48126.792684411135, 15022.562744922967, 44306.8572052547, 0.098, 0.972, 0.162, 192.0, 0.0, 0.0, 0.0, 0.0, 0.0, 0.0, 0.0, 0.0, 0.0, 1.7297110325222173E9, 0.0, 2024-10-24 00:47:12.522
144.0, -47840.2433204941, -50244.53106457365, -47119.466617043814, -55220.409359980746, -55087.97527408305, -48134.79460892613, 15231.953886980284, 44540.70115574612, 0.098, 0.972, 0.162, 192.0, 0.0, 0.0, 0.0, 0.0, 0.0, 0.0, 0.0, 0.0, 0.0, 1.7297110325261836E9, 0.0, 2024-10-24 00:47:12.526
145.0, -47830.006221533564, -50224.906232941896, -47097.38309352197, -55190.12274624381, -55052.70422133258, -48087.31950370306, 14995.405375409768, 44284.46075731048, 0.094, 0.97, 0.154, 192.0, 2.0, 240.0, 30.0, 80.0, 4.0, 208.0, 0.0, 0.0, 0.0, 1.7297110325312643E9, 0.0, 2024-10-24 00:47:12.531
146.0, -47808.481491623104, -50208.74592170071, -47082.51918345919, -55171.906074512735, -55032.140616433695, -48065.43714588132, 14709.168935915106, 43975.87257336052, 0.094, 0.97, 0.154, 192.0, 0.0, 0.0, 0.0, 0.0, 0.0, 0.0, 0.0, 0.0, 0.0, 1.7297110325341487E9, 0.0, 2024-10-24 00:47:12.534
147.0, -47798.69142755168, -50217.82072994956, -47096.71254118831, -55190.97211253311, -55061.22023597005, -48093.06390202807, 14793.233846811516, 44075.94133328692, 0.094, 0.97, 0.154, 192.0, 0.0, 0.0, 0.0, 0.0, 0.0, 0.0, 0.0, 0.0, 0.0, 1.729711032538176E9, 0.0, 2024-10-24 00:47:12.538
148.0, -47815.72345682663, -50247.10151518602, -47125.211015368826, -55221.14696754777, -55100.11227132229, -48127.53029197816, 15115.098966967937, 44437.45844810706, 0.094, 0.97, 0.154, 192.0, 0.0, 0.0, 0.0, 0.0, 0.0, 0.0, 0.0, 0.0, 0.0, 1.7297110325422363E9, 0.0, 2024-10-24 00:47:12.542
149.0, -47845.98771881911, -50267.396899151434, -47142.84654174406, -55232.70281943117, -55102.392149256724, -48135.308699048604, 15320.355036301022, 44669.000168919585, 0.094, 0.97, 0.154, 192.0, 0.0, 0.0, 0.0, 0.0, 0.0, 0.0, 0.0, 0.0, 0.0, 1.7297110325461607E9, 0.0, 2024-10-24 00:47:12.546
150.0, -47836.19765474769, -50253.40470712241, -47125.94862293585, -55212.4297872102, -55075.838276843824, -48109.42537896936, 15079.671452006276, 44407.9317936816, 0.094, 0.97, 0.154, 192.0, 0.0, 0.0, 0.0, 0.0, 0.0, 0.0, 0.0, 0.0, 0.0, 1.7297110325504239E9, 0.0, 2024-10-24 00:47:12.550
151.0, -47815.45523589316, -50238.674907526365, -47107.91076516041, -55197.56587714743, -55051.094895731796, -48091.38752119393, 14814.020969154952, 44121.51654023129, 0.094, 0.97, 0.154, 192.0, 0.0, 0.0, 0.0, 0.0, 0.0, 0.0, 0.0, 0.0, 0.0, 1.72971103255433E9, 0.0, 2024-10-24 00:47:12.554
