%OpenBCI Raw EXG Data
%Number of channels = 8
%Sample Rate = 250 Hz
%Board = OpenBCI_GUI$BoardCytonSerial
Sample Index, EXG Channel 0, EXG Channel 1, EXG Channel 2, EXG Channel 3, EXG Channel 4, EXG Channel 5, EXG Channel 6, EXG Channel 7, Accel Channel 0, Accel Channel 1, Accel Channel 2, Other, Other, Other, Other, Other, Other, Other, Analog Channel 0, Analog Channel 1, Analog Channel 2, Timestamp, Other, Timestamp (Formatted)
0.0, 0.0, 0.0, 0.0, 0.0, 0.0, 0.0, 0.0, 0.0, 0.10400000000000001, 0.97, 0.17200000000000001, 192.0, 3.0, 64.0, 30.0, 80.0, 5.0, 96.0, 0.0, 0.0, 0.0, 1.7297111080830667E9, 0.0, 2024-10-24 00:48:28.083
1.0, -46650.48231488256, -49281.193230294375, -43693.10065425643, -53621.36556164808, -54130.8288730179, -47052.83606682254, 22624.793365573092, 49865.80310652294, 0.10400000000000001, 0.97, 0.17200000000000001, 192.0, 0.0, 0.0, 0.0, 0.0, 0.0, 0.0, 0.0, 0.0, 0.0, 1.7297111081097322E9, 0.0, 2024-10-24 00:48:28.109
2.0, -46670.151850003225, -49280.94736110537, -43679.98018026116, -53605.49582308481, -54085.99127364055, -47025.097551953506, 22619.987740515204, 49842.19966437813, 0.10400000000000001, 0.97, 0.17200000000000001, 192.0, 0.0, 0.0, 0.0, 0.0, 0.0, 0.0, 0.0, 0.0, 0.0, 1.7297111081127954E9, 0.0, 2024-10-24 00:48:28.112
3.0, -46656.00319576302, -49260.584921906586, -43657.36021487239, -53582.80880246268, -54061.27024427298, -47003.95280169878, 22343.787234280975, 49537.12070430764, 0.10400000000000001, 0.97, 0.17200000000000001, 192.0, 0.0, 0.0, 0.0, 0.0, 0.0, 0.0, 0.0, 0.0, 0.0, 1.729711108116754E9, 0.0, 2024-10-24 00:48:28.116
4.0, -46637.786524031944, -49249.319642701106, -43651.97344445866, -53580.01483440577, -54072.98255836756, -47007.819653489554, 22168.05781937335, 49343.66635604696, 0.10400000000000001, 0.97, 0.17200000000000001, 192.0, 0.0, 0.0, 0.0, 0.0, 0.0, 0.0, 0.0, 0.0, 0.0, 1.7297111081197906E9, 0.0, 2024-10-24 00:48:28.119
5.0, -46639.19468393263, -49263.33418647459, -43668.13375569985, -53603.70768352839, -54101.14575638125, -47046.64463360842, 22375.638470129787, 49564.27807382084, 0.10400000000000001, 0.97, 0.17200000000000001, 192.0, 0.0, 0.0, 0.0, 0.0, 0.0, 0.0, 0.0, 0.0, 0.0, 1.729711108122744E9, 0.0, 2024-10-24 00:48:28.122
6.0, -46652.09164048334, -49279.27098027122, -43680.87425003937, -53619.622125580565, -54117.887212978276, -47068.32582573007, 22662.746627658205, 49862.60680706582, 0.10400000000000001, 0.97, 0.17200000000000001, 192.0, 0.0, 0.0, 0.0, 0.0, 0.0, 0.0, 0.0, 0.0, 0.0, 1.7297111081267471E9, 0.0, 2024-10-24 00:48:28.126
7.0, -46674.488088427555, -49279.65095992696, -43684.11525298539, -53611.39668362102, -54105.95138143914, -47055.36181394599, 22635.92453431184, 49813.61178321979, 0.10400000000000001, 0.97, 0.17200000000000001, 192.0, 0.0, 0.0, 0.0, 0.0, 0.0, 0.0, 0.0, 0.0, 0.0, 1.7297111081301205E9, 0.0, 2024-10-24 00:48:28.130
8.0, -46660.54059988745, -49260.69668062886, -43668.64784582232, -53594.02937817924, -54087.19826784114, -47030.90900551189, 22384.802685356462, 49532.35978273866, 0.10400000000000001, 0.966, 0.168, 192.0, 3.0, 64.0, 30.0, 48.0, 5.0, 64.0, 0.0, 0.0, 0.0, 1.7297111081332655E9, 0.0, 2024-10-24 00:48:28.133
9.0, -46630.90218673971, -49244.44696240986, -43651.191133402725, -53583.18878211842, -54063.88539837425, -47020.761313529176, 22217.656340319674, 49348.42727761594, 0.10400000000000001, 0.966, 0.168, 192.0, 0.0, 0.0, 0.0, 0.0, 0.0, 0.0, 0.0, 0.0, 0.0, 1.7297111081367505E9, 0.0, 2024-10-24 00:48:28.136
10.0, -46635.059611208395, -49262.685985885386, -43666.300912654515, -53608.64741905301, -54088.025282385985, -47056.054718024105, 22434.647075491797, 49577.823230960756, 0.10400000000000001, 0.966, 0.168, 192.0, 0.0, 0.0, 0.0, 0.0, 0.0, 0.0, 0.0, 0.0, 0.0, 1.7297111081397867E9, 0.0, 2024-10-24 00:48:28.139
11.0, -46653.76802131749, -49286.35648326355, -43688.13856698735, -53631.84852979762, -54117.75310251154, -47081.75922414771, 22738.764910550704, 49891.082929501885, 0.10400000000000001, 0.966, 0.168, 192.0, 0.0, 0.0, 0.0, 0.0, 0.0, 0.0, 0.0, 0.0, 0.0, 1.729711108142754E9, 0.0, 2024-10-24 00:48:28.142
12.0, -46678.04201579595, -49294.29135254519, -43695.69345661324, -53627.7581605623, -54119.29537287896, -47073.7125961438, 22697.54829377512, 49828.56510026039, 0.10400000000000001, 0.966, 0.168, 192.0, 0.0, 0.0, 0.0, 0.0, 0.0, 0.0, 0.0, 0.0, 0.0, 1.729711108145783E9, 0.0, 2024-10-24 00:48:28.145
13.0, -46668.98955929155, -49281.88613437249, -43685.858689052904, -53615.12942494505, -54110.08645416337, -47055.78649709064, 22429.841450433905, 49530.41518097105, 0.10400000000000001, 0.966, 0.168, 192.0, 0.0, 0.0, 0.0, 0.0, 0.0, 0.0, 0.0, 0.0, 0.0, 1.7297111081498442E9, 0.0, 2024-10-24 00:48:28.149
14.0, -46640.580492088855, -49266.41872720942, -43668.62549407787, -53605.026436451255, -54091.266285332, -47044.230645207244, 22261.39870421871, 49342.995803713304, 0.10400000000000001, 0.966, 0.168, 192.0, 0.0, 0.0, 0.0, 0.0, 0.0, 0.0, 0.0, 0.0, 0.0, 1.729711108152825E9, 0.0, 2024-10-24 00:48:28.152
15.0, -46636.44541936462, -49276.789936636684, -43675.57688660346, -53621.723189559365, -54105.929029694686, -47064.861305339495, 22508.340776960944, 49602.83483300624, 0.10400000000000001, 0.966, 0.168, 192.0, 0.0, 0.0, 0.0, 0.0, 0.0, 0.0, 0.0, 0.0, 0.0, 1.729711108155805E9, 0.0, 2024-10-24 00:48:28.155
16.0, -46652.02458524997, -49289.21750655383, -43692.586564133955, -53636.18476822195, -54128.30312589445, -47083.92734335987, 22787.64817567446, 49892.91577254722, 0.10400000000000001, 0.966, 0.168, 192.0, 0.0, 0.0, 0.0, 0.0, 0.0, 0.0, 0.0, 0.0, 0.0, 1.7297111081597977E9, 0.0, 2024-10-24 00:48:28.159
17.0, -46674.93512331667, -49292.68202694441, -43692.11717750039, -53626.841739039635, -54109.19238438516, -47066.60474140701, 22756.042809014656, 49838.89160619875, 0.10400000000000001, 0.966, 0.168, 192.0, 0.0, 0.0, 0.0, 0.0, 0.0, 0.0, 0.0, 0.0, 0.0, 1.7297111081629837E9, 0.0, 2024-10-24 00:48:28.162
18.0, -46656.89726554123, -49271.93960808988, -43669.988950489635, -53603.52886957275, -54085.5665904959, -47040.52025562766, 22483.709154571196, 49535.109047306665, 0.096, 0.966, 0.166, 192.0, 3.0, 0.0, 30.0, 48.0, 5.0, 48.0, 0.0, 0.0, 0.0, 1.7297111081658154E9, 0.0, 2024-10-24 00:48:28.165
19.0, -46636.601881575814, -49261.478991684795, -43660.53416258504, -53597.963285203376, -54091.0651196319, -47039.82735154955, 22309.119678630792, 49343.66635604696, 0.096, 0.966, 0.166, 192.0, 0.0, 0.0, 0.0, 0.0, 0.0, 0.0, 0.0, 0.0, 0.0, 1.729711108168824E9, 0.0, 2024-10-24 00:48:28.168
20.0, -46642.189817689636, -49275.1806110359, -43678.90729652731, -53620.695009314426, -54128.16901542772, -47073.824354866076, 22525.059881813515, 49572.99525415841, 0.096, 0.966, 0.166, 192.0, 0.0, 0.0, 0.0, 0.0, 0.0, 0.0, 0.0, 0.0, 0.0, 1.729711108172782E9, 0.0, 2024-10-24 00:48:28.172
21.0, -46670.12949825877, -49297.59941072457, -43701.54961366053, -53645.17016949299, -54145.87159703632, -47107.55313724913, 22820.84051619059, 49879.415318896215, 0.096, 0.966, 0.166, 192.0, 0.0, 0.0, 0.0, 0.0, 0.0, 0.0, 0.0, 0.0, 0.0, 1.7297111081768076E9, 0.0, 2024-10-24 00:48:28.176
22.0, -46689.77668163499, -49298.15820433595, -43694.35235194592, -53628.13814021804, -54119.13891066777, -47074.40550022191, 22786.463533218328, 49822.88775716874, 0.096, 0.966, 0.166, 192.0, 0.0, 0.0, 0.0, 0.0, 0.0, 0.0, 0.0, 0.0, 0.0, 1.7297111081829317E9, 0.0, 2024-10-24 00:48:28.182
23.0, -46669.123669758286, -49273.39247147948, -43665.58565683194, -53594.14113690152, -54081.40916602721, -47017.944993727804, 22525.037530069058, 49530.57164318224, 0.096, 0.966, 0.166, 192.0, 0.0, 0.0, 0.0, 0.0, 0.0, 0.0, 0.0, 0.0, 0.0, 1.7297111081849248E9, 0.0, 2024-10-24 00:48:28.184
24.0, -46635.28312865295, -49253.164142747424, -43645.2008658887, -53580.23835185032, -54072.33435777836, -47003.5951737875, 22370.497568905066, 49358.597321343106, 0.096, 0.966, 0.166, 192.0, 0.0, 0.0, 0.0, 0.0, 0.0, 0.0, 0.0, 0.0, 0.0, 1.729711108188838E9, 0.0, 2024-10-24 00:48:28.188
25.0, -46636.28895715344, -49264.83175335309, -43661.36117712989, -53602.366578861074, -54104.81144247192, -47040.92258702786, 22592.048059946068, 49594.02824569085, 0.096, 0.966, 0.166, 192.0, 0.0, 0.0, 0.0, 0.0, 0.0, 0.0, 0.0, 0.0, 0.0, 1.7297111081938405E9, 0.0, 2024-10-24 00:48:28.193
26.0, -46658.975977775575, -49283.04842508417, -43684.45052915222, -53621.723189559365, -54127.319649138415, -47063.65431113891, 22884.81120882168, 49896.26853421552, 0.096, 0.966, 0.166, 192.0, 0.0, 0.0, 0.0, 0.0, 0.0, 0.0, 0.0, 0.0, 0.0, 1.729711108197864E9, 0.0, 2024-10-24 00:48:28.197
27.0, -46688.52498394549, -49287.31760827513, -43690.485500155155, -53617.07402671266, -54116.16612865521, -47049.975043532264, 22888.320432701163, 49873.82738278239, 0.096, 0.966, 0.166, 192.0, 0.0, 0.0, 0.0, 0.0, 0.0, 0.0, 0.0, 0.0, 0.0, 1.7297111082008429E9, 0.0, 2024-10-24 00:48:28.200
28.0, -46668.207248235616, -49258.975596305805, -43661.16001142979, -53587.23444786483, -54066.925235620176, -47016.894461738404, 22609.594179343487, 49561.66291971957, 0.098, 0.968, 0.17, 192.0, 3.0, 16.0, 30.0, 64.0, 5.0, 80.0, 0.0, 0.0, 0.0, 1.7297111082048628E9, 0.0, 2024-10-24 00:48:28.204
29.0, -46645.073192724376, -49245.9221775439, -43649.4029938463, -53580.9983111618, -54065.31591001939, -47016.492130338214, 22425.505212009575, 49361.57010335566, 0.098, 0.968, 0.17, 192.0, 0.0, 0.0, 0.0, 0.0, 0.0, 0.0, 0.0, 0.0, 0.0, 1.7297111082089896E9, 0.0, 2024-10-24 00:48:28.208
30.0, -46647.12955321426, -49262.08248878509, -43665.45154636521, -53604.601753306604, -54098.75411972453, -47052.903122055905, 22644.1946797603, 49592.46362357898, 0.098, 0.968, 0.17, 192.0, 0.0, 0.0, 0.0, 0.0, 0.0, 0.0, 0.0, 0.0, 0.0, 1.729711108216879E9, 0.0, 2024-10-24 00:48:28.216
31.0, -46668.63193138027, -49288.36814026453, -43686.39513091983, -53630.08274198565, -54125.39739911526, -47076.35010198953, 22957.1191021346, 49913.99346756857, 0.098, 0.968, 0.17, 192.0, 0.0, 0.0, 0.0, 0.0, 0.0, 0.0, 0.0, 0.0, 0.0, 1.7297111082170515E9, 0.0, 2024-10-24 00:48:28.217
32.0, -46691.38600723577, -49293.46433800034, -43686.12690998637, -53624.27128842727, -54107.96303844012, -47060.41330819289, 22922.45154648442, 49856.281263384975, 0.098, 0.968, 0.17, 192.0, 0.0, 0.0, 0.0, 0.0, 0.0, 0.0, 0.0, 0.0, 0.0, 1.7297111082221415E9, 0.0, 2024-10-24 00:48:28.222
33.0, -46678.57845766288, -49279.42744248241, -43668.31256965549, -53610.547317331715, -54087.734709708064, -47047.33753768654, 22634.359912199965, 49539.2441200309, 0.098, 0.968, 0.17, 192.0, 0.0, 0.0, 0.0, 0.0, 0.0, 0.0, 0.0, 0.0, 0.0, 1.7297111082249715E9, 0.0, 2024-10-24 00:48:28.224
34.0, -46661.52407664348, -49272.677215656906, -43658.00841546159, -53609.04975045321, -54087.06415737441, -47052.769011589175, 22475.26019516709, 49362.799449300706, 0.098, 0.968, 0.17, 192.0, 0.0, 0.0, 0.0, 0.0, 0.0, 0.0, 0.0, 0.0, 0.0, 1.7297111082288823E9, 0.0, 2024-10-24 00:48:28.228
35.0, -46645.676689824664, -49271.760794134236, -43657.44962185021, -53614.3024104002, -54101.81630871491, -47063.16257276089, 22692.854427439503, 49591.949533456514, 0.098, 0.968, 0.17, 192.0, 0.0, 0.0, 0.0, 0.0, 0.0, 0.0, 0.0, 0.0, 0.0, 1.7297111082329345E9, 0.0, 2024-10-24 00:48:28.232
36.0, -46665.32387320088, -49287.87640188651, -43676.51565987059, -53631.53560537525, -54124.81625375942, -47080.97691309177, 22964.02579117129, 49872.32981590388, 0.098, 0.968, 0.17, 192.0, 0.0, 0.0, 0.0, 0.0, 0.0, 0.0, 0.0, 0.0, 0.0, 1.729711108236915E9, 0.0, 2024-10-24 00:48:28.236
37.0, -46694.04586482595, -49289.82100365413, -43678.88494478285, -53623.60073609361, -54114.84737573235, -47067.31999722958, 22932.35336927812, 49816.852786165815, 0.098, 0.968, 0.17, 192.0, 0.0, 0.0, 0.0, 0.0, 0.0, 0.0, 0.0, 0.0, 0.0, 1.729711108240913E9, 0.0, 2024-10-24 00:48:28.240
38.0, -46673.90694307172, -49261.88132308499, -43652.71105202568, -53596.37631134705, -54094.37317781129, -47040.676717838855, 22668.96041261678, 49522.03327680031, 0.1, 0.97, 0.17200000000000001, 192.0, 3.0, 32.0, 30.0, 80.0, 5.0, 96.0, 0.0, 0.0, 0.0, 1.7297111082449112E9, 0.0, 2024-10-24 00:48:28.244
39.0, -46652.42691665017, -49247.86677931152, -43641.28931060902, -53589.33551184363, -54105.66080876122, -47036.74281081472, 22523.986998079657, 49361.793620800214, 0.1, 0.97, 0.17200000000000001, 192.0, 0.0, 0.0, 0.0, 0.0, 0.0, 0.0, 0.0, 0.0, 0.0, 1.7297111082503595E9, 0.0, 2024-10-24 00:48:28.250
40.0, -46653.27628293947, -49260.96490156232, -43645.58084554444, -53605.428767851445, -54110.13115765228, -47054.110116256496, 22764.55882365213, 49617.20700469101, 0.1, 0.97, 0.17200000000000001, 192.0, 0.0, 0.0, 0.0, 0.0, 0.0, 0.0, 0.0, 0.0, 0.0, 1.729711108252949E9, 0.0, 2024-10-24 00:48:28.252
41.0, -46675.76213786151, -49286.736462919296, -43662.54581958602, -53630.79799780822, -54126.693800293666, -47086.52014571669, 23062.194652819, 49926.06340957444, 0.1, 0.97, 0.17200000000000001, 192.0, 0.0, 0.0, 0.0, 0.0, 0.0, 0.0, 0.0, 0.0, 0.0, 1.7297111082569396E9, 0.0, 2024-10-24 00:48:28.256
42.0, -46688.23441126757, -49284.076605329115, -43654.43213634875, -53617.61046857959, -54110.265268119016, -47070.47159319778, 23024.107280267155, 49864.97609197809, 0.1, 0.97, 0.17200000000000001, 192.0, 0.0, 0.0, 0.0, 0.0, 0.0, 0.0, 0.0, 0.0, 0.0, 1.7297111082609563E9, 0.0, 2024-10-24 00:48:28.260
43.0, -46668.65428312472, -49257.88036082749, -43630.58282501493, -53588.575552532144, -54089.65695973122, -47030.79724678961, 22741.335361163066, 49552.297538792795, 0.1, 0.97, 0.17200000000000001, 192.0, 0.0, 0.0, 0.0, 0.0, 0.0, 0.0, 0.0, 0.0, 0.0, 1.729711108265002E9, 0.0, 2024-10-24 00:48:28.265
44.0, -46647.24131193654, -49244.73753508777, -43615.0930661074, -53578.13728787152, -54074.05544210142, -47014.7486942707, 22584.783742998094, 49379.18327798644, 0.1, 0.97, 0.17200000000000001, 192.0, 0.0, 0.0, 0.0, 0.0, 0.0, 0.0, 0.0, 0.0, 0.0, 1.7297111082690053E9, 0.0, 2024-10-24 00:48:28.269
45.0, -46650.28114918246, -49259.42263119491, -43629.48758953662, -53597.89622997001, -54098.79882321344, -47040.78847656113, 22833.04456866319, 49640.743391602446, 0.1, 0.97, 0.17200000000000001, 192.0, 0.0, 0.0, 0.0, 0.0, 0.0, 0.0, 0.0, 0.0, 0.0, 1.7297111082729688E9, 0.0, 2024-10-24 00:48:28.272
46.0, -46670.73299535907, -49279.06981457112, -43649.023014190556, -53617.78928253523, -54124.88330899279, -47064.436622194844, 23130.456880385504, 49946.738773195604, 0.1, 0.97, 0.17200000000000001, 192.0, 0.0, 0.0, 0.0, 0.0, 0.0, 0.0, 0.0, 0.0, 0.0, 1.7297111082779803E9, 0.0, 2024-10-24 00:48:28.277
47.0, -46694.068216570406, -49280.83560238309, -43646.296101367014, -53608.312142886185, -54097.01068365702, -47047.382241175445, 23103.657138783594, 49897.43082492719, 0.1, 0.97, 0.17200000000000001, 192.0, 0.0, 0.0, 0.0, 0.0, 0.0, 0.0, 0.0, 0.0, 0.0, 1.7297111082810812E9, 0.0, 2024-10-24 00:48:28.281
48.0, -46682.42295770919, -49259.82496259511, -43626.89478717981, -53590.11782289956, -54080.9174276492, -47029.16556944437, 22826.383748815508, 49588.50736481039, 0.10400000000000001, 0.966, 0.17, 192.0, 3.0, 64.0, 30.0, 48.0, 5.0, 80.0, 0.0, 0.0, 0.0, 1.7297111082860496E9, 0.0, 2024-10-24 00:48:28.286
49.0, -46656.98667251905, -49248.51497990072, -43611.896766650294, -53586.630950764535, -54076.1118025913, -47032.18305494584, 22653.783578131628, 49398.159909029, 0.10400000000000001, 0.966, 0.17, 192.0, 0.0, 0.0, 0.0, 0.0, 0.0, 0.0, 0.0, 0.0, 0.0, 1.72971110828899E9, 0.0, 2024-10-24 00:48:28.288
50.0, -46652.248102694524, -49263.51300043023, -43618.825807431436, -53607.105148685594, -54090.59573299834, -47046.10819174149, 22891.0026420358, 49648.65590913963, 0.10400000000000001, 0.966, 0.17, 192.0, 0.0, 0.0, 0.0, 0.0, 0.0, 0.0, 0.0, 0.0, 0.0, 1.7297111082930064E9, 0.0, 2024-10-24 00:48:28.293
51.0, -46667.93902730215, -49276.49936395876, -43634.6508425058, -53617.94574474642, -54110.242916374555, -47038.73211607124, 23155.848462086735, 49923.91764210673, 0.10400000000000001, 0.966, 0.17, 192.0, 0.0, 0.0, 0.0, 0.0, 0.0, 0.0, 0.0, 0.0, 0.0, 1.7297111082991133E9, 0.0, 2024-10-24 00:48:28.299
52.0, -46691.60952468032, -49282.735500661795, -43640.082316408436, -53618.146910446514, -54113.84154723186, -47041.302566683604, 23110.653234798105, 49855.18602790666, 0.10400000000000001, 0.966, 0.17, 192.0, 0.0, 0.0, 0.0, 0.0, 0.0, 0.0, 0.0, 0.0, 0.0, 1.7297111083010185E9, 0.0, 2024-10-24 00:48:28.301
53.0, -46676.94678031764, -49264.45177369735, -43619.22813883163, -53601.98659920533, -54083.71139570611, -47027.44448512131, 22863.688810311414, 49580.46073680648, 0.10400000000000001, 0.966, 0.17, 192.0, 0.0, 0.0, 0.0, 0.0, 0.0, 0.0, 0.0, 0.0, 0.0, 1.7297111083069775E9, 0.0, 2024-10-24 00:48:28.306
54.0, -46647.33071891436, -49245.11751474351, -43599.40214149978, -53591.14600314451, -54076.558837480414, -47025.924566498354, 22706.936026446347, 49410.98981034635, 0.10400000000000001, 0.966, 0.17, 192.0, 0.0, 0.0, 0.0, 0.0, 0.0, 0.0, 0.0, 0.0, 0.0, 1.7297111083100083E9, 0.0, 2024-10-24 00:48:28.310
55.0, -46637.294785653925, -49246.950357788846, -43601.32439152293, -53599.99729394881, -54094.95432316713, -47045.52704638566, 22926.54191571974, 49645.77253410489, 0.10400000000000001, 0.966, 0.17, 192.0, 0.0, 0.0, 0.0, 0.0, 0.0, 0.0, 0.0, 0.0, 0.0, 1.7297111083141208E9, 0.0, 2024-10-24 00:48:28.314
56.0, -46658.126611486274, -49265.61406440903, -43625.50897902358, -53622.43844538194, -54133.466378863624, -47075.79130837814, 23206.25164583345, 49936.61343295735, 0.10400000000000001, 0.966, 0.17, 192.0, 0.0, 0.0, 0.0, 0.0, 0.0, 0.0, 0.0, 0.0, 0.0, 1.7297111083170505E9, 0.0, 2024-10-24 00:48:28.317
57.0, -46695.81165263792, -49279.62860818251, -43640.46229606418, -53627.28877392874, -54133.265213163526, -47078.51822120169, 23182.312927521816, 49889.607714367834, 0.10400000000000001, 0.966, 0.17, 192.0, 0.0, 0.0, 0.0, 0.0, 0.0, 0.0, 0.0, 0.0, 0.0, 1.7297111083210468E9, 0.0, 2024-10-24 00:48:28.321
58.0, -46676.3656349618, -49253.94645380336, -43614.75778994057, -53602.21011664988, -54103.246820360044, -47051.53966564413, 22895.11536301558, 49571.07300413526, 0.116, 0.966, 0.17, 192.0, 3.0, 160.0, 30.0, 48.0, 5.0, 80.0, 0.0, 0.0, 0.0, 1.7297111083251376E9, 0.0, 2024-10-24 00:48:28.325
59.0, -46652.49397188354, -49242.14473273096, -43601.5926124564, -53597.829174736646, -54101.861012203815, -47052.38903193343, 22722.537544076153, 49385.17354550047, 0.116, 0.966, 0.17, 192.0, 0.0, 0.0, 0.0, 0.0, 0.0, 0.0, 0.0, 0.0, 0.0, 1.7297111083290844E9, 0.0, 2024-10-24 00:48:28.329
60.0, -46656.18200971866, -49263.93768357488, -43622.42443828874, -53626.52881461726, -54131.633535818284, -47089.045892840135, 22935.43791001295, 49613.04958022232, 0.116, 0.966, 0.17, 192.0, 0.0, 0.0, 0.0, 0.0, 0.0, 0.0, 0.0, 0.0, 0.0, 1.7297111083331523E9, 0.0, 2024-10-24 00:48:28.333
61.0, -46672.252913982025, -49281.57320995012, -43635.00847041708, -53639.984564779355, -54135.94742249816, -47091.638695196954, 23230.682102523104, 49918.776740882015, 0.116, 0.966, 0.17, 192.0, 0.0, 0.0, 0.0, 0.0, 0.0, 0.0, 0.0, 0.0, 0.0, 1.7297111083370907E9, 0.0, 2024-10-24 00:48:28.337
62.0, -46691.58717293587, -49282.48963147279, -43631.0969151374, -53626.28294542825, -54118.98244845658, -47065.73302337325, 23161.72697087848, 49827.35810605981, 0.116, 0.966, 0.17, 192.0, 0.0, 0.0, 0.0, 0.0, 0.0, 0.0, 0.0, 0.0, 0.0, 1.7297111083400867E9, 0.0, 2024-10-24 00:48:28.340
63.0, -46680.97009431959, -49267.1786865209, -43615.20482482968, -53609.87676499805, -54102.46450930411, -47046.59993011951, 22888.946281545912, 49525.542500679796, 0.116, 0.966, 0.17, 192.0, 0.0, 0.0, 0.0, 0.0, 0.0, 0.0, 0.0, 0.0, 0.0, 1.729711108345084E9, 0.0, 2024-10-24 00:48:28.345
64.0, -46654.483277140054, -49250.63839562397, -43596.49641472059, -53598.0526921812, -54087.01945388549, -47033.85943577998, 22737.848489028038, 49358.28439692073, 0.116, 0.966, 0.17, 192.0, 0.0, 0.0, 0.0, 0.0, 0.0, 0.0, 0.0, 0.0, 0.0, 1.7297111083491077E9, 0.0, 2024-10-24 00:48:28.349
65.0, -46648.627120092766, -49256.248683482256, -43599.91623162225, -53606.88163124104, -54093.63557024427, -47043.895369040416, 22964.60693652713, 49597.29160038133, 0.116, 0.966, 0.17, 192.0, 0.0, 0.0, 0.0, 0.0, 0.0, 0.0, 0.0, 0.0, 0.0, 1.7297111083531888E9, 0.0, 2024-10-24 00:48:28.353
66.0, -46679.025492551984, -49284.12130881802, -43624.50315052309, -53633.681372842955, -54117.97661995609, -47079.45699446881, 23281.95700430358, 49921.81657812793, 0.116, 0.966, 0.17, 192.0, 0.0, 0.0, 0.0, 0.0, 0.0, 0.0, 0.0, 0.0, 0.0, 1.7297111083570812E9, 0.0, 2024-10-24 00:48:28.357
67.0, -46698.65032418374, -49285.70828267435, -43621.910348166275, -53622.61725933758, -54103.64915176024, -47066.38122396245, 23243.98139047401, 49858.225865152584, 0.116, 0.966, 0.17, 192.0, 0.0, 0.0, 0.0, 0.0, 0.0, 0.0, 0.0, 0.0, 0.0, 1.7297111083611195E9, 0.0, 2024-10-24 00:48:28.361
68.0, -46684.16639377671, -49263.46829694132, -43603.20193805718, -53597.18097414744, -54086.99710214104, -47027.75740954369, 22946.591430496148, 49533.11974205014, 0.116, 0.964, 0.17, 192.0, 3.0, 160.0, 30.0, 32.0, 5.0, 80.0, 0.0, 0.0, 0.0, 1.7297111083658133E9, 0.0, 2024-10-24 00:48:28.365
69.0, -46664.87683831178, -49247.35268918904, -43593.590687941396, -53587.30150309819, -54086.214791085105, -47015.575708815544, 22791.31386176513, 49365.72752782435, 0.116, 0.964, 0.17, 192.0, 0.0, 0.0, 0.0, 0.0, 0.0, 0.0, 0.0, 0.0, 0.0, 1.7297111083700786E9, 0.0, 2024-10-24 00:48:28.370
70.0, -46663.33456794436, -49253.52177065871, -43609.48277824912, -53601.27134338276, -54112.61220128682, -47039.4026684049, 23017.893495308577, 49609.11567319819, 0.116, 0.964, 0.17, 192.0, 0.0, 0.0, 0.0, 0.0, 0.0, 0.0, 0.0, 0.0, 0.0, 1.729711108373083E9, 0.0, 2024-10-24 00:48:28.373
71.0, -46680.925390830686, -49274.39829997996, -43629.97932791464, -53620.98558199234, -54132.88523350778, -47063.475497183266, 23292.641138153213, 49894.83802257038, 0.116, 0.964, 0.17, 192.0, 0.0, 0.0, 0.0, 0.0, 0.0, 0.0, 0.0, 0.0, 0.0, 1.7297111083770936E9, 0.0, 2024-10-24 00:48:28.377
72.0, -46700.03613233997, -49275.80645988065, -43622.40208654429, -53605.60758180709, -54093.00972139952, -47033.41240089088, 23253.480881867516, 49830.62146075028, 0.116, 0.964, 0.17, 192.0, 0.0, 0.0, 0.0, 0.0, 0.0, 0.0, 0.0, 0.0, 0.0, 1.729711108381117E9, 0.0, 2024-10-24 00:48:28.381
73.0, -46685.30633274392, -49256.27103522671, -43597.90457462127, -53584.328721085636, -54056.82224712637, -47011.239470391214, 22991.51843685132, 49538.01477408586, 0.116, 0.964, 0.17, 192.0, 0.0, 0.0, 0.0, 0.0, 0.0, 0.0, 0.0, 0.0, 0.0, 1.7297111083851423E9, 0.0, 2024-10-24 00:48:28.385
74.0, -46660.74176558755, -49248.26911071171, -43585.9910948266, -53583.009968162776, -54061.33729950635, -47006.81382498906, 22829.490641294797, 49362.28535917823, 0.116, 0.964, 0.17, 192.0, 0.0, 0.0, 0.0, 0.0, 0.0, 0.0, 0.0, 0.0, 0.0, 1.7297111083911054E9, 0.0, 2024-10-24 00:48:28.391
75.0, -46664.47450691158, -49268.25157025475, -43606.01825785855, -53610.837890009636, -54097.65888424622, -47039.000337004705, 23063.982792375424, 49612.37902788866, 0.116, 0.964, 0.17, 192.0, 0.0, 0.0, 0.0, 0.0, 0.0, 0.0, 0.0, 0.0, 0.0, 1.729711108394127E9, 0.0, 2024-10-24 00:48:28.394
76.0, -46682.08768154236, -49291.43032925491, -43625.28546157902, -53636.56474787769, -54120.30120137944, -47073.19850602133, 23363.09383667634, 49921.92833685021, 0.116, 0.964, 0.17, 192.0, 0.0, 0.0, 0.0, 0.0, 0.0, 0.0, 0.0, 0.0, 0.0, 1.7297111083981771E9, 0.0, 2024-10-24 00:48:28.398
77.0, -46700.505518973536, -49291.78795716619, -43619.33989755391, -53624.450102382914, -54095.021378400495, -47051.67377611087, 23311.058975584387, 49847.13939990275, 0.116, 0.964, 0.17, 192.0, 0.0, 0.0, 0.0, 0.0, 0.0, 0.0, 0.0, 0.0, 0.0, 1.7297111084012802E9, 0.0, 2024-10-24 00:48:28.401
78.0, -46679.40547220773, -49267.491610943274, -43596.27289727604, -53601.874840483055, -54074.92716013517, -47029.567900844566, 23007.142306225578, 49514.277221474316, 0.112, 0.966, 0.168, 192.0, 3.0, 128.0, 30.0, 48.0, 5.0, 64.0, 0.0, 0.0, 0.0, 1.729711108405249E9, 0.0, 2024-10-24 00:48:28.405
79.0, -46663.40162317773, -49259.802610850646, -43592.80837688546, -53604.82527075116, -54086.93004690767, -47039.290909682626, 22839.973609444336, 49335.15034140949, 0.112, 0.966, 0.168, 192.0, 0.0, 0.0, 0.0, 0.0, 0.0, 0.0, 0.0, 0.0, 0.0, 1.7297111084091516E9, 0.0, 2024-10-24 00:48:28.409
80.0, -46664.496858656035, -49270.643206911474, -43604.16306306876, -53622.81842503768, -54105.16907038321, -47057.88756106944, 23087.206254864486, 49597.49276608143, 0.112, 0.966, 0.168, 192.0, 0.0, 0.0, 0.0, 0.0, 0.0, 0.0, 0.0, 0.0, 0.0, 1.7297111084153311E9, 0.0, 2024-10-24 00:48:28.415
81.0, -46681.30537048643, -49284.16601230693, -43618.401124286785, -53636.117712988584, -54118.356599611834, -47075.72425314478, 23377.264842661007, 49895.82149932641, 0.112, 0.966, 0.168, 192.0, 0.0, 0.0, 0.0, 0.0, 0.0, 0.0, 0.0, 0.0, 0.0, 1.7297111084174068E9, 0.0, 2024-10-24 00:48:28.417
82.0, -46705.55701322044, -49286.289428030184, -43619.20578708718, -53627.48993962884, -54108.633590773774, -47066.962369318295, 23328.918019404176, 49823.625364735766, 0.112, 0.966, 0.168, 192.0, 0.0, 0.0, 0.0, 0.0, 0.0, 0.0, 0.0, 0.0, 0.0, 1.7297111084203272E9, 0.0, 2024-10-24 00:48:28.420
83.0, -46688.03324556747, -49262.93185507439, -43601.03381884502, -53604.75821551779, -54099.51407903601, -47042.844837051016, 23009.265721948832, 49473.373529121105, 0.112, 0.966, 0.168, 192.0, 0.0, 0.0, 0.0, 0.0, 0.0, 0.0, 0.0, 0.0, 0.0, 1.7297111084242332E9, 0.0, 2024-10-24 00:48:28.424
84.0, -46663.04399526644, -49247.442096166866, -43583.71121689215, -53593.60469503459, -54081.18564858266, -47025.03049672014, 22841.71704551185, 49291.76560542174, 0.112, 0.966, 0.168, 192.0, 0.0, 0.0, 0.0, 0.0, 0.0, 0.0, 0.0, 0.0, 0.0, 1.7297111084291887E9, 0.0, 2024-10-24 00:48:28.429
85.0, -46662.328739443874, -49260.428459695395, -43593.322467007936, -53612.849547010606, -54103.537393037965, -47047.02461326416, 23104.1041736727, 49569.59778900121, 0.112, 0.966, 0.168, 192.0, 0.0, 0.0, 0.0, 0.0, 0.0, 0.0, 0.0, 0.0, 0.0, 1.7297111084332085E9, 0.0, 2024-10-24 00:48:28.433
86.0, -46680.34424547485, -49278.37691049301, -43612.612022472866, -53633.2119862094, -54136.30505040944, -47077.445337467834, 23390.7205928231, 49865.95956873412, 0.112, 0.966, 0.168, 192.0, 0.0, 0.0, 0.0, 0.0, 0.0, 0.0, 0.0, 0.0, 0.0, 1.729711108437205E9, 0.0, 2024-10-24 00:48:28.437
87.0, -46702.96421086362, -49276.856991870045, -43611.762656183564, -53620.538547103235, -54113.50627106503, -47060.4580116818, 23340.54092652094, 49791.885887609234, 0.112, 0.966, 0.168, 192.0, 0.0, 0.0, 0.0, 0.0, 0.0, 0.0, 0.0, 0.0, 0.0, 1.729711108441202E9, 0.0, 2024-10-24 00:48:28.441
88.0, -46678.62316115179, -49248.6714421119, -43581.52074593553, -53588.97788393234, -54076.067099102394, -47019.844892006506, 23062.75344643038, 49484.638808326585, 0.11, 0.968, 0.166, 192.0, 3.0, 112.0, 30.0, 64.0, 5.0, 48.0, 0.0, 0.0, 0.0, 1.7297111084452617E9, 0.0, 2024-10-24 00:48:28.445
89.0, -46653.589207361845, -49231.23708143677, -43563.37112943782, -53577.89141868251, -54061.65022392872, -47016.58153731603, 22901.3067962297, 49308.75293120777, 0.11, 0.968, 0.166, 192.0, 0.0, 0.0, 0.0, 0.0, 0.0, 0.0, 0.0, 0.0, 0.0, 1.7297111084492571E9, 0.0, 2024-10-24 00:48:28.449
90.0, -46655.22088470708, -49243.441133909364, -43578.36914996734, -53596.93510495843, -54092.987369655064, -47043.180113217844, 23139.174060723075, 49561.260588319376, 0.11, 0.968, 0.166, 192.0, 0.0, 0.0, 0.0, 0.0, 0.0, 0.0, 0.0, 0.0, 0.0, 1.7297111084522305E9, 0.0, 2024-10-24 00:48:28.452
91.0, -46670.19655349214, -49260.69668062886, -43594.30594376397, -53611.150814432, -54113.79684374295, -47056.6582151244, 23440.900259125265, 49873.69327231566, 0.11, 0.968, 0.166, 192.0, 0.0, 0.0, 0.0, 0.0, 0.0, 0.0, 0.0, 0.0, 0.0, 1.7297111084563737E9, 0.0, 2024-10-24 00:48:28.456
92.0, -46696.83983288286, -49268.13981153248, -43599.804472899974, -53605.920506229464, -54106.24195411706, -47049.5056568987, 23390.85470328983, 49797.831451634345, 0.11, 0.968, 0.166, 192.0, 0.0, 0.0, 0.0, 0.0, 0.0, 0.0, 0.0, 0.0, 0.0, 1.729711108461316E9, 0.0, 2024-10-24 00:48:28.461
93.0, -46680.47835594158, -49248.693793856364, -43578.4362052007, -53581.51240128427, -54081.029186371474, -47018.88376699493, 23105.914664973578, 49481.71072980294, 0.11, 0.968, 0.166, 192.0, 0.0, 0.0, 0.0, 0.0, 0.0, 0.0, 0.0, 0.0, 0.0, 1.7297111084656656E9, 0.0, 2024-10-24 00:48:28.465
94.0, -46646.526056113966, -49234.88041578298, -43554.85511480035, -53568.74955520029, -54064.73476466355, -47006.277383122135, 22945.63030548457, 49307.36712305154, 0.11, 0.968, 0.166, 192.0, 0.0, 0.0, 0.0, 0.0, 0.0, 0.0, 0.0, 0.0, 0.0, 1.7297111084702392E9, 0.0, 2024-10-24 00:48:28.470
95.0, -46648.40360264821, -49249.96784329032, -43567.10387076186, -53590.25193336629, -54088.80759344192, -47036.94397651482, 23171.36057273872, 49548.02835560183, 0.11, 0.968, 0.166, 192.0, 0.0, 0.0, 0.0, 0.0, 0.0, 0.0, 0.0, 0.0, 0.0, 1.7297111084752889E9, 0.0, 2024-10-24 00:48:28.475
96.0, -46657.90309404172, -49263.60240740805, -43577.89976333377, -53607.97686671935, -54109.92999195219, -47060.055680281606, 23444.45418649366, 49830.48735028355, 0.11, 0.968, 0.166, 192.0, 0.0, 0.0, 0.0, 0.0, 0.0, 0.0, 0.0, 0.0, 0.0, 1.7297111084783497E9, 0.0, 2024-10-24 00:48:28.478
97.0, -46687.7203211451, -49269.14564003297, -43584.44882445918, -53603.819442250664, -54100.16227962521, -47043.91772078487, 23384.193883442153, 49744.54489285289, 0.11, 0.968, 0.166, 192.0, 0.0, 0.0, 0.0, 0.0, 0.0, 0.0, 0.0, 0.0, 0.0, 1.7297111084812727E9, 0.0, 2024-10-24 00:48:28.481
98.0, -46673.97399830508, -49248.40322117844, -43565.561600394445, -53584.86516295256, -54078.726956692575, -47018.32497338355, 23098.024499180854, 49430.01114487781, 0.11, 0.968, 0.166, 192.0, 0.0, 0.0, 0.0, 0.0, 0.0, 0.0, 0.0, 0.0, 0.0, 1.729711108487284E9, 0.0, 2024-10-24 00:48:28.487
99.0, -46653.790373061944, -49239.328412929586, -43556.956178779146, -53585.04397690821, -54074.43542175715, -47011.172415157846, 22936.287276302253, 49254.03586078118, 0.112, 0.968, 0.168, 192.0, 3.0, 128.0, 30.0, 64.0, 5.0, 64.0, 0.0, 0.0, 0.0, 1.7297111084912648E9, 0.0, 2024-10-24 00:48:28.491
100.0, -46659.80299232042, -49258.50620967224, -43578.61501915634, -53616.44817786791, -54109.79588148545, -47055.02653777916, 23182.223520543997, 49514.00900054086, 0.112, 0.968, 0.168, 192.0, 0.0, 0.0, 0.0, 0.0, 0.0, 0.0, 0.0, 0.0, 0.0, 1.7297111084942787E9, 0.0, 2024-10-24 00:48:28.494
101.0, -46677.773794862485, -49272.90073310146, -43594.372998997336, -53633.43550365395, -54126.894965993764, -47070.91862808688, 23488.397716092793, 49831.1131991283, 0.112, 0.968, 0.168, 192.0, 0.0, 0.0, 0.0, 0.0, 0.0, 0.0, 0.0, 0.0, 0.0, 1.7297111084972532E9, 0.0, 2024-10-24 00:48:28.497
102.0, -46694.694065415155, -49267.625721410004, -43589.79089138399, -53619.24214592483, -54096.56364876791, -47053.104287756, 23426.863363607332, 49743.98609924151, 0.112, 0.968, 0.168, 192.0, 0.0, 0.0, 0.0, 0.0, 0.0, 0.0, 0.0, 0.0, 0.0, 1.729711108501338E9, 0.0, 2024-10-24 00:48:28.501
103.0, -46677.03618729546, -49248.64909036745, -43569.51785916303, -53600.28786662673, -54069.495686232534, -47036.966328259274, 23151.9145550626, 49437.05194438124, 0.112, 0.968, 0.168, 192.0, 0.0, 0.0, 0.0, 0.0, 0.0, 0.0, 0.0, 0.0, 0.0, 1.7297111085042963E9, 0.0, 2024-10-24 00:48:28.504
104.0, -46654.840905051344, -49238.38963966246, -43561.068899758924, -53595.68340726893, -54077.832886914366, -47032.0489444791, 23008.84103880418, 49279.40509073795, 0.112, 0.968, 0.168, 192.0, 0.0, 0.0, 0.0, 0.0, 0.0, 0.0, 0.0, 0.0, 0.0, 1.7297111085082974E9, 0.0, 2024-10-24 00:48:28.508
105.0, -46648.694175326134, -49249.78902933467, -43572.557696408956, -53612.31310514368, -54098.75411972453, -47055.585331390546, 23228.89396296668, 49515.86419533064, 0.112, 0.968, 0.168, 192.0, 0.0, 0.0, 0.0, 0.0, 0.0, 0.0, 0.0, 0.0, 0.0, 1.7297111085122993E9, 0.0, 2024-10-24 00:48:28.512
106.0, -46675.09158552785, -49277.974579092814, -43597.993981599095, -53642.420904924984, -54127.9231462387, -47099.975895878786, 23514.79512629451, 49811.443664007624, 0.112, 0.968, 0.168, 192.0, 0.0, 0.0, 0.0, 0.0, 0.0, 0.0, 0.0, 0.0, 0.0, 1.7297111085165455E9, 0.0, 2024-10-24 00:48:28.516
107.0, -46689.91079210172, -49273.995968579766, -43592.80837688546, -53627.78051230675, -54109.482957063075, -47073.7125961438, 23471.902128684775, 49742.37677364073, 0.112, 0.968, 0.168, 192.0, 0.0, 0.0, 0.0, 0.0, 0.0, 0.0, 0.0, 0.0, 0.0, 1.7297111085213077E9, 0.0, 2024-10-24 00:48:28.521
108.0, -46667.58139939087, -49245.72101184381, -43567.10387076186, -53592.37534908955, -54078.01170087, -47013.58640355902, 23179.29544202035, 49421.00339186232, 0.112, 0.968, 0.168, 192.0, 0.0, 0.0, 0.0, 0.0, 0.0, 0.0, 0.0, 0.0, 0.0, 1.729711108525293E9, 0.0, 2024-10-24 00:48:28.525
109.0, -46641.85454152281, -49233.18168320438, -43555.43626015619, -53584.820459463655, -54070.814439155394, -47010.85949073547, 23019.100489509165, 49247.59855837805, 0.112, 0.966, 0.17200000000000001, 192.0, 3.0, 128.0, 30.0, 48.0, 5.0, 96.0, 0.0, 0.0, 0.0, 1.7297111085293262E9, 0.0, 2024-10-24 00:48:28.529
110.0, -46645.6096345913, -49245.00575602124, -43574.994036554584, -53606.03226495174, -54103.112709893314, -47048.27631095366, 23247.870594009233, 49491.769014807825, 0.112, 0.966, 0.17200000000000001, 192.0, 0.0, 0.0, 0.0, 0.0, 0.0, 0.0, 0.0, 0.0, 0.0, 1.729711108532296E9, 0.0, 2024-10-24 00:48:28.532
111.0, -46662.84282956634, -49259.802610850646, -43594.149481552784, -53620.35973314759, -54125.39739911526, -47066.60474140701, 23516.873838528853, 49770.495268165505, 0.112, 0.966, 0.17200000000000001, 192.0, 0.0, 0.0, 0.0, 0.0, 0.0, 0.0, 0.0, 0.0, 0.0, 1.7297111085365217E9, 0.0, 2024-10-24 00:48:28.536
112.0, -46689.866088612805, -49262.99891030776, -43602.50903397906, -53611.46373885438, -54113.70743676513, -47050.26561621018, 23462.58145124691, 49692.37592129421, 0.112, 0.966, 0.17200000000000001, 192.0, 0.0, 0.0, 0.0, 0.0, 0.0, 0.0, 0.0, 0.0, 0.0, 1.7297111085403795E9, 0.0, 2024-10-24 00:48:28.540
113.0, -46667.44728892414, -49235.10393322753, -43577.40802495575, -53583.59111351861, -54078.39168052575, -47023.01883971916, 23176.613232685715, 49378.19980123041, 0.112, 0.966, 0.17200000000000001, 192.0, 0.0, 0.0, 0.0, 0.0, 0.0, 0.0, 0.0, 0.0, 0.0, 1.7297111085443423E9, 0.0, 2024-10-24 00:48:28.544
114.0, -46646.97309100308, -49225.35857264502, -43570.50133591906, -53578.91959892745, -54079.95630263762, -47021.945955985306, 23034.41143446105, 49221.581127832076, 0.112, 0.966, 0.17200000000000001, 192.0, 0.0, 0.0, 0.0, 0.0, 0.0, 0.0, 0.0, 0.0, 0.0, 1.729711108550378E9, 0.0, 2024-10-24 00:48:28.550
115.0, -46645.14024795774, -49240.244834452256, -43588.18156578321, -53597.471546825356, -54109.348846596346, -47046.01878476367, 23261.281640682417, 49462.488229571376, 0.112, 0.966, 0.17200000000000001, 192.0, 0.0, 0.0, 0.0, 0.0, 0.0, 0.0, 0.0, 0.0, 0.0, 1.7297111085543723E9, 0.0, 2024-10-24 00:48:28.554
116.0, -46656.89726554123, -49256.91923581591, -43597.90457462127, -53611.79901502121, -54116.00966644403, -47056.59115989103, 23534.442309670725, 49744.500189363986, 0.112, 0.966, 0.17200000000000001, 192.0, 0.0, 0.0, 0.0, 0.0, 0.0, 0.0, 0.0, 0.0, 0.0, 1.7297111085583968E9, 0.0, 2024-10-24 00:48:28.558
117.0, -46673.10228027133, -49258.26034048323, -43593.63539143031, -53600.37727360455, -54089.88047717577, -47035.49111312522, 23474.874910697334, 49658.96006333352, 0.112, 0.966, 0.17200000000000001, 192.0, 0.0, 0.0, 0.0, 0.0, 0.0, 0.0, 0.0, 0.0, 0.0, 1.7297111085613985E9, 0.0, 2024-10-24 00:48:28.561
118.0, -46651.01875674949, -49233.33814541557, -43572.758862109054, -53575.56683725916, -54064.69006117464, -47008.13257791193, 23191.365384026216, 49346.81795201516, 0.112, 0.966, 0.17200000000000001, 192.0, 0.0, 0.0, 0.0, 0.0, 0.0, 0.0, 0.0, 0.0, 0.0, 1.7297111085643947E9, 0.0, 2024-10-24 00:48:28.564
119.0, -46627.95175647161, -49226.1185319565, -43568.89201031828, -53577.042052393204, -54070.92619787767, -47016.02274370465, 23036.244277506386, 49178.39755754442, 0.11, 0.966, 0.166, 192.0, 3.0, 112.0, 30.0, 48.0, 5.0, 48.0, 0.0, 0.0, 0.0, 1.7297111085683775E9, 0.0, 2024-10-24 00:48:28.568
120.0, -46625.31425062588, -49239.5742821186, -43586.92986809371, -53599.282038126235, -54098.84352670235, -47043.69420334032, 23280.593547891804, 49436.15787460302, 0.11, 0.966, 0.166, 192.0, 0.0, 0.0, 0.0, 0.0, 0.0, 0.0, 0.0, 0.0, 0.0, 1.7297111085724225E9, 0.0, 2024-10-24 00:48:28.572
121.0, -46645.207303191106, -49262.37306146301, -43609.70629569367, -53621.298506414714, -54118.17778565619, -47061.39678494892, 23536.029283527052, 49702.09893013226, 0.11, 0.966, 0.166, 192.0, 0.0, 0.0, 0.0, 0.0, 0.0, 0.0, 0.0, 0.0, 0.0, 1.729711108577382E9, 0.0, 2024-10-24 00:48:28.577
122.0, -46677.88555358476, -49278.131041304, -43618.06584811996, -53624.65126808301, -54098.24002960206, -47054.02070927867, 23489.805875993476, 49632.7638188319, 0.11, 0.966, 0.166, 192.0, 0.0, 0.0, 0.0, 0.0, 0.0, 0.0, 0.0, 0.0, 0.0, 1.729711108581388E9, 0.0, 2024-10-24 00:48:28.581
123.0, -46659.57947487587, -49258.86383758353, -43596.04937983148, -53602.768910261264, -54073.206075812115, -47020.51544434016, 23203.63649173218, 49317.91714643445, 0.11, 0.966, 0.166, 192.0, 0.0, 0.0, 0.0, 0.0, 0.0, 0.0, 0.0, 0.0, 0.0, 1.7297111085854216E9, 0.0, 2024-10-24 00:48:28.585
124.0, -46636.22190192007, -49244.55872113213, -43584.560583181454, -53595.77281424675, -54066.12057281978, -47014.458121592776, 23031.528059426317, 49134.25286224519, 0.11, 0.966, 0.166, 192.0, 0.0, 0.0, 0.0, 0.0, 0.0, 0.0, 0.0, 0.0, 0.0, 1.7297111085884554E9, 0.0, 2024-10-24 00:48:28.588
125.0, -46634.88079725275, -49261.00960505124, -43600.81030140046, -53619.93505000294, -54094.462584789115, -47047.44929640881, 23271.83166406532, 49389.1074525246, 0.11, 0.966, 0.166, 192.0, 0.0, 0.0, 0.0, 0.0, 0.0, 0.0, 0.0, 0.0, 0.0, 1.7297111085924835E9, 0.0, 2024-10-24 00:48:28.592
126.0, -46651.80106780542, -49277.080509314605, -43623.653784233786, -53637.95055603392, -54116.836680988876, -47066.045947795625, 23551.00495231211, 49676.752051919946, 0.11, 0.966, 0.166, 192.0, 0.0, 0.0, 0.0, 0.0, 0.0, 0.0, 0.0, 0.0, 0.0, 1.7297111085964203E9, 0.0, 2024-10-24 00:48:28.596
127.0, -46665.56974238989, -49272.27488425671, -43621.686830721716, -53624.91948901647, -54097.5694772684, -47050.13150574345, 23457.954640144664, 49560.701794707995, 0.11, 0.966, 0.166, 192.0, 0.0, 0.0, 0.0, 0.0, 0.0, 0.0, 0.0, 0.0, 0.0, 1.7297111086005268E9, 0.0, 2024-10-24 00:48:28.600
128.0, -46653.47744863957, -49256.65101488245, -43607.76169392606, -53611.19551792092, -54082.97378813908, -47043.202464962305, 23169.05834305982, 49243.91052054292, 0.11, 0.966, 0.166, 192.0, 0.0, 0.0, 0.0, 0.0, 0.0, 0.0, 0.0, 0.0, 0.0, 1.7297111086054444E9, 0.0, 2024-10-24 00:48:28.605
129.0, -46634.72433504157, -49244.80459032114, -43601.078522333926, -53603.79709050621, -54085.34307305134, -47033.21123519078, 23037.36186472915, 49099.96528625075, 0.112, 0.97, 0.17200000000000001, 192.0, 3.0, 128.0, 30.0, 80.0, 5.0, 96.0, 0.0, 0.0, 0.0, 1.7297111086094215E9, 0.0, 2024-10-24 00:48:28.609
130.0, -46631.72920128456, -49254.08056427009, -43611.44973176119, -53614.727093544854, -54109.88528846327, -47041.92841552835, 23270.714076842556, 49348.941367738415, 0.112, 0.97, 0.17200000000000001, 192.0, 0.0, 0.0, 0.0, 0.0, 0.0, 0.0, 0.0, 0.0, 0.0, 1.7297111086135075E9, 0.0, 2024-10-24 00:48:28.613
131.0, -46648.135381714754, -49271.42551796741, -43626.87243543535, -53629.52394837427, -54118.24484088956, -47063.4084419499, 23543.94180106423, 49631.10978974221, 0.112, 0.97, 0.17200000000000001, 192.0, 0.0, 0.0, 0.0, 0.0, 0.0, 0.0, 0.0, 0.0, 0.0, 1.729711108616476E9, 0.0, 2024-10-24 00:48:28.616
132.0, -46668.900152313734, -49274.39829997996, -43627.81120870247, -53622.97488724886, -54101.88336394828, -47056.12177325747, 23480.194625877695, 49541.121666565145, 0.112, 0.97, 0.17200000000000001, 192.0, 0.0, 0.0, 0.0, 0.0, 0.0, 0.0, 0.0, 0.0, 0.0, 1.7297111086205153E9, 0.0, 2024-10-24 00:48:28.620
133.0, -46647.911864270194, -49253.54412240316, -43605.258298547065, -53599.61731429307, -54077.27409330298, -47028.4503136218, 23208.576227256803, 49239.30606118513, 0.112, 0.97, 0.17200000000000001, 192.0, 0.0, 0.0, 0.0, 0.0, 0.0, 0.0, 0.0, 0.0, 0.0, 1.7297111086245372E9, 0.0, 2024-10-24 00:48:28.624
134.0, -46620.46392207908, -49238.38963966246, -43589.20974602816, -53588.68731125442, -54072.647282200734, -47021.029534462636, 23034.8361176057, 49052.89251242787, 0.112, 0.97, 0.17200000000000001, 192.0, 0.0, 0.0, 0.0, 0.0, 0.0, 0.0, 0.0, 0.0, 0.0, 1.7297111086284215E9, 0.0, 2024-10-24 00:48:28.628
135.0, -46627.46001809359, -49256.20397999334, -43608.119321837345, -53611.307276643194, -54099.37996856928, -47050.22091272127, 23262.488634883004, 49295.56540197914, 0.112, 0.97, 0.17200000000000001, 192.0, 0.0, 0.0, 0.0, 0.0, 0.0, 0.0, 0.0, 0.0, 0.0, 1.7297111086324527E9, 0.0, 2024-10-24 00:48:28.632
136.0, -46644.67086132418, -49270.03970981118, -43626.49245577961, -53624.36069540509, -54121.19527115766, -47066.761203618196, 23544.56764990898, 49585.75810024239, 0.112, 0.97, 0.17200000000000001, 192.0, 0.0, 0.0, 0.0, 0.0, 0.0, 0.0, 0.0, 0.0, 0.0, 1.729711108637547E9, 0.0, 2024-10-24 00:48:28.637
137.0, -46665.99442553454, -49270.307930744646, -43629.64405174781, -53611.93312548794, -54107.13602389527, -47044.945901029816, 23471.432742051216, 49486.248133927365, 0.112, 0.97, 0.17200000000000001, 192.0, 0.0, 0.0, 0.0, 0.0, 0.0, 0.0, 0.0, 0.0, 0.0, 1.7297111086415396E9, 0.0, 2024-10-24 00:48:28.641
138.0, -46644.38028864626, -49248.09029675607, -43604.61009795786, -53587.41326182047, -54072.49081998954, -47014.86045299297, 23198.517942251914, 49184.07490063607, 0.112, 0.97, 0.17200000000000001, 192.0, 0.0, 0.0, 0.0, 0.0, 0.0, 0.0, 0.0, 0.0, 0.0, 1.7297111086445844E9, 0.0, 2024-10-24 00:48:28.644
139.0, -46625.71658202608, -49241.496532141755, -43600.89970837828, -53588.21792462086, -54091.60156149883, -47017.4979588387, 23048.113053812154, 49020.97422134569, 0.11, 0.962, 0.166, 192.0, 3.0, 112.0, 30.0, 16.0, 5.0, 48.0, 0.0, 0.0, 0.0, 1.7297111086484516E9, 0.0, 2024-10-24 00:48:28.648
140.0, -46625.31425062588, -49255.62283463751, -43612.254394561576, -53607.57453531916, -54104.83379421637, -47040.76612481668, 23290.696536385603, 49281.975541350315, 0.11, 0.962, 0.166, 192.0, 0.0, 0.0, 0.0, 0.0, 0.0, 0.0, 0.0, 0.0, 0.0, 1.7297111086526096E9, 0.0, 2024-10-24 00:48:28.652
141.0, -46633.22676816306, -49262.19424750737, -43610.846234660894, -53609.96617197587, -54084.672520717686, -47036.18401720333, 23554.916507591788, 49555.85146616119, 0.11, 0.962, 0.166, 192.0, 0.0, 0.0, 0.0, 0.0, 0.0, 0.0, 0.0, 0.0, 0.0, 1.7297111086564872E9, 0.0, 2024-10-24 00:48:28.656
142.0, -46660.27237895398, -49270.08441330009, -43613.237871317615, -53605.920506229464, -54069.65214844372, -47030.10434271149, 23486.162541647263, 49459.69426151446, 0.11, 0.962, 0.166, 192.0, 0.0, 0.0, 0.0, 0.0, 0.0, 0.0, 0.0, 0.0, 0.0, 1.7297111086614685E9, 0.0, 2024-10-24 00:48:28.661
143.0, -46645.11789621328, -49247.86677931152, -43598.284554277016, -53583.18878211842, -54056.218750026084, -47002.7458074982, 23191.0748113483, 49136.64449890191, 0.11, 0.962, 0.166, 192.0, 0.0, 0.0, 0.0, 0.0, 0.0, 0.0, 0.0, 0.0, 0.0, 1.7297111086655912E9, 0.0, 2024-10-24 00:48:28.665
144.0, -46620.19570114562, -49234.27691868269, -43590.170871039736, -53577.958473915874, -54056.285805259446, -47000.71179875277, 23051.577574202725, 48986.08314825096, 0.11, 0.962, 0.166, 192.0, 0.0, 0.0, 0.0, 0.0, 0.0, 0.0, 0.0, 0.0, 0.0, 1.7297111086695747E9, 0.0, 2024-10-24 00:48:28.669
145.0, -46621.916785468675, -49250.146657245954, -43607.96285962616, -53599.37144510406, -54084.449003273134, -47023.130598441436, 23283.901606071187, 49234.03104949368, 0.11, 0.962, 0.166, 192.0, 0.0, 0.0, 0.0, 0.0, 0.0, 0.0, 0.0, 0.0, 0.0, 1.7297111086726224E9, 0.0, 2024-10-24 00:48:28.672
146.0, -46639.23938742154, -49268.542142932674, -43626.648917990795, -53619.46566336938, -54105.41493957221, -47047.60575862, 23559.163339038296, 49518.76992210984, 0.11, 0.962, 0.166, 192.0, 0.0, 0.0, 0.0, 0.0, 0.0, 0.0, 0.0, 0.0, 0.0, 1.7297111086765296E9, 0.0, 2024-10-24 00:48:28.676
147.0, -46657.45605915262, -49268.78801212168, -43622.22327258865, -53610.256744653794, -54085.87951491827, -47036.02755499215, 23492.42103009475, 49427.418342521, 0.11, 0.962, 0.166, 192.0, 0.0, 0.0, 0.0, 0.0, 0.0, 0.0, 0.0, 0.0, 0.0, 1.729711108680748E9, 0.0, 2024-10-24 00:48:28.680
148.0, -46639.35114614382, -49248.492628156266, -43601.905536878774, -53590.475450810845, -54064.44419198563, -47013.56405181457, 23203.748250454457, 49109.710646833264, 0.11, 0.962, 0.166, 192.0, 0.0, 0.0, 0.0, 0.0, 0.0, 0.0, 0.0, 0.0, 0.0, 1.7297111086845033E9, 0.0, 2024-10-24 00:48:28.684
149.0, -46615.65829702119, -49238.25552919573, -43590.90847860676, -53589.782546732735, -54062.67840417366, -47013.832272748026, 23051.354056758173, 48945.02299368656, 0.114, 0.962, 0.168, 192.0, 3.0, 144.0, 30.0, 16.0, 5.0, 64.0, 0.0, 0.0, 0.0, 1.7297111086885889E9, 0.0, 2024-10-24 00:48:28.688
150.0, -46614.428951076145, -49251.15248574645, -43604.96772586915, -53611.46373885438, -54094.03790164446, -47042.59896786201, 23280.70530661408, 49190.06516815009, 0.114, 0.962, 0.168, 192.0, 0.0, 0.0, 0.0, 0.0, 0.0, 0.0, 0.0, 0.0, 0.0, 1.729711108693535E9, 0.0, 2024-10-24 00:48:28.693
151.0, -46625.87304423726, -49268.2292185103, -43614.713086451666, -53626.01472449479, -54111.13698615277, -47060.83799133754, 23547.47337668817, 49467.159744162534, 0.114, 0.962, 0.168, 192.0, 0.0, 0.0, 0.0, 0.0, 0.0, 0.0, 0.0, 0.0, 0.0, 1.7297111086976483E9, 0.0, 2024-10-24 00:48:28.697
152.0, -46651.15286721622, -49274.46535521333, -43616.43417077472, -53619.80093953621, -54098.910581935714, -47049.32684294305, 23466.44830303768, 49359.26787367676, 0.114, 0.962, 0.168, 192.0, 0.0, 0.0, 0.0, 0.0, 0.0, 0.0, 0.0, 0.0, 0.0, 1.7297111087007723E9, 0.0, 2024-10-24 00:48:28.700
153.0, -46633.8079135189, -49252.113610758024, -43595.4905862201, -53596.53277355823, -54074.36836652379, -47021.72243854075, 23170.511206449417, 49034.85465465244, 0.114, 0.962, 0.168, 192.0, 0.0, 0.0, 0.0, 0.0, 0.0, 0.0, 0.0, 0.0, 0.0, 1.7297111087048016E9, 0.0, 2024-10-24 00:48:28.704
154.0, -46608.1034073953, -49237.98730826227, -43581.1854697687, -53591.235410122325, -54064.69006117464, -47023.35411588599, 23003.096640479165, 48855.19133272068, 0.114, 0.962, 0.168, 192.0, 0.0, 0.0, 0.0, 0.0, 0.0, 0.0, 0.0, 0.0, 0.0, 1.7297111087086213E9, 0.0, 2024-10-24 00:48:28.708
155.0, -46608.39398007321, -49248.58203513409, -43591.690789662694, -53605.786395762734, -54089.72401496459, -47039.000337004705, 23225.809422231847, 49091.15869893536, 0.114, 0.962, 0.168, 192.0, 0.0, 0.0, 0.0, 0.0, 0.0, 0.0, 0.0, 0.0, 0.0, 1.7297111087126448E9, 0.0, 2024-10-24 00:48:28.712
156.0, -46625.8059890039, -49262.93185507439, -43612.27674630604, -53620.22562268086, -54120.70353277964, -47046.197598719315, 23507.24023666862, 49381.32904545416, 0.114, 0.962, 0.168, 192.0, 0.0, 0.0, 0.0, 0.0, 0.0, 0.0, 0.0, 0.0, 0.0, 1.7297111087166245E9, 0.0, 2024-10-24 00:48:28.716
157.0, -46644.223826435074, -49262.17189576291, -43612.254394561576, -53612.26840165477, -54104.07383490489, -47038.91093002688, 23440.20735504715, 49286.17766930791, 0.114, 0.962, 0.168, 192.0, 0.0, 0.0, 0.0, 0.0, 0.0, 0.0, 0.0, 0.0, 0.0, 1.7297111087226875E9, 0.0, 2024-10-24 00:48:28.722
158.0, -46634.25494840801, -49250.303119457145, -43593.88126061932, -53595.21402063537, -54068.80278215442, -47017.475607094246, 23168.387790726163, 48984.27265695008, 0.114, 0.962, 0.168, 192.0, 0.0, 0.0, 0.0, 0.0, 0.0, 0.0, 0.0, 0.0, 0.0, 1.7297111087255824E9, 0.0, 2024-10-24 00:48:28.725
159.0, -46608.773959728955, -49234.20986344932, -43579.0844057899, -53581.98178791783, -54057.26928201548, -47004.042208676605, 23019.234599975898, 48822.93776547167, 0.116, 0.964, 0.168, 192.0, 3.0, 160.0, 30.0, 32.0, 5.0, 64.0, 0.0, 0.0, 0.0, 1.7297111087296095E9, 0.0, 2024-10-24 00:48:28.729
160.0, -46611.9032039527, -49247.6209101225, -43597.05520833197, -53602.47833758335, -54092.495631277045, -47034.57469160255, 23263.762684316956, 49082.55327732006, 0.116, 0.964, 0.168, 192.0, 0.0, 0.0, 0.0, 0.0, 0.0, 0.0, 0.0, 0.0, 0.0, 1.72971110873267E9, 0.0, 2024-10-24 00:48:28.732
161.0, -46625.29189888143, -49254.639357881475, -43609.63924046031, -53616.358770890096, -54112.366332097816, -47048.9021597984, 23555.631763414356, 49383.72068211087, 0.116, 0.964, 0.168, 192.0, 0.0, 0.0, 0.0, 0.0, 0.0, 0.0, 0.0, 0.0, 0.0, 1.7297111087365773E9, 0.0, 2024-10-24 00:48:28.736
162.0, -46646.50370436951, -49241.474180397294, -43607.716990437155, -53604.15471841749, -54100.408148814226, -47030.64078457842, 23475.679573497724, 49278.28750351519, 0.116, 0.964, 0.168, 192.0, 0.0, 0.0, 0.0, 0.0, 0.0, 0.0, 0.0, 0.0, 0.0, 1.7297111087406104E9, 0.0, 2024-10-24 00:48:28.740
163.0, -46623.32494536936, -49213.109816683515, -43582.90655409176, -53576.013872148265, -54075.262436302, -47000.35417084148, 23165.951450580535, 48941.17849364025, 0.116, 0.964, 0.168, 192.0, 0.0, 0.0, 0.0, 0.0, 0.0, 0.0, 0.0, 0.0, 0.0, 1.7297111087450516E9, 0.0, 2024-10-24 00:48:28.745
164.0, -46595.98876190052, -49196.88245020896, -43562.74528059307, -53565.93323539892, -54053.53654069144, -46987.479566035225, 23003.051936990254, 48766.79018339994, 0.116, 0.964, 0.168, 192.0, 0.0, 0.0, 0.0, 0.0, 0.0, 0.0, 0.0, 0.0, 0.0, 1.7297111087496915E9, 0.0, 2024-10-24 00:48:28.749
165.0, -46596.10052062279, -49215.8143777626, -43580.00082731257, -53591.41422407797, -54093.59086675535, -47017.609717560976, 23229.74332925598, 49009.17250027329, 0.116, 0.964, 0.168, 192.0, 0.0, 0.0, 0.0, 0.0, 0.0, 0.0, 0.0, 0.0, 0.0, 1.729711108753635E9, 0.0, 2024-10-24 00:48:28.753
166.0, -46622.207358146596, -49243.21761646481, -43608.700467193186, -53617.118730201575, -54124.99506771506, -47046.331709186044, 23507.910789002275, 49298.35937003605, 0.116, 0.964, 0.168, 192.0, 0.0, 0.0, 0.0, 0.0, 0.0, 0.0, 0.0, 0.0, 0.0, 1.7297111087566693E9, 0.0, 2024-10-24 00:48:28.756
167.0, -46640.871064766776, -49243.664651353916, -43599.111568821856, -53601.42780559395, -54082.10207010533, -47014.86045299297, 23432.943038099176, 49198.38001708747, 0.116, 0.964, 0.168, 192.0, 0.0, 0.0, 0.0, 0.0, 0.0, 0.0, 0.0, 0.0, 0.0, 1.7297111087617471E9, 0.0, 2024-10-24 00:48:28.761
168.0, -46617.938174955634, -49222.206976676825, -43567.439146928686, -53580.350110572595, -54046.763962121484, -46993.58159227152, 23151.668685873592, 48887.51195520305, 0.116, 0.964, 0.168, 192.0, 0.0, 0.0, 0.0, 0.0, 0.0, 0.0, 0.0, 0.0, 0.0, 1.7297111087656293E9, 0.0, 2024-10-24 00:48:28.765
169.0, -46594.75941595548, -49209.17590965938, -43552.79875431046, -53575.388023303516, -54051.99427032403, -46988.97713291373, 22986.35518388214, 48710.88847051722, 0.12, 0.966, 0.166, 192.0, 3.0, 192.0, 30.0, 48.0, 5.0, 48.0, 0.0, 0.0, 0.0, 1.729711108769699E9, 0.0, 2024-10-24 00:48:28.769
170.0, -46598.67097123516, -49228.286651168666, -43569.20493474066, -53601.316046871674, -54089.701663220134, -47022.90708099688, 23218.79097447288, 48959.93160723825, 0.12, 0.966, 0.166, 192.0, 0.0, 0.0, 0.0, 0.0, 0.0, 0.0, 0.0, 0.0, 0.0, 1.729711108772722E9, 0.0, 2024-10-24 00:48:28.772
171.0, -46619.45809357859, -49250.75015434625, -43588.986228583606, -53627.08760822864, -54114.66856177671, -47057.373470946965, 23509.60952158088, 49262.70833762984, 0.12, 0.966, 0.166, 192.0, 0.0, 0.0, 0.0, 0.0, 0.0, 0.0, 0.0, 0.0, 0.0, 1.7297111087766774E9, 0.0, 2024-10-24 00:48:28.776
172.0, -46635.66310830869, -49242.99409902026, -43583.15242328077, -53609.27326789776, -54086.415956785204, -47028.56207234407, 23420.895447837764, 49149.429696730345, 0.12, 0.966, 0.166, 192.0, 0.0, 0.0, 0.0, 0.0, 0.0, 0.0, 0.0, 0.0, 0.0, 1.7297111087806935E9, 0.0, 2024-10-24 00:48:28.780
173.0, -46618.139340655725, -49222.36343888801, -43564.89104806078, -53589.17904963244, -54067.57343620938, -47002.38817958691, 23130.76980480788, 48832.21373942062, 0.12, 0.966, 0.166, 192.0, 0.0, 0.0, 0.0, 0.0, 0.0, 0.0, 0.0, 0.0, 0.0, 1.729711108784726E9, 0.0, 2024-10-24 00:48:28.784
174.0, -46590.6466949757, -49206.15842415791, -43549.200123453156, -53581.35593907308, -54061.06907857288, -46991.72639748173, 22983.382401869585, 48674.92451368863, 0.12, 0.966, 0.166, 192.0, 0.0, 0.0, 0.0, 0.0, 0.0, 0.0, 0.0, 0.0, 0.0, 1.729711108788679E9, 0.0, 2024-10-24 00:48:28.788
175.0, -46599.341523568815, -49224.97859298928, -43567.61796088433, -53608.312142886185, -54089.52284926449, -47031.33368865654, 23216.578151771802, 48924.48174053213, 0.12, 0.966, 0.166, 192.0, 0.0, 0.0, 0.0, 0.0, 0.0, 0.0, 0.0, 0.0, 0.0, 1.7297111087936907E9, 0.0, 2024-10-24 00:48:28.793
176.0, -46617.11116041079, -49242.547064131155, -43586.19226052669, -53625.165358205486, -54110.68995126367, -47054.98183429025, 23482.18393113422, 49199.94463919933, 0.12, 0.966, 0.166, 192.0, 0.0, 0.0, 0.0, 0.0, 0.0, 0.0, 0.0, 0.0, 0.0, 1.7297111087976828E9, 0.0, 2024-10-24 00:48:28.797
177.0, -46634.38905887474, -49238.30023268464, -43580.313751734946, -53610.03322720924, -54091.22158184309, -47033.92649101335, 23385.043249731454, 49076.87593422842, 0.12, 0.966, 0.166, 192.0, 0.0, 0.0, 0.0, 0.0, 0.0, 0.0, 0.0, 0.0, 0.0, 1.7297111088006692E9, 0.0, 2024-10-24 00:48:28.800
178.0, -46622.475579080055, -49223.27986041068, -43566.81329808394, -53593.98467469033, -54077.20703806962, -47014.793397759604, 23113.20133366601, 48776.379081771265, 0.12, 0.966, 0.166, 192.0, 0.0, 0.0, 0.0, 0.0, 0.0, 0.0, 0.0, 0.0, 0.0, 1.729711108804684E9, 0.0, 2024-10-24 00:48:28.804
179.0, -46598.447453790606, -49213.48979633925, -43557.49262064608, -53590.65426476649, -54077.877590403274, -47014.07814193704, 22968.719657506903, 48622.73319038549, 0.11800000000000001, 0.966, 0.168, 192.0, 3.0, 176.0, 30.0, 48.0, 5.0, 64.0, 0.0, 0.0, 0.0, 1.7297111088086624E9, 0.0, 2024-10-24 00:48:28.808
180.0, -46594.513546766466, -49224.55390984463, -43565.24867597207, -53608.289791141724, -54097.34595982385, -47036.69810732581, 23175.741514651956, 48846.69766982766, 0.11800000000000001, 0.966, 0.168, 192.0, 0.0, 0.0, 0.0, 0.0, 0.0, 0.0, 0.0, 0.0, 0.0, 1.7297111088147464E9, 0.0, 2024-10-24 00:48:28.814
181.0, -46613.244308620015, -49242.480008897786, -43583.64416165878, -53625.38887565004, -54113.886250720774, -47056.09942151301, 23432.697168910167, 49113.17516722383, 0.11800000000000001, 0.966, 0.168, 192.0, 0.0, 0.0, 0.0, 0.0, 0.0, 0.0, 0.0, 0.0, 0.0, 1.7297111088187397E9, 0.0, 2024-10-24 00:48:28.818
182.0, -46632.93619548514, -49241.69769784185, -43584.60528667036, -53610.94964873191, -54098.84352670235, -47031.35604040099, 23348.185223124652, 49003.04812229254, 0.11800000000000001, 0.966, 0.168, 192.0, 0.0, 0.0, 0.0, 0.0, 0.0, 0.0, 0.0, 0.0, 0.0, 1.7297111088216958E9, 0.0, 2024-10-24 00:48:28.821
183.0, -46614.27248886496, -49219.45771210882, -43560.3312921919, -53583.45700305188, -54070.546218221934, -47001.96349644226, 23055.980867860424, 48683.77580449293, 0.11800000000000001, 0.966, 0.168, 192.0, 0.0, 0.0, 0.0, 0.0, 0.0, 0.0, 0.0, 0.0, 0.0, 1.7297111088257322E9, 0.0, 2024-10-24 00:48:28.825
184.0, -46585.88577340672, -49201.12928165547, -43541.10879196034, -53571.78939244621, -54056.44226747064, -47000.98001968623, 22896.52352291626, 48513.388456510125, 0.11800000000000001, 0.966, 0.168, 192.0, 0.0, 0.0, 0.0, 0.0, 0.0, 0.0, 0.0, 0.0, 0.0, 1.7297111088288832E9, 0.0, 2024-10-24 00:48:28.828
185.0, -46591.294895564904, -49216.90961324092, -43560.465402658636, -53594.543468301716, -54086.39360504074, -47036.6534038369, 23124.891296016132, 48758.67650016266, 0.11800000000000001, 0.966, 0.168, 192.0, 0.0, 0.0, 0.0, 0.0, 0.0, 0.0, 0.0, 0.0, 0.0, 1.729711108832756E9, 0.0, 2024-10-24 00:48:28.832
186.0, -46610.91972719666, -49234.38867740497, -43577.87741158932, -53609.340323131124, -54103.13506163777, -47036.2510724367, 23379.879996762276, 49024.66225918082, 0.11800000000000001, 0.966, 0.168, 192.0, 0.0, 0.0, 0.0, 0.0, 0.0, 0.0, 0.0, 0.0, 0.0, 1.7297111088367565E9, 0.0, 2024-10-24 00:48:28.836
187.0, -46631.930366984656, -49241.764753075215, -43578.279742989514, -53602.858317239086, -54089.075814375385, -47016.38037161593, 23296.440934710616, 48915.496339261095, 0.11800000000000001, 0.966, 0.168, 192.0, 0.0, 0.0, 0.0, 0.0, 0.0, 0.0, 0.0, 0.0, 0.0, 1.729711108840726E9, 0.0, 2024-10-24 00:48:28.840
188.0, -46619.23457613404, -49227.236119179266, -43558.54315263547, -53587.122689142554, -54063.93010186316, -47004.466891821256, 23020.910980810044, 48612.56314665832, 0.11800000000000001, 0.966, 0.168, 192.0, 0.0, 0.0, 0.0, 0.0, 0.0, 0.0, 0.0, 0.0, 0.0, 1.7297111088449006E9, 0.0, 2024-10-24 00:48:28.844
189.0, -46595.54172701141, -49214.87560449548, -43541.578178593896, -53582.54058152921, -54061.65022392872, -47001.91879295335, 22877.882168040534, 48460.72774657342, 0.112, 0.966, 0.17, 192.0, 3.0, 128.0, 30.0, 48.0, 5.0, 80.0, 0.0, 0.0, 0.0, 1.7297111088497975E9, 0.0, 2024-10-24 00:48:28.849
190.0, -46597.64279099021, -49226.23029067878, -43554.229265955604, -53601.51721257177, -54090.93100916517, -47019.37550537295, 23100.259673626384, 48701.18781342362, 0.112, 0.966, 0.17, 192.0, 0.0, 0.0, 0.0, 0.0, 0.0, 0.0, 0.0, 0.0, 0.0, 1.7297111088527424E9, 0.0, 2024-10-24 00:48:28.852
191.0, -46618.74283775602, -49246.30215719964, -43576.35749296636, -53622.907832015495, -54119.965925212615, -47042.86718879547, 23377.041325216454, 48988.94417154124, 0.112, 0.966, 0.17, 192.0, 0.0, 0.0, 0.0, 0.0, 0.0, 0.0, 0.0, 0.0, 0.0, 1.7297111088567677E9, 0.0, 2024-10-24 00:48:28.856
192.0, -46635.216073419586, -49241.60829086403, -43570.38957719679, -53609.40737836449, -54092.920314421695, -47026.483360109734, 23272.770437332445, 48859.77344033402, 0.112, 0.966, 0.17, 192.0, 0.0, 0.0, 0.0, 0.0, 0.0, 0.0, 0.0, 0.0, 0.0, 1.7297111088607712E9, 0.0, 2024-10-24 00:48:28.860
193.0, -46617.78171274444, -49221.87170050999, -43548.775440308505, -53593.09060491212, -54066.09822107533, -47010.39010410191, 22970.73131450788, 48530.84516892972, 0.112, 0.966, 0.17, 192.0, 0.0, 0.0, 0.0, 0.0, 0.0, 0.0, 0.0, 0.0, 0.0, 1.7297111088647697E9, 0.0, 2024-10-24 00:48:28.864
194.0, -46595.54172701141, -49212.46161609431, -43539.32065240391, -53592.33064560064, -54075.21773281309, -47004.10926390997, 22836.777309987225, 48387.682245693475, 0.112, 0.966, 0.17, 192.0, 0.0, 0.0, 0.0, 0.0, 0.0, 0.0, 0.0, 0.0, 0.0, 1.729711108868816E9, 0.0, 2024-10-24 00:48:28.868
195.0, -46600.28029683594, -49229.00190699124, -43554.229265955604, -53615.308238900696, -54107.85127971784, -47035.714630569775, 23086.24512985291, 48655.67966171261, 0.112, 0.966, 0.17, 192.0, 0.0, 0.0, 0.0, 0.0, 0.0, 0.0, 0.0, 0.0, 0.0, 1.729711108872785E9, 0.0, 2024-10-24 00:48:28.872
196.0, -46617.69230576662, -49241.72004958631, -43567.930885306705, -53629.2557274408, -54129.30895439493, -47053.28310171165, 23359.33874360785, 48938.58569128343, 0.112, 0.966, 0.17, 192.0, 0.0, 0.0, 0.0, 0.0, 0.0, 0.0, 0.0, 0.0, 0.0, 1.7297111088779078E9, 0.0, 2024-10-24 00:48:28.877
197.0, -46632.35505012931, -49237.04853499515, -43553.20108571066, -53614.14594818902, -54088.159392852715, -47032.138351456924, 23268.076570996833, 48820.74729451505, 0.112, 0.966, 0.17, 192.0, 0.0, 0.0, 0.0, 0.0, 0.0, 0.0, 0.0, 0.0, 0.0, 1.7297111088808124E9, 0.0, 2024-10-24 00:48:28.880
198.0, -46613.08784640883, -49215.1661771734, -43525.283756885976, -53592.442404322916, -54062.70075591812, -47006.7467697557, 22956.649715501037, 48481.00077879438, 0.112, 0.966, 0.17, 192.0, 0.0, 0.0, 0.0, 0.0, 0.0, 0.0, 0.0, 0.0, 0.0, 1.729711108884834E9, 0.0, 2024-10-24 00:48:28.884
199.0, -46588.143299596704, -49204.81731949059, -43511.69389625715, -53591.593038033614, -54071.70850893361, -47009.31722036806, 22803.383803770997, 48317.8553960151, 0.114, 0.96, 0.17200000000000001, 192.0, 3.0, 144.0, 30.0, 0.0, 5.0, 96.0, 0.0, 0.0, 0.0, 1.7297111088887744E9, 0.0, 2024-10-24 00:48:28.888
200.0, -46597.88866017922, -49228.420761635396, -43527.85420749834, -53620.538547103235, -54101.88336394828, -47048.67864235385, 23043.106263054164, 48576.152154940624, 0.114, 0.96, 0.17200000000000001, 192.0, 0.0, 0.0, 0.0, 0.0, 0.0, 0.0, 0.0, 0.0, 0.0, 1.7297111088927977E9, 0.0, 2024-10-24 00:48:28.892
201.0, -46618.67578252265, -49246.99506127776, -43542.11462046082, -53635.73773333285, -54118.356599611834, -47061.016805293184, 23311.684824429136, 48857.87354205532, 0.114, 0.96, 0.17200000000000001, 192.0, 0.0, 0.0, 0.0, 0.0, 0.0, 0.0, 0.0, 0.0, 0.0, 1.7297111088968153E9, 0.0, 2024-10-24 00:48:28.896
202.0, -46641.13928570024, -49248.91731130092, -43541.309957660436, -53625.6570965835, -54105.32553259439, -47040.542607372125, 23232.82786999081, 48752.41801171518, 0.114, 0.96, 0.17200000000000001, 192.0, 0.0, 0.0, 0.0, 0.0, 0.0, 0.0, 0.0, 0.0, 0.0, 1.7297111089010084E9, 0.0, 2024-10-24 00:48:28.901
203.0, -46622.11795116877, -49225.067999967105, -43513.95142244714, -53600.8019567492, -54073.98838686805, -47017.96734547226, 22939.394168781542, 48431.29049912578, 0.114, 0.96, 0.17200000000000001, 192.0, 0.0, 0.0, 0.0, 0.0, 0.0, 0.0, 0.0, 0.0, 0.0, 1.7297111089049368E9, 0.0, 2024-10-24 00:48:28.904
204.0, -46591.87604092074, -49207.27601138068, -43493.18665184816, -53588.21792462086, -54069.361575765804, -47007.01499068916, 22768.112751020522, 48252.92357837243, 0.114, 0.96, 0.17200000000000001, 192.0, 0.0, 0.0, 0.0, 0.0, 0.0, 0.0, 0.0, 0.0, 0.0, 1.729711108908866E9, 0.0, 2024-10-24 00:48:28.908
205.0, -46602.02373290345, -49228.37605814649, -43516.65598352623, -53613.58715457763, -54108.9688669406, -47035.26759568067, 23003.65543409055, 48507.64405818511, 0.114, 0.96, 0.17200000000000001, 192.0, 0.0, 0.0, 0.0, 0.0, 0.0, 0.0, 0.0, 0.0, 0.0, 1.7297111089119112E9, 0.0, 2024-10-24 00:48:28.911
206.0, -46624.48723608103, -49248.067945011615, -43537.599568080856, -53633.27904144276, -54117.68604727818, -47063.74371811673, 23277.97839379053, 48793.299352323935, 0.114, 0.96, 0.17200000000000001, 192.0, 0.0, 0.0, 0.0, 0.0, 0.0, 0.0, 0.0, 0.0, 0.0, 1.7297111089169495E9, 0.0, 2024-10-24 00:48:28.916
207.0, -46645.56493110239, -49253.11943925851, -43537.62191982531, -53627.62405009557, -54108.298314606945, -47052.79136333363, 23191.901825893143, 48681.87590621423, 0.114, 0.96, 0.17200000000000001, 192.0, 0.0, 0.0, 0.0, 0.0, 0.0, 0.0, 0.0, 0.0, 0.0, 1.7297111089209E9, 0.0, 2024-10-24 00:48:28.920
208.0, -46621.17917790165, -49226.99024999026, -43510.263384612015, -53596.55512530269, -54075.932988635665, -47005.96445869976, 22886.57699663365, 48348.76785859679, 0.114, 0.96, 0.17200000000000001, 192.0, 0.0, 0.0, 0.0, 0.0, 0.0, 0.0, 0.0, 0.0, 0.0, 1.7297111089249353E9, 0.0, 2024-10-24 00:48:28.924
209.0, -46593.820642688355, -49210.76288351571, -43492.627858236774, -53584.28401759673, -54061.69492741763, -46991.05584514807, 22718.424823096375, 48171.20560064383, 0.11800000000000001, 0.962, 0.17200000000000001, 192.0, 3.0, 176.0, 30.0, 16.0, 5.0, 96.0, 0.0, 0.0, 0.0, 1.7297111089289508E9, 0.0, 2024-10-24 00:48:28.928
210.0, -46602.40371255919, -49235.28274718318, -43516.85714922633, -53615.73292204535, -54097.41301505721, -47035.53581661413, 22963.60110802664, 48434.956185216455, 0.11800000000000001, 0.962, 0.17200000000000001, 192.0, 0.0, 0.0, 0.0, 0.0, 0.0, 0.0, 0.0, 0.0, 0.0, 1.7297111089329839E9, 0.0, 2024-10-24 00:48:28.932
211.0, -46621.425047090655, -49258.059174783135, -43539.61122508183, -53639.15755023451, -54121.55289906894, -47061.32972971556, 23236.717073526037, 48719.56094736588, 0.11800000000000001, 0.962, 0.17200000000000001, 192.0, 0.0, 0.0, 0.0, 0.0, 0.0, 0.0, 0.0, 0.0, 0.0, 1.72971110893684E9, 0.0, 2024-10-24 00:48:28.936
212.0, -46633.53969258544, -49253.11943925851, -43534.2244546681, -53623.57838434916, -54102.46450930411, -47038.77681956015, 23121.315016903285, 48579.39315788665, 0.11800000000000001, 0.962, 0.17200000000000001, 192.0, 0.0, 0.0, 0.0, 0.0, 0.0, 0.0, 0.0, 0.0, 0.0, 1.7297111089399035E9, 0.0, 2024-10-24 00:48:28.939
213.0, -46613.02079117546, -49228.8677965245, -43507.93880318866, -53602.858317239086, -54074.43542175715, -47015.73217102673, 22816.75014695527, 48249.682575426414, 0.11800000000000001, 0.962, 0.17200000000000001, 192.0, 0.0, 0.0, 0.0, 0.0, 0.0, 0.0, 0.0, 0.0, 0.0, 1.7297111089449813E9, 0.0, 2024-10-24 00:48:28.944
214.0, -46598.11217762377, -49224.03981972216, -43500.36156181831, -53609.22856440885, -54073.98838686805, -47024.06937170856, 22688.74170645973, 48113.87337611597, 0.11800000000000001, 0.962, 0.17200000000000001, 192.0, 0.0, 0.0, 0.0, 0.0, 0.0, 0.0, 0.0, 0.0, 0.0, 1.7297111089490197E9, 0.0, 2024-10-24 00:48:28.949
215.0, -46602.336657325824, -49235.953299516834, -43513.70555325813, -53626.10413147261, -54096.87657319028, -47034.50763636919, 22927.16776456449, 48369.59968442914, 0.11800000000000001, 0.962, 0.17200000000000001, 192.0, 0.0, 0.0, 0.0, 0.0, 0.0, 0.0, 0.0, 0.0, 0.0, 1.7297111089528756E9, 0.0, 2024-10-24 00:48:28.952
216.0, -46621.357991857294, -49253.6782328699, -43525.30610863044, -53641.10215200212, -54108.27596286249, -47052.634901122445, 23195.612215472727, 48647.96830987553, 0.11800000000000001, 0.962, 0.17200000000000001, 192.0, 0.0, 0.0, 0.0, 0.0, 0.0, 0.0, 0.0, 0.0, 0.0, 1.7297111089568744E9, 0.0, 2024-10-24 00:48:28.956
217.0, -46637.585358331846, -49255.46637242632, -43520.36637310581, -53631.870881542076, -54094.50728827802, -47044.63297660744, 23118.498697101917, 48544.144456880626, 0.11800000000000001, 0.962, 0.17200000000000001, 192.0, 0.0, 0.0, 0.0, 0.0, 0.0, 0.0, 0.0, 0.0, 0.0, 1.7297111089609315E9, 0.0, 2024-10-24 00:48:28.960
218.0, -46613.31136385338, -49228.80074129114, -43494.013666393, -53605.94285797392, -54068.42280249868, -47015.7992262601, 22811.363376541543, 48210.20939471834, 0.11800000000000001, 0.962, 0.17200000000000001, 192.0, 0.0, 0.0, 0.0, 0.0, 0.0, 0.0, 0.0, 0.0, 0.0, 1.7297111089649532E9, 0.0, 2024-10-24 00:48:28.964
219.0, -46589.88673566422, -49217.848386508034, -43482.4131110207, -53600.64549453801, -54069.629796699264, -47004.802167988084, 22657.091636311012, 48047.0416601946, 0.11800000000000001, 0.962, 0.17200000000000001, 192.0, 0.0, 0.0, 0.0, 0.0, 0.0, 0.0, 0.0, 0.0, 0.0, 1.7297111089679909E9, 0.0, 2024-10-24 00:48:28.967
220.0, -46594.35708455528, -49230.588880847565, -43498.64047749525, -53621.05263722571, -54099.8717069473, -47037.77099105966, 22885.25824371079, 48293.62610502555, 0.11, 0.964, 0.164, 192.0, 3.0, 112.0, 30.0, 32.0, 5.0, 32.0, 0.0, 0.0, 0.0, 1.7297111089729831E9, 0.0, 2024-10-24 00:48:28.972
221.0, -46608.706904495586, -49238.88137804048, -43509.61518402281, -53628.585175107146, -54112.366332097816, -47050.355023188, 23140.403406668116, 48559.2095326435, 0.11, 0.964, 0.164, 192.0, 0.0, 0.0, 0.0, 0.0, 0.0, 0.0, 0.0, 0.0, 0.0, 1.729711108977005E9, 0.0, 2024-10-24 00:48:28.977
222.0, -46627.012983204484, -49236.71325882832, -43504.92131768719, -53615.62116332307, -54091.98154115457, -47033.680621824344, 23027.236524490898, 48419.5781850312, 0.11, 0.964, 0.164, 192.0, 0.0, 0.0, 0.0, 0.0, 0.0, 0.0, 0.0, 0.0, 0.0, 1.7297111089809582E9, 0.0, 2024-10-24 00:48:28.980
223.0, -46610.89737545221, -49218.22836616378, -43483.553049987924, -53596.30925611368, -54069.85331414382, -47015.083970437525, 22745.001047253736, 48111.21351852579, 0.11, 0.964, 0.164, 192.0, 0.0, 0.0, 0.0, 0.0, 0.0, 0.0, 0.0, 0.0, 0.0, 1.7297111089848952E9, 0.0, 2024-10-24 00:48:28.984
224.0, -46587.40569202968, -49204.83967123505, -43470.633741692756, -53588.08381415413, -54071.864971144794, -47007.68554302282, 22621.90999053836, 47982.422766974305, 0.11, 0.964, 0.164, 192.0, 0.0, 0.0, 0.0, 0.0, 0.0, 0.0, 0.0, 0.0, 0.0, 1.7297111089889743E9, 0.0, 2024-10-24 00:48:28.988
225.0, -46590.378474042234, -49219.41300861991, -43483.79891917693, -53604.82527075116, -54092.7191487216, -47028.04798222161, 22871.020182492757, 48251.87304638303, 0.11, 0.964, 0.164, 192.0, 0.0, 0.0, 0.0, 0.0, 0.0, 0.0, 0.0, 0.0, 0.0, 1.7297111089929395E9, 0.0, 2024-10-24 00:48:28.992
226.0, -46603.58835501532, -49234.008697749225, -43494.237183837555, -53616.11290170108, -54101.74925348154, -47043.98477601824, 23112.463726098984, 48506.45941572898, 0.11, 0.964, 0.164, 192.0, 0.0, 0.0, 0.0, 0.0, 0.0, 0.0, 0.0, 0.0, 0.0, 1.7297111089960165E9, 0.0, 2024-10-24 00:48:28.996
227.0, -46623.92844246965, -49234.008697749225, -43492.3149338144, -53603.193593405915, -54081.61033172731, -47022.52710134114, 22993.083058963188, 48363.1176785371, 0.11, 0.964, 0.164, 192.0, 0.0, 0.0, 0.0, 0.0, 0.0, 0.0, 0.0, 0.0, 0.0, 1.729711108999946E9, 0.0, 2024-10-24 00:48:28.999
228.0, -46611.59027953033, -49216.28376439617, -43477.965113874096, -53583.25583735178, -54061.98550009555, -46993.46983354924, 22693.81555245108, 48038.81621823504, 0.11, 0.964, 0.164, 192.0, 0.0, 0.0, 0.0, 0.0, 0.0, 0.0, 0.0, 0.0, 0.0, 1.7297111090049667E9, 0.0, 2024-10-24 00:48:29.004
229.0, -46588.12094785225, -49201.017522933194, -43468.59973294732, -53575.27626458124, -54057.38104073775, -46987.43486254631, 22565.583594510987, 47904.45988231419, 0.11, 0.964, 0.164, 192.0, 0.0, 0.0, 0.0, 0.0, 0.0, 0.0, 0.0, 0.0, 0.0, 1.7297111090090663E9, 0.0, 2024-10-24 00:48:29.009
230.0, -46584.81288967287, -49204.28087762366, -43479.909715641705, -53586.83211646463, -54072.87079964529, -47010.09953142399, 22794.778382155702, 48153.95005392433, 0.112, 0.962, 0.17200000000000001, 192.0, 3.0, 128.0, 30.0, 16.0, 5.0, 96.0, 0.0, 0.0, 0.0, 1.7297111090130198E9, 0.0, 2024-10-24 00:48:29.013
231.0, -46597.173404356654, -49218.98832547526, -43497.45583503912, -53605.04878819571, -54093.85908768882, -47039.626185849454, 23032.086853037697, 48404.468405779415, 0.112, 0.962, 0.17200000000000001, 192.0, 0.0, 0.0, 0.0, 0.0, 0.0, 0.0, 0.0, 0.0, 0.0, 1.729711109020026E9, 0.0, 2024-10-24 00:48:29.020
232.0, -46622.36382035778, -49218.764808030704, -43505.12248338729, -53594.76698574627, -54084.04667187294, -47012.781740758626, 22931.973389622377, 48279.522154274244, 0.112, 0.962, 0.17200000000000001, 192.0, 0.0, 0.0, 0.0, 0.0, 0.0, 0.0, 0.0, 0.0, 0.0, 1.729711109024062E9, 0.0, 2024-10-24 00:48:29.024
233.0, -46603.58835501532, -49194.7590344857, -43487.55401224542, -53572.07996512413, -54066.6123111978, -46984.953818911774, 22622.178211471823, 47942.54725486604, 0.112, 0.962, 0.17200000000000001, 192.0, 0.0, 0.0, 0.0, 0.0, 0.0, 0.0, 0.0, 0.0, 0.0, 1.7297111090271783E9, 0.0, 2024-10-24 00:48:29.027
234.0, -46586.37751178474, -49189.86400244999, -43490.124462857784, -53581.1994768619, -54089.74636670904, -47010.23364189072, 22469.49344509762, 47782.53111631049, 0.112, 0.962, 0.17200000000000001, 192.0, 0.0, 0.0, 0.0, 0.0, 0.0, 0.0, 0.0, 0.0, 0.0, 1.7297111090311255E9, 0.0, 2024-10-24 00:48:29.031
235.0, -46596.45814853408, -49211.299325382635, -43517.41594283771, -53613.207174921896, -54128.370181127815, -47053.461915667285, 22689.255796582198, 48020.33132557051, 0.112, 0.962, 0.17200000000000001, 192.0, 0.0, 0.0, 0.0, 0.0, 0.0, 0.0, 0.0, 0.0, 0.0, 1.729711109034366E9, 0.0, 2024-10-24 00:48:29.034
236.0, -46619.391038345224, -49234.54513961615, -43534.515027346024, -53634.21781470988, -54125.03977120397, -47070.02455830867, 22960.002477169335, 48304.623163297554, 0.112, 0.962, 0.17200000000000001, 192.0, 0.0, 0.0, 0.0, 0.0, 0.0, 0.0, 0.0, 0.0, 0.0, 1.7297111090370505E9, 0.0, 2024-10-24 00:48:29.037
237.0, -46633.53969258544, -49227.19141569036, -43524.81437025242, -53613.36363713308, -54092.69679697714, -47033.188883446324, 22843.57224030164, 48164.23185637377, 0.112, 0.962, 0.17200000000000001, 192.0, 0.0, 0.0, 0.0, 0.0, 0.0, 0.0, 0.0, 0.0, 0.0, 1.7297111090410874E9, 0.0, 2024-10-24 00:48:29.041
238.0, -46617.17821564415, -49208.37124685899, -43505.81538746541, -53592.934142700935, -54072.49081998954, -46996.979057428725, 22543.142443077857, 47837.851683837376, 0.112, 0.962, 0.17200000000000001, 192.0, 0.0, 0.0, 0.0, 0.0, 0.0, 0.0, 0.0, 0.0, 0.0, 1.7297111090451024E9, 0.0, 2024-10-24 00:48:29.045
239.0, -46597.06164563437, -49200.97281944428, -43498.014628650504, -53593.67175026795, -54072.423764756175, -46995.28032485012, 22400.38185124181, 47688.13969947573, 0.112, 0.962, 0.17200000000000001, 192.0, 0.0, 0.0, 0.0, 0.0, 0.0, 0.0, 0.0, 0.0, 0.0, 1.7297111090491564E9, 0.0, 2024-10-24 00:48:29.049
240.0, -46601.017904402965, -49214.94265972885, -43512.67737301318, -53615.442349367426, -54094.77550921148, -47023.912909497376, 22651.324886241542, 47956.830019572975, 0.116, 0.964, 0.168, 192.0, 3.0, 160.0, 30.0, 32.0, 5.0, 64.0, 0.0, 0.0, 0.0, 1.7297111090521903E9, 0.0, 2024-10-24 00:48:29.052
241.0, -46613.959564442586, -49227.75020930174, -43521.05927718393, -53626.39470415052, -54103.85031746034, -47043.22481670676, 22905.039537553734, 48224.55921465865, 0.116, 0.964, 0.168, 192.0, 0.0, 0.0, 0.0, 0.0, 0.0, 0.0, 0.0, 0.0, 0.0, 1.7297111090582044E9, 0.0, 2024-10-24 00:48:29.058
242.0, -46628.488198338535, -49227.303174412635, -43515.09136141436, -53614.391817378026, -54086.88534341876, -47029.34438340001, 22804.143763082477, 48100.59643990952, 0.116, 0.964, 0.168, 192.0, 0.0, 0.0, 0.0, 0.0, 0.0, 0.0, 0.0, 0.0, 0.0, 1.7297111090611312E9, 0.0, 2024-10-24 00:48:29.061
243.0, -46606.98582017253, -49200.19050838835, -43491.443215780644, -53585.93804668642, -54063.8630466298, -46999.72832199673, 22509.190143250245, 47780.18418314269, 0.116, 0.964, 0.168, 192.0, 0.0, 0.0, 0.0, 0.0, 0.0, 0.0, 0.0, 0.0, 0.0, 1.7297111090650864E9, 0.0, 2024-10-24 00:48:29.065
244.0, -46579.58258147032, -49181.14682211242, -43476.93693362915, -53573.37636630254, -54056.03993607044, -46991.458176548265, 22366.451903158653, 47630.18162610312, 0.116, 0.964, 0.168, 192.0, 0.0, 0.0, 0.0, 0.0, 0.0, 0.0, 0.0, 0.0, 0.0, 1.7297111090691082E9, 0.0, 2024-10-24 00:48:29.069
245.0, -46584.656427461676, -49199.51995605468, -43494.237183837555, -53600.51138407128, -54084.13607885076, -47031.13252295644, 22620.613589359953, 47904.50458580311, 0.116, 0.964, 0.168, 192.0, 0.0, 0.0, 0.0, 0.0, 0.0, 0.0, 0.0, 0.0, 0.0, 1.7297111090731175E9, 0.0, 2024-10-24 00:48:29.073
246.0, -46609.399808573704, -49221.491720854254, -43517.68416377118, -53621.32085815917, -54111.76283499752, -47060.50271517071, 22887.582825134137, 48185.75658628423, 0.116, 0.964, 0.168, 192.0, 0.0, 0.0, 0.0, 0.0, 0.0, 0.0, 0.0, 0.0, 0.0, 1.7297111090771525E9, 0.0, 2024-10-24 00:48:29.077
247.0, -46621.022715690466, -49214.33916262855, -43506.93297468817, -53601.316046871674, -54083.64434047274, -47032.78655204613, 22765.22937598579, 48040.02321243563, 0.116, 0.964, 0.168, 192.0, 0.0, 0.0, 0.0, 0.0, 0.0, 0.0, 0.0, 0.0, 0.0, 1.7297111090803306E9, 0.0, 2024-10-24 00:48:29.080
248.0, -46598.31334332387, -49187.29355183763, -43480.42380576418, -53570.78356394572, -54049.714392389586, -46995.503842294675, 22475.751933545107, 47725.645926671736, 0.116, 0.964, 0.168, 192.0, 0.0, 0.0, 0.0, 0.0, 0.0, 0.0, 0.0, 0.0, 0.0, 1.7297111090840948E9, 0.0, 2024-10-24 00:48:29.084
249.0, -46574.77695641243, -49176.36354879899, -43471.01372134849, -53565.55325574318, -54044.5064359315, -46991.54758352609, 22334.265391143013, 47578.72791036701, 0.116, 0.964, 0.168, 192.0, 0.0, 0.0, 0.0, 0.0, 0.0, 0.0, 0.0, 0.0, 0.0, 1.729711109089078E9, 0.0, 2024-10-24 00:48:29.089
250.0, -46582.13068033823, -49197.75416824272, -43490.70560821362, -53590.14017464402, -54077.542314236445, -47022.05771470758, 22573.339649836977, 47838.43282919322, 0.114, 0.962, 0.17400000000000002, 192.0, 3.0, 144.0, 30.0, 16.0, 5.0, 112.0, 0.0, 0.0, 0.0, 1.729711109093174E9, 0.0, 2024-10-24 00:48:29.093
251.0, -46604.21420386007, -49219.92709874238, -43511.448027068145, -53608.580363819645, -54104.56557328291, -47042.97894751775, 22833.71512099685, 48111.88407085944, 0.114, 0.962, 0.17400000000000002, 192.0, 0.0, 0.0, 0.0, 0.0, 0.0, 0.0, 0.0, 0.0, 0.0, 1.7297111090971196E9, 0.0, 2024-10-24 00:48:29.097
252.0, -46623.79433200292, -49221.60347957653, -43511.20215787914, -53598.00798869228, -54087.667654474695, -47022.37063912996, 22700.722241487772, 47954.594845127445, 0.114, 0.962, 0.17400000000000002, 192.0, 0.0, 0.0, 0.0, 0.0, 0.0, 0.0, 0.0, 0.0, 0.0, 1.7297111091011147E9, 0.0, 2024-10-24 00:48:29.101
253.0, -46612.484349308535, -49208.281839881165, -43491.89025066975, -53585.6474740085, -54053.08950580234, -47009.09370292351, 22402.974653598627, 47629.91340516966, 0.114, 0.962, 0.17400000000000002, 192.0, 0.0, 0.0, 0.0, 0.0, 0.0, 0.0, 0.0, 0.0, 0.0, 1.7297111091050975E9, 0.0, 2024-10-24 00:48:29.105
254.0, -46580.186078570616, -49187.71823498228, -43469.65026493672, -53571.47646802384, -54047.99330806653, -46994.09568239399, 22260.079951295847, 47480.87197314167, 0.114, 0.962, 0.17400000000000002, 192.0, 0.0, 0.0, 0.0, 0.0, 0.0, 0.0, 0.0, 0.0, 0.0, 1.7297111091080668E9, 0.0, 2024-10-24 00:48:29.108
255.0, -46586.93630539612, -49205.04083693515, -43486.972866889584, -53591.458927566884, -54077.34114853635, -47012.11118842497, 22488.604186606906, 47731.233862785564, 0.114, 0.962, 0.17400000000000002, 192.0, 0.0, 0.0, 0.0, 0.0, 0.0, 0.0, 0.0, 0.0, 0.0, 1.7297111091122346E9, 0.0, 2024-10-24 00:48:29.112
0.0, -46610.942078941116, -49228.73368605777, -43509.12344564479, -53612.24604991032, -54103.22446861559, -47033.3006421686, 22757.003934026234, 48011.301220810565, 0.114, 0.962, 0.17400000000000002, 192.0, 0.0, 0.0, 0.0, 0.0, 0.0, 0.0, 0.0, 0.0, 0.0, 1.729711109117134E9, 0.0, 2024-10-24 00:48:29.117
1.0, -46627.66118379369, -49230.87945352548, -43501.41209380771, -53603.86414573958, -54080.962131138105, -47023.95761298628, 22648.754435629184, 47876.587256978426, 0.114, 0.962, 0.17400000000000002, 192.0, 0.0, 0.0, 0.0, 0.0, 0.0, 0.0, 0.0, 0.0, 0.0, 1.729711109121137E9, 0.0, 2024-10-24 00:48:29.121
2.0, -46618.40756158919, -49214.65208705093, -43488.64924772373, -53594.02937817924, -54063.39365999623, -47019.06258095057, 22342.46848135811, 47544.97677623949, 0.114, 0.962, 0.17400000000000002, 192.0, 0.0, 0.0, 0.0, 0.0, 0.0, 0.0, 0.0, 0.0, 0.0, 1.7297111091261153E9, 0.0, 2024-10-24 00:48:29.126
3.0, -46595.58643050033, -49198.558831043105, -43477.49572724053, -53585.446308308405, -54062.07490707337, -46998.07429290704, 22196.735107509507, 47392.64963777657, 0.114, 0.962, 0.17400000000000002, 192.0, 0.0, 0.0, 0.0, 0.0, 0.0, 0.0, 0.0, 0.0, 0.0, 1.7297111091302412E9, 0.0, 2024-10-24 00:48:29.130
4.0, -46599.967372413565, -49213.534499828165, -43489.83389017986, -53603.86414573958, -54088.85229693083, -47009.09370292351, 22433.10480512438, 47650.05232692389, 0.112, 0.964, 0.17200000000000001, 192.0, 3.0, 128.0, 30.0, 32.0, 5.0, 96.0, 0.0, 0.0, 0.0, 1.7297111091331928E9, 0.0, 2024-10-24 00:48:29.133
5.0, -46625.56011981489, -49238.903729784935, -43511.04569566795, -53627.91462277349, -54109.482957063075, -47036.92162477036, 22714.20034339432, 47944.55891186702, 0.112, 0.964, 0.17200000000000001, 192.0, 0.0, 0.0, 0.0, 0.0, 0.0, 0.0, 0.0, 0.0, 0.0, 1.7297111091371205E9, 0.0, 2024-10-24 00:48:29.137
6.0, -46649.92352127117, -49241.25066295274, -43510.77747473449, -53620.404436636505, -54092.80855569942, -47025.87986300944, 22606.397879886375, 47812.46010213615, 0.112, 0.964, 0.17200000000000001, 192.0, 0.0, 0.0, 0.0, 0.0, 0.0, 0.0, 0.0, 0.0, 0.0, 1.7297111091401613E9, 0.0, 2024-10-24 00:48:29.140
7.0, -46628.33173612735, -49212.28280213867, -43485.98939013355, -53596.286904369226, -54062.32077626238, -47005.517423810656, 22283.102248084815, 47467.14800204611, 0.112, 0.964, 0.17200000000000001, 192.0, 0.0, 0.0, 0.0, 0.0, 0.0, 0.0, 0.0, 0.0, 0.0, 1.7297111091442983E9, 0.0, 2024-10-24 00:48:29.144
8.0, -46605.51060503848, -49200.88341246646, -43475.014683605994, -53592.643570023014, -54059.906787861204, -47004.19867088779, 22128.38347296518, 47307.95887803542, 0.112, 0.964, 0.17200000000000001, 192.0, 0.0, 0.0, 0.0, 0.0, 0.0, 0.0, 0.0, 0.0, 0.0, 1.729711109149218E9, 0.0, 2024-10-24 00:48:29.149
9.0, -46615.7030005101, -49221.916403998905, -43498.595774006346, -53621.07498897016, -54097.86004994632, -47036.966328259274, 22377.80658934195, 47578.30322722236, 0.112, 0.964, 0.17200000000000001, 192.0, 0.0, 0.0, 0.0, 0.0, 0.0, 0.0, 0.0, 0.0, 0.0, 1.7297111091532848E9, 0.0, 2024-10-24 00:48:29.153
10.0, -46636.42306762017, -49237.96495651781, -43518.66764052721, -53639.58223337916, -54120.41296010172, -47064.302511728114, 22642.63005764843, 47857.2977015135, 0.112, 0.964, 0.17200000000000001, 192.0, 0.0, 0.0, 0.0, 0.0, 0.0, 0.0, 0.0, 0.0, 0.0, 1.729711109157182E9, 0.0, 2024-10-24 00:48:29.157
11.0, -46649.96822476009, -49232.041744237154, -43512.006820679526, -53621.52202385927, -54096.675407490184, -47040.4532003943, 22549.043303614057, 47738.47582798908, 0.112, 0.964, 0.17200000000000001, 192.0, 0.0, 0.0, 0.0, 0.0, 0.0, 0.0, 0.0, 0.0, 0.0, 1.7297111091601608E9, 0.0, 2024-10-24 00:48:29.160
12.0, -46626.02950644845, -49202.470386322784, -43486.637590722756, -53591.48127931134, -54068.82513389888, -47009.63014479043, 22244.36667494377, 47407.60295481717, 0.112, 0.964, 0.17200000000000001, 192.0, 0.0, 0.0, 0.0, 0.0, 0.0, 0.0, 0.0, 0.0, 0.0, 1.7297111091641984E9, 0.0, 2024-10-24 00:48:29.164
13.0, -46599.27446833545, -49185.416005303385, -43471.103128326315, -53582.74174722931, -54058.4092209827, -47009.80895874607, 22097.00162374993, 47256.3039965992, 0.112, 0.964, 0.17200000000000001, 192.0, 0.0, 0.0, 0.0, 0.0, 0.0, 0.0, 0.0, 0.0, 0.0, 1.7297111091682205E9, 0.0, 2024-10-24 00:48:29.168
14.0, -46611.81379697488, -49202.93977295635, -43496.204137349625, -53604.57940156214, -54095.781337711975, -47033.65827007989, 22333.036045197972, 47515.74069449195, 0.10400000000000001, 0.962, 0.168, 192.0, 3.0, 64.0, 30.0, 16.0, 5.0, 64.0, 0.0, 0.0, 0.0, 1.7297111091722205E9, 0.0, 2024-10-24 00:48:29.172
15.0, -46626.72241052656, -49212.57337481659, -43509.5704805339, -53611.03905570973, -54112.99218094256, -47042.86718879547, 22578.301737106056, 47774.5291917955, 0.10400000000000001, 0.962, 0.168, 192.0, 0.0, 0.0, 0.0, 0.0, 0.0, 0.0, 0.0, 0.0, 0.0, 1.7297111091782148E9, 0.0, 2024-10-24 00:48:29.178
16.0, -46637.004212976004, -49206.337238113556, -43497.85816643932, -53595.70575901339, -54092.27211383249, -47024.02466821965, 22462.117369427368, 47631.81330344836, 0.10400000000000001, 0.962, 0.168, 192.0, 0.0, 0.0, 0.0, 0.0, 0.0, 0.0, 0.0, 0.0, 0.0, 1.7297111091812453E9, 0.0, 2024-10-24 00:48:29.181
17.0, -46624.66605003668, -49193.462633307296, -43481.04965460893, -53584.7981077192, -54070.36740426629, -47011.15006341339, 22181.848845702272, 47326.08614278867, 0.10400000000000001, 0.962, 0.168, 192.0, 0.0, 0.0, 0.0, 0.0, 0.0, 0.0, 0.0, 0.0, 0.0, 1.7297111091852093E9, 0.0, 2024-10-24 00:48:29.185
18.0, -46593.84299443281, -49177.68230172185, -43461.00013983252, -53575.83505819262, -54048.663860400186, -46997.91783069585, 22052.655762750597, 47190.567516156145, 0.10400000000000001, 0.962, 0.168, 192.0, 0.0, 0.0, 0.0, 0.0, 0.0, 0.0, 0.0, 0.0, 0.0, 1.7297111091882565E9, 0.0, 2024-10-24 00:48:29.188
19.0, -46597.21810784556, -49193.99907517422, -43472.04190159344, -53597.06921542517, -54073.87662814577, -47021.40951411838, 22278.162512560193, 47435.92261504205, 0.10400000000000001, 0.962, 0.168, 192.0, 0.0, 0.0, 0.0, 0.0, 0.0, 0.0, 0.0, 0.0, 0.0, 1.7297111091922345E9, 0.0, 2024-10-24 00:48:29.192
20.0, -46623.257890135996, -49218.02720046368, -43496.628820494276, -53622.013762237286, -54104.47616630509, -47052.09845925552, 22534.447614484743, 47705.037618283946, 0.10400000000000001, 0.962, 0.168, 192.0, 0.0, 0.0, 0.0, 0.0, 0.0, 0.0, 0.0, 0.0, 0.0, 1.7297111091963356E9, 0.0, 2024-10-24 00:48:29.196
21.0, -46642.92742525666, -49218.340124886054, -43496.27119258299, -53612.156642932496, -54089.701663220134, -47028.383258388436, 22419.760813684563, 47566.50150614995, 0.10400000000000001, 0.962, 0.168, 192.0, 0.0, 0.0, 0.0, 0.0, 0.0, 0.0, 0.0, 0.0, 0.0, 1.7297111092002623E9, 0.0, 2024-10-24 00:48:29.200
22.0, -46620.9556604571, -49193.59674377403, -43470.49963122602, -53587.56972403166, -54058.67744191617, -46996.353208583976, 22111.239684967957, 47232.14176084301, 0.10400000000000001, 0.962, 0.168, 192.0, 0.0, 0.0, 0.0, 0.0, 0.0, 0.0, 0.0, 0.0, 0.0, 1.7297111092052557E9, 0.0, 2024-10-24 00:48:29.205
23.0, -46588.83620367482, -49176.72117671027, -43453.154677528706, -53579.009005905275, -54058.90095936072, -46990.94408642579, 21955.604488325655, 47069.73398563075, 0.10400000000000001, 0.962, 0.168, 192.0, 0.0, 0.0, 0.0, 0.0, 0.0, 0.0, 0.0, 0.0, 0.0, 1.7297111092092464E9, 0.0, 2024-10-24 00:48:29.209
24.0, -46599.07330263535, -49198.849403721026, -43474.120613827785, -53606.769872518766, -54093.70262547763, -47030.93135725634, 22175.47859853251, 47311.69161935945, 0.10200000000000001, 0.966, 0.176, 192.0, 3.0, 48.0, 30.0, 48.0, 5.0, 128.0, 0.0, 0.0, 0.0, 1.7297111092132783E9, 0.0, 2024-10-24 00:48:29.213
25.0, -46622.207358146596, -49225.000944733736, -43495.578288504876, -53629.68041058545, -54108.61123902932, -47055.2053517348, 22440.235011605622, 47590.730797139506, 0.10200000000000001, 0.966, 0.176, 192.0, 0.0, 0.0, 0.0, 0.0, 0.0, 0.0, 0.0, 0.0, 0.0, 1.7297111092163107E9, 0.0, 2024-10-24 00:48:29.216
26.0, -46639.686422310646, -49224.55390984463, -43493.410169292714, -53612.782491777245, -54085.61129398481, -47015.55335707109, 22309.723175731084, 47435.40852491958, 0.10200000000000001, 0.966, 0.176, 192.0, 0.0, 0.0, 0.0, 0.0, 0.0, 0.0, 0.0, 0.0, 0.0, 1.729711109220291E9, 0.0, 2024-10-24 00:48:29.220
27.0, -46618.83224473384, -49203.655028778914, -43474.59000046134, -53588.95553218789, -54057.22457852657, -46988.530098024625, 22009.44984071849, 47111.50939601772, 0.10200000000000001, 0.966, 0.176, 192.0, 0.0, 0.0, 0.0, 0.0, 0.0, 0.0, 0.0, 0.0, 0.0, 1.7297111092242813E9, 0.0, 2024-10-24 00:48:29.224
28.0, -46586.243401318, -49190.71336873929, -43458.96613108709, -53581.75827047328, -54049.96026157859, -46988.239525346704, 21862.66593488049, 46963.09381283448, 0.10200000000000001, 0.966, 0.176, 192.0, 0.0, 0.0, 0.0, 0.0, 0.0, 0.0, 0.0, 0.0, 0.0, 1.7297111092283115E9, 0.0, 2024-10-24 00:48:29.228
29.0, -46595.6981892226, -49210.71818002679, -43482.23429706506, -53604.400587606506, -54083.621988728286, -47018.21321466127, 22105.584693620767, 47228.34196428561, 0.10200000000000001, 0.966, 0.176, 192.0, 0.0, 0.0, 0.0, 0.0, 0.0, 0.0, 0.0, 0.0, 0.0, 1.7297111092323446E9, 0.0, 2024-10-24 00:48:29.232
30.0, -46617.938174955634, -49231.92998551488, -43507.04473341045, -53623.198404693416, -54102.911544193215, -47041.01199400568, 22377.13603700829, 47511.44915955653, 0.10200000000000001, 0.966, 0.176, 192.0, 0.0, 0.0, 0.0, 0.0, 0.0, 0.0, 0.0, 0.0, 0.0, 1.729711109237326E9, 0.0, 2024-10-24 00:48:29.237
31.0, -46629.248157650014, -49227.88431976847, -43502.84260545285, -53610.03322720924, -54083.554933494925, -47023.84585426401, 22250.960439558083, 47358.09384084867, 0.10200000000000001, 0.966, 0.176, 192.0, 0.0, 0.0, 0.0, 0.0, 0.0, 0.0, 0.0, 0.0, 0.0, 1.7297111092413125E9, 0.0, 2024-10-24 00:48:29.241
32.0, -46610.83032021884, -49201.24104037775, -43481.943724387136, -53578.807840205176, -54049.848502856315, -46980.50582176517, 21955.33626739219, 47036.11696196997, 0.10200000000000001, 0.966, 0.176, 192.0, 0.0, 0.0, 0.0, 0.0, 0.0, 0.0, 0.0, 0.0, 0.0, 1.7297111092443085E9, 0.0, 2024-10-24 00:48:29.244
33.0, -46581.571886726844, -49181.01271164569, -43466.8115933909, -53566.11204935456, -54042.33831671933, -46974.91788565134, 21812.68743427842, 46886.874364241885, 0.10200000000000001, 0.966, 0.176, 192.0, 0.0, 0.0, 0.0, 0.0, 0.0, 0.0, 0.0, 0.0, 0.0, 1.7297111092483325E9, 0.0, 2024-10-24 00:48:29.248
34.0, -46587.22687807404, -49201.64337177794, -43489.38685529076, -53593.71645375687, -54075.441250257645, -47015.240432648716, 22054.93564068504, 47149.730879036295, 0.10400000000000001, 0.9580000000000001, 0.17400000000000002, 192.0, 3.0, 64.0, 29.0, 240.0, 5.0, 112.0, 0.0, 0.0, 0.0, 1.7297111092524347E9, 0.0, 2024-10-24 00:48:29.252
35.0, -46609.57862252935, -49226.677325567885, -43516.27600387049, -53619.93505000294, -54104.49851804954, -47047.2034272198, 22327.403405595232, 47435.743801086406, 0.10400000000000001, 0.9580000000000001, 0.17400000000000002, 192.0, 0.0, 0.0, 0.0, 0.0, 0.0, 0.0, 0.0, 0.0, 0.0, 1.729711109256366E9, 0.0, 2024-10-24 00:48:29.256
36.0, -46626.76711401548, -49224.866834267006, -43514.800788736444, -53609.22856440885, -54087.533544007965, -47031.57955784554, 22209.00621521547, 47293.83257553966, 0.10400000000000001, 0.9580000000000001, 0.17400000000000002, 192.0, 0.0, 0.0, 0.0, 0.0, 0.0, 0.0, 0.0, 0.0, 0.0, 1.7297111092604644E9, 0.0, 2024-10-24 00:48:29.260
37.0, -46604.50477653799, -49196.43541531985, -43490.34798030234, -53579.83602045012, -54066.36644200879, -46995.168566127846, 21918.031205896285, 46977.73420545271, 0.10400000000000001, 0.9580000000000001, 0.17400000000000002, 192.0, 0.0, 0.0, 0.0, 0.0, 0.0, 0.0, 0.0, 0.0, 0.0, 1.7297111092654023E9, 0.0, 2024-10-24 00:48:29.265
38.0, -46566.39505224169, -49166.84170566103, -43464.9116951122, -53556.67961319442, -54041.7571713635, -46965.19487681328, 21777.774009439232, 46832.134942070836, 0.10400000000000001, 0.9580000000000001, 0.17400000000000002, 192.0, 0.0, 0.0, 0.0, 0.0, 0.0, 0.0, 0.0, 0.0, 0.0, 1.7297111092693963E9, 0.0, 2024-10-24 00:48:29.269
39.0, -46569.144316809696, -49183.71727272478, -43482.435462765156, -53582.07119489565, -54075.17302932418, -46998.946010940796, 22025.431338004037, 47100.579392979074, 0.10400000000000001, 0.9580000000000001, 0.17400000000000002, 192.0, 0.0, 0.0, 0.0, 0.0, 0.0, 0.0, 0.0, 0.0, 0.0, 1.7297111092724533E9, 0.0, 2024-10-24 00:48:29.272
40.0, -46585.95282864009, -49202.91742121189, -43499.914526929206, -53605.31700912917, -54102.151584881736, -47028.00327873269, 22294.971024390583, 47382.05491090476, 0.10400000000000001, 0.9580000000000001, 0.17400000000000002, 192.0, 0.0, 0.0, 0.0, 0.0, 0.0, 0.0, 0.0, 0.0, 0.0, 1.7297111092764292E9, 0.0, 2024-10-24 00:48:29.276
41.0, -46595.47467177804, -49196.03308391966, -43487.4646052676, -53590.766023488766, -54077.00587236952, -47012.781740758626, 22151.76339766543, 47211.756969899776, 0.10400000000000001, 0.9580000000000001, 0.17400000000000002, 192.0, 0.0, 0.0, 0.0, 0.0, 0.0, 0.0, 0.0, 0.0, 0.0, 1.7297111092803555E9, 0.0, 2024-10-24 00:48:29.280
42.0, -46573.815831400854, -49171.356758041, -43458.98848283154, -53566.492029010304, -54041.77952310795, -46990.38529281441, 21845.432739905445, 46877.95601820422, 0.10400000000000001, 0.9580000000000001, 0.17400000000000002, 192.0, 0.0, 0.0, 0.0, 0.0, 0.0, 0.0, 0.0, 0.0, 0.0, 1.72971110928448E9, 0.0, 2024-10-24 00:48:29.284
43.0, -46543.43981068609, -49154.43648748833, -43440.03420353344, -53558.44540100639, -54028.323772945856, -46984.93146716732, 21702.29216841366, 46730.50156003256, 0.10400000000000001, 0.9580000000000001, 0.17400000000000002, 192.0, 0.0, 0.0, 0.0, 0.0, 0.0, 0.0, 0.0, 0.0, 0.0, 1.729711109288386E9, 0.0, 2024-10-24 00:48:29.288
44.0, -46550.055927044865, -49172.80962143059, -43461.5589334439, -53582.093546640106, -54057.38104073775, -47009.16075815687, 21942.86399398613, 46994.16273762736, 0.11, 0.9580000000000001, 0.176, 192.0, 3.0, 112.0, 29.0, 240.0, 5.0, 128.0, 0.0, 0.0, 0.0, 1.729711109293455E9, 0.0, 2024-10-24 00:48:29.293
45.0, -46573.7934796564, -49200.50343281072, -43484.5141749995, -53607.66394229698, -54084.98544514006, -47036.38518290343, 22199.05968893286, 47263.52361005826, 0.11, 0.9580000000000001, 0.176, 192.0, 0.0, 0.0, 0.0, 0.0, 0.0, 0.0, 0.0, 0.0, 0.0, 1.7297111092974477E9, 0.0, 2024-10-24 00:48:29.297
46.0, -46600.16853811366, -49209.824110248584, -43490.616201235796, -53605.31700912917, -54074.256607801515, -47032.004240990194, 22096.889865027653, 47136.63275678549, 0.11, 0.9580000000000001, 0.176, 192.0, 0.0, 0.0, 0.0, 0.0, 0.0, 0.0, 0.0, 0.0, 0.0, 1.7297111093005044E9, 0.0, 2024-10-24 00:48:29.300
47.0, -46582.37654952724, -49187.62882800446, -43472.086605082346, -53578.383157060525, -54050.18377902315, -46999.81772897455, 21799.097573649597, 46813.38182847283, 0.11, 0.9580000000000001, 0.176, 192.0, 0.0, 0.0, 0.0, 0.0, 0.0, 0.0, 0.0, 0.0, 0.0, 1.7297111093043828E9, 0.0, 2024-10-24 00:48:29.304
48.0, -46555.509752691956, -49171.44616501882, -43458.69791015362, -53565.307386554174, -54047.4568661996, -46976.974246141224, 21664.33890632855, 46674.555143660924, 0.11, 0.9580000000000001, 0.176, 192.0, 0.0, 0.0, 0.0, 0.0, 0.0, 0.0, 0.0, 0.0, 0.0, 1.729711109308452E9, 0.0, 2024-10-24 00:48:29.308
49.0, -46558.52723819343, -49185.2595430922, -43472.779509160464, -53584.73105248583, -54073.00491011202, -47004.06456042106, 21890.695022427444, 46922.324230948005, 0.11, 0.9580000000000001, 0.176, 192.0, 0.0, 0.0, 0.0, 0.0, 0.0, 0.0, 0.0, 0.0, 0.0, 1.7297111093125E9, 0.0, 2024-10-24 00:48:29.312
50.0, -46583.91881989465, -49210.49466258224, -43497.813462950406, -53607.17220391896, -54098.307084835425, -47032.07129622356, 22156.81489191233, 47202.592754673096, 0.11, 0.9580000000000001, 0.176, 192.0, 0.0, 0.0, 0.0, 0.0, 0.0, 0.0, 0.0, 0.0, 0.0, 1.7297111093164444E9, 0.0, 2024-10-24 00:48:29.316
51.0, -46598.96154391307, -49208.86298523701, -43490.66090472471, -53591.34716884461, -54073.25077930102, -47008.378447100935, 22037.009541631884, 47058.11107851399, 0.11, 0.9580000000000001, 0.176, 192.0, 0.0, 0.0, 0.0, 0.0, 0.0, 0.0, 0.0, 0.0, 0.0, 1.729711109321514E9, 0.0, 2024-10-24 00:48:29.321
52.0, -46579.917857637156, -49188.008807660204, -43467.30333176891, -53567.22963657733, -54045.3558022208, -46980.10349036497, 21730.880049572, 46728.668716987224, 0.11, 0.9580000000000001, 0.176, 192.0, 0.0, 0.0, 0.0, 0.0, 0.0, 0.0, 0.0, 0.0, 0.0, 1.729711109325519E9, 0.0, 2024-10-24 00:48:29.325
53.0, -46552.156991023665, -49175.82710693206, -43453.95934032909, -53562.35695628607, -54043.8582353423, -46980.77404269863, 21593.32741419404, 46588.9479623971, 0.11, 0.9580000000000001, 0.176, 192.0, 0.0, 0.0, 0.0, 0.0, 0.0, 0.0, 0.0, 0.0, 0.0, 1.729711109328514E9, 0.0, 2024-10-24 00:48:29.328
54.0, -46549.11715377774, -49191.428624561864, -43462.67652066667, -53579.299578583195, -54060.15265705022, -47004.601002287985, 21825.115004195573, 46843.17670383176, 0.108, 0.96, 0.17, 192.0, 3.0, 96.0, 30.0, 0.0, 5.0, 80.0, 0.0, 0.0, 0.0, 1.7297111093325047E9, 0.0, 2024-10-24 00:48:29.332
55.0, -46570.75364241048, -49213.7133137838, -43478.76977667448, -53598.7008927704, -54078.235218314556, -47027.22096767676, 22088.95499574602, 47121.344163578055, 0.108, 0.96, 0.17, 192.0, 0.0, 0.0, 0.0, 0.0, 0.0, 0.0, 0.0, 0.0, 0.0, 1.7297111093365667E9, 0.0, 2024-10-24 00:48:29.336
56.0, -46588.38916878572, -49207.45482533632, -43475.014683605994, -53577.46673553786, -54065.38296525276, -46986.18316485681, 21952.229374912906, 46958.95874011025, 0.108, 0.96, 0.17, 192.0, 0.0, 0.0, 0.0, 0.0, 0.0, 0.0, 0.0, 0.0, 0.0, 1.729711109340442E9, 0.0, 2024-10-24 00:48:29.340
57.0, -46568.093784820296, -49182.33146456855, -43449.80191586041, -53548.1412468125, -54032.19062473663, -46949.05691731655, 21637.51681298218, 46621.13447441274, 0.108, 0.96, 0.17, 192.0, 0.0, 0.0, 0.0, 0.0, 0.0, 0.0, 0.0, 0.0, 0.0, 1.7297111093444812E9, 0.0, 2024-10-24 00:48:29.344
58.0, -46545.69733687608, -49176.54236275463, -43437.84373257682, -53550.778752658225, -54021.819415309365, -46964.4349175018, 21504.747450917657, 46486.644028025155, 0.108, 0.96, 0.17, 192.0, 0.0, 0.0, 0.0, 0.0, 0.0, 0.0, 0.0, 0.0, 0.0, 1.7297111093494737E9, 0.0, 2024-10-24 00:48:29.349
59.0, -46554.794496869385, -49195.273124608175, -43458.4073374757, -53580.10424138358, -54055.88347385925, -47006.5456040556, 21745.92277359042, 46748.20414164116, 0.108, 0.96, 0.17, 192.0, 0.0, 0.0, 0.0, 0.0, 0.0, 0.0, 0.0, 0.0, 0.0, 1.7297111093535848E9, 0.0, 2024-10-24 00:48:29.353
60.0, -46575.76043316846, -49210.76288351571, -43483.620105221285, -53599.17027940396, -54078.48108750357, -47023.197653674804, 22001.850247603685, 47015.01691520416, 0.108, 0.96, 0.17, 192.0, 0.0, 0.0, 0.0, 0.0, 0.0, 0.0, 0.0, 0.0, 0.0, 1.7297111093565853E9, 0.0, 2024-10-24 00:48:29.356
61.0, -46590.89256416471, -49205.95725845781, -43483.4636430101, -53584.93221818593, -54059.34799424982, -46983.97034215574, 21878.9156530995, 46864.32145408648, 0.108, 0.96, 0.17, 192.0, 0.0, 0.0, 0.0, 0.0, 0.0, 0.0, 0.0, 0.0, 0.0, 1.729711109360501E9, 0.0, 2024-10-24 00:48:29.360
62.0, -46562.30468300637, -49176.83293543255, -43453.46760195108, -53559.25006380679, -54025.44039791112, -46956.58945519799, 21553.384846852405, 46511.83444402629, 0.108, 0.96, 0.17, 192.0, 0.0, 0.0, 0.0, 0.0, 0.0, 0.0, 0.0, 0.0, 0.0, 1.7297111093644793E9, 0.0, 2024-10-24 00:48:29.364
63.0, -46529.7828948239, -49162.46076374779, -43434.960357542084, -53556.25493004977, -54025.93213628914, -46964.121993079425, 21410.691310249724, 46364.42468934354, 0.108, 0.96, 0.17, 192.0, 0.0, 0.0, 0.0, 0.0, 0.0, 0.0, 0.0, 0.0, 0.0, 1.7297111093684905E9, 0.0, 2024-10-24 00:48:29.368
64.0, -46538.45537167256, -49184.92426692537, -43457.26739850848, -53585.6474740085, -54062.2090175401, -47004.91392671036, 21670.597394776036, 46645.833152035855, 0.108, 0.9580000000000001, 0.17400000000000002, 192.0, 3.0, 96.0, 29.0, 240.0, 5.0, 112.0, 0.0, 0.0, 0.0, 1.7297111093725133E9, 0.0, 2024-10-24 00:48:29.372
65.0, -46556.31441549235, -49200.592839788544, -43473.85239289432, -53603.975904461855, -54079.151639837226, -47034.59704334701, 21916.064252384218, 46904.30872491703, 0.108, 0.9580000000000001, 0.17400000000000002, 192.0, 0.0, 0.0, 0.0, 0.0, 0.0, 0.0, 0.0, 0.0, 0.0, 1.7297111093764822E9, 0.0, 2024-10-24 00:48:29.376
66.0, -46578.420290758644, -49202.53744155615, -43478.97094237458, -53599.52790731525, -54075.17302932418, -47021.20834841828, 21793.263768346762, 46754.77555451102, 0.108, 0.9580000000000001, 0.17400000000000002, 192.0, 0.0, 0.0, 0.0, 0.0, 0.0, 0.0, 0.0, 0.0, 0.0, 1.729711109381611E9, 0.0, 2024-10-24 00:48:29.381
67.0, -46553.02870905742, -49176.22943833226, -43451.41124146119, -53571.47646802384, -54036.48215967204, -46983.34449331099, 21503.96513986172, 46439.54890245783, 0.108, 0.9580000000000001, 0.17400000000000002, 192.0, 0.0, 0.0, 0.0, 0.0, 0.0, 0.0, 0.0, 0.0, 0.0, 1.7297111093846316E9, 0.0, 2024-10-24 00:48:29.384
68.0, -46521.40099065316, -49161.38788001393, -43437.195531987614, -53565.70971795437, -54032.168272992174, -46984.28326657811, 21363.1938532822, 46296.40833096604, 0.108, 0.9580000000000001, 0.17400000000000002, 192.0, 0.0, 0.0, 0.0, 0.0, 0.0, 0.0, 0.0, 0.0, 0.0, 1.7297111093889124E9, 0.0, 2024-10-24 00:48:29.388
69.0, -46532.95684253655, -49185.438357047846, -43465.872820123775, -53595.50459331329, -54066.38879375325, -47022.281232152134, 21633.247629791218, 46592.971276399054, 0.108, 0.9580000000000001, 0.17400000000000002, 192.0, 0.0, 0.0, 0.0, 0.0, 0.0, 0.0, 0.0, 0.0, 0.0, 1.7297111093927486E9, 0.0, 2024-10-24 00:48:29.392
70.0, -46551.01705205644, -49205.51022356871, -43484.55887848841, -53612.82719526615, -54083.15260209473, -47045.59410161902, 21891.43262999447, 46867.22718086567, 0.108, 0.9580000000000001, 0.17400000000000002, 192.0, 0.0, 0.0, 0.0, 0.0, 0.0, 0.0, 0.0, 0.0, 0.0, 1.7297111093965323E9, 0.0, 2024-10-24 00:48:29.396
71.0, -46563.01993882894, -49198.134147898454, -43477.5627824739, -53591.41422407797, -54057.87277911577, -47005.651534277386, 21745.609849168046, 46696.21398403811, 0.108, 0.9580000000000001, 0.17400000000000002, 192.0, 0.0, 0.0, 0.0, 0.0, 0.0, 0.0, 0.0, 0.0, 0.0, 1.7297111094008095E9, 0.0, 2024-10-24 00:48:29.400
72.0, -46545.25030198697, -49177.72700521076, -43458.69791015362, -53568.660148222465, -54032.74941834801, -46981.26578107665, 21449.04690373503, 46376.15935518257, 0.108, 0.9580000000000001, 0.17400000000000002, 192.0, 0.0, 0.0, 0.0, 0.0, 0.0, 0.0, 0.0, 0.0, 0.0, 1.7297111094046552E9, 0.0, 2024-10-24 00:48:29.404
73.0, -46520.059885985844, -49164.450069004306, -43453.71347114009, -53563.36278478656, -54050.049668556414, -46982.49512702169, 21311.65073056826, 46236.662118037006, 0.108, 0.9580000000000001, 0.17400000000000002, 192.0, 0.0, 0.0, 0.0, 0.0, 0.0, 0.0, 0.0, 0.0, 0.0, 1.729711109409561E9, 0.0, 2024-10-24 00:48:29.409
74.0, -46531.459275658046, -49181.52680176817, -43474.388834761245, -53583.88168619653, -54088.96405565311, -47007.28321162263, 21541.247849613173, 46490.01914143791, 0.112, 0.9580000000000001, 0.17200000000000001, 192.0, 3.0, 128.0, 29.0, 240.0, 5.0, 96.0, 0.0, 0.0, 0.0, 1.729711109412536E9, 0.0, 2024-10-24 00:48:29.412
75.0, -46554.59333116929, -49201.59866828903, -43487.37519828978, -53598.83500323713, -54086.12538410728, -47025.58929033152, 21799.902236449987, 46762.97864472612, 0.112, 0.9580000000000001, 0.17200000000000001, 192.0, 0.0, 0.0, 0.0, 0.0, 0.0, 0.0, 0.0, 0.0, 0.0, 1.7297111094166E9, 0.0, 2024-10-24 00:48:29.416
76.0, -46573.122927322736, -49200.72695025527, -43483.30718079891, -53585.33454958613, -54067.88636063175, -47004.35513309898, 21670.373877331484, 46607.20933761708, 0.112, 0.9580000000000001, 0.17200000000000001, 192.0, 0.0, 0.0, 0.0, 0.0, 0.0, 0.0, 0.0, 0.0, 0.0, 1.7297111094205446E9, 0.0, 2024-10-24 00:48:29.420
77.0, -46550.97234856753, -49178.285798822144, -43458.42968922015, -53561.4405347634, -54029.68722935763, -46978.874144419926, 21365.831359127922, 46278.07990051269, 0.112, 0.9580000000000001, 0.17200000000000001, 192.0, 0.0, 0.0, 0.0, 0.0, 0.0, 0.0, 0.0, 0.0, 0.0, 1.7297111094247289E9, 0.0, 2024-10-24 00:48:29.424
78.0, -46524.194958710075, -49167.512257994684, -43445.44332569162, -53558.22188356184, -54034.64931662671, -46978.00242638617, 21219.606246901305, 46131.38540165251, 0.112, 0.9580000000000001, 0.17200000000000001, 192.0, 0.0, 0.0, 0.0, 0.0, 0.0, 0.0, 0.0, 0.0, 0.0, 1.7297111094286854E9, 0.0, 2024-10-24 00:48:29.428
79.0, -46537.42719142762, -49189.08169139406, -43469.80672714791, -53585.46866005286, -54076.04474735794, -47008.11022616747, 21500.12063981541, 46437.47019022348, 0.112, 0.9580000000000001, 0.17200000000000001, 192.0, 0.0, 0.0, 0.0, 0.0, 0.0, 0.0, 0.0, 0.0, 0.0, 1.72971110943268E9, 0.0, 2024-10-24 00:48:29.432
80.0, -46555.80032536988, -49203.78913924565, -43480.267343552994, -53595.169317146465, -54083.331416050365, -47014.01108670367, 21757.500977218268, 46711.9272603902, 0.112, 0.9580000000000001, 0.17200000000000001, 192.0, 0.0, 0.0, 0.0, 0.0, 0.0, 0.0, 0.0, 0.0, 0.0, 1.7297111094375703E9, 0.0, 2024-10-24 00:48:29.437
81.0, -46571.8935813777, -49203.43151133436, -43481.22846856457, -53588.93318044343, -54085.007796884514, -47005.40566508838, 21610.80647835809, 46541.02582228492, 0.112, 0.9580000000000001, 0.17200000000000001, 192.0, 0.0, 0.0, 0.0, 0.0, 0.0, 0.0, 0.0, 0.0, 0.0, 1.7297111094405806E9, 0.0, 2024-10-24 00:48:29.440
82.0, -46557.387299226204, -49186.198316359325, -43460.41899447668, -53572.97403490234, -54053.67065115817, -46980.19289734279, 21310.577846834403, 46218.08781839464, 0.112, 0.9580000000000001, 0.17200000000000001, 192.0, 0.0, 0.0, 0.0, 0.0, 0.0, 0.0, 0.0, 0.0, 0.0, 1.7297111094445708E9, 0.0, 2024-10-24 00:48:29.444
83.0, -46522.89855753166, -49162.25959804769, -43428.85833130578, -53558.043069606196, -54017.147900718206, -46967.698272192276, 21178.747258037005, 46087.71009298684, 0.112, 0.9580000000000001, 0.17200000000000001, 192.0, 0.0, 0.0, 0.0, 0.0, 0.0, 0.0, 0.0, 0.0, 0.0, 1.72971110944877E9, 0.0, 2024-10-24 00:48:29.448
84.0, -46533.96267103704, -49184.656045991906, -43451.50064843901, -53589.26845661026, -54055.659956414696, -47008.4455023343, 21427.410415102295, 46361.65307303108, 0.112, 0.9580000000000001, 0.17200000000000001, 192.0, 0.0, 0.0, 0.0, 0.0, 0.0, 0.0, 0.0, 0.0, 0.0, 1.7297111094527907E9, 0.0, 2024-10-24 00:48:29.452
85.0, -46564.673967918636, -49213.98153471727, -43481.47433775358, -53616.93991624593, -54088.42761378618, -47040.87788353895, 21688.635252551467, 46637.36184088729, 0.116, 0.9580000000000001, 0.176, 192.0, 3.0, 160.0, 29.0, 240.0, 5.0, 128.0, 0.0, 0.0, 0.0, 1.729711109456598E9, 0.0, 2024-10-24 00:48:29.456
86.0, -46577.14624132469, -49210.1146829265, -43476.57930571787, -53604.110014928585, -54070.4121077552, -47024.87403450895, 21539.213840867742, 46461.74418470194, 0.116, 0.9580000000000001, 0.176, 192.0, 0.0, 0.0, 0.0, 0.0, 0.0, 0.0, 0.0, 0.0, 0.0, 1.7297111094605684E9, 0.0, 2024-10-24 00:48:29.460
87.0, -46558.39312772669, -49188.74641522723, -43459.860200865296, -53580.88655243952, -54043.92529057566, -46990.18412711431, 21226.579991171362, 46125.93157600541, 0.116, 0.9580000000000001, 0.176, 192.0, 0.0, 0.0, 0.0, 0.0, 0.0, 0.0, 0.0, 0.0, 0.0, 1.729711109465723E9, 0.0, 2024-10-24 00:48:29.465
88.0, -46534.029726270404, -49179.336330811544, -43452.66293915069, -53579.88072393903, -54050.474351701065, -46988.97713291373, 21099.04093730938, 46000.18066169985, 0.116, 0.9580000000000001, 0.176, 192.0, 0.0, 0.0, 0.0, 0.0, 0.0, 0.0, 0.0, 0.0, 0.0, 1.7297111094686327E9, 0.0, 2024-10-24 00:48:29.468
89.0, -46545.160895009154, -49200.92811595537, -43475.55112547292, -53609.005046964296, -54077.49761074753, -47028.91970025536, 21331.767300578034, 46260.35496715963, 0.116, 0.9580000000000001, 0.176, 192.0, 0.0, 0.0, 0.0, 0.0, 0.0, 0.0, 0.0, 0.0, 0.0, 1.7297111094725943E9, 0.0, 2024-10-24 00:48:29.472
90.0, -46569.345482509794, -49223.05634296613, -43495.287715826955, -53629.36748616308, -54096.496593534546, -47058.96044480329, 21588.32062343605, 46533.67209835912, 0.116, 0.9580000000000001, 0.176, 192.0, 0.0, 0.0, 0.0, 0.0, 0.0, 0.0, 0.0, 0.0, 0.0, 1.7297111094766495E9, 0.0, 2024-10-24 00:48:29.476
91.0, -46580.34254078181, -49219.189491175355, -43488.291619812444, -53609.89911674251, -54071.4626397446, -47023.622336819455, 21456.95942127221, 46380.0485587178, 0.116, 0.9580000000000001, 0.176, 192.0, 0.0, 0.0, 0.0, 0.0, 0.0, 0.0, 0.0, 0.0, 0.0, 1.729711109480638E9, 0.0, 2024-10-24 00:48:29.480
92.0, -46562.32703475083, -49199.00586593222, -43466.476317224064, -53584.105203641084, -54039.857273084795, -46988.57480151353, 21138.581173250815, 46041.62079592, 0.116, 0.9580000000000001, 0.176, 192.0, 0.0, 0.0, 0.0, 0.0, 0.0, 0.0, 0.0, 0.0, 0.0, 1.72971110948471E9, 0.0, 2024-10-24 00:48:29.484
93.0, -46535.34847919327, -49187.33825532654, -43453.40054671771, -53579.41133730547, -54038.78438935094, -46988.86537419145, 20986.76812491037, 45893.115805758935, 0.116, 0.9580000000000001, 0.176, 192.0, 0.0, 0.0, 0.0, 0.0, 0.0, 0.0, 0.0, 0.0, 0.0, 1.729711109488764E9, 0.0, 2024-10-24 00:48:29.488
94.0, -46549.87711308922, -49210.9640492158, -43476.08756733985, -53607.44042485242, -54074.390718268245, -47017.676772794344, 21251.09985483883, 46185.09664357861, 0.116, 0.9580000000000001, 0.176, 192.0, 0.0, 0.0, 0.0, 0.0, 0.0, 0.0, 0.0, 0.0, 0.0, 1.72971110949362E9, 0.0, 2024-10-24 00:48:29.493
95.0, -46569.97133135454, -49225.93971800086, -43492.73961695905, -53619.53271860275, -54091.69096847665, -47039.000337004705, 21508.54724747506, 46460.47013526799, 0.114, 0.966, 0.166, 192.0, 3.0, 144.0, 30.0, 48.0, 5.0, 48.0, 0.0, 0.0, 0.0, 1.7297111094967153E9, 0.0, 2024-10-24 00:48:29.496
96.0, -46582.622418716244, -49218.67540105288, -43485.34118954434, -53600.533735815734, -54069.45098274362, -47015.12867392644, 21369.720562663148, 46300.49870020136, 0.114, 0.966, 0.166, 192.0, 0.0, 0.0, 0.0, 0.0, 0.0, 0.0, 0.0, 0.0, 0.0, 1.729711109499748E9, 0.0, 2024-10-24 00:48:29.499
97.0, -46563.10934580676, -49197.97768568727, -43461.78245088845, -53577.46673553786, -54044.260566742494, -46983.3891967999, 21063.613422347717, 45975.48198407674, 0.114, 0.966, 0.166, 192.0, 0.0, 0.0, 0.0, 0.0, 0.0, 0.0, 0.0, 0.0, 0.0, 1.7297111095047748E9, 0.0, 2024-10-24 00:48:29.504
98.0, -46543.46216243055, -49190.73572048375, -43455.47925895206, -53580.03718615022, -54051.72604939056, -46995.101510894485, 20926.060786969756, 45841.371517344895, 0.114, 0.966, 0.166, 192.0, 0.0, 0.0, 0.0, 0.0, 0.0, 0.0, 0.0, 0.0, 0.0, 1.7297111095087168E9, 0.0, 2024-10-24 00:48:29.508
99.0, -46552.62637765722, -49205.19729914633, -43475.19349756164, -53602.32187537216, -54082.32558754988, -47028.02563047715, 21168.644269543205, 46112.52052933223, 0.114, 0.966, 0.166, 192.0, 0.0, 0.0, 0.0, 0.0, 0.0, 0.0, 0.0, 0.0, 0.0, 1.7297111095127268E9, 0.0, 2024-10-24 00:48:29.512
100.0, -46572.40767150017, -49218.563642330606, -43489.3645035463, -53612.26840165477, -54094.28377083347, -47032.36186890148, 21420.10139466541, 46384.54125935331, 0.114, 0.966, 0.166, 192.0, 0.0, 0.0, 0.0, 0.0, 0.0, 0.0, 0.0, 0.0, 0.0, 1.729711109516693E9, 0.0, 2024-10-24 00:48:29.516
101.0, -46586.6457327182, -49215.210880662315, -43483.30718079891, -53597.87387822555, -54075.21773281309, -47006.59030754451, 21281.274709853496, 46226.26855686528, 0.114, 0.966, 0.166, 192.0, 0.0, 0.0, 0.0, 0.0, 0.0, 0.0, 0.0, 0.0, 0.0, 1.729711109521772E9, 0.0, 2024-10-24 00:48:29.521
102.0, -46570.73129066602, -49199.765825243696, -43463.54823870042, -53580.551276272694, -54051.90486334621, -46984.79735670058, 20971.01014506938, 45897.04971278307, 0.114, 0.966, 0.166, 192.0, 0.0, 0.0, 0.0, 0.0, 0.0, 0.0, 0.0, 0.0, 0.0, 1.7297111095248113E9, 0.0, 2024-10-24 00:48:29.524
103.0, -46540.958767051554, -49185.17013611438, -43445.733898369544, -53572.571703502144, -54040.86310158529, -46982.785699699605, 20829.97063755639, 45760.01116752758, 0.114, 0.966, 0.166, 192.0, 0.0, 0.0, 0.0, 0.0, 0.0, 0.0, 0.0, 0.0, 0.0, 1.7297111095278828E9, 0.0, 2024-10-24 00:48:29.527
104.0, -46548.245435743986, -49202.93977295635, -43462.564761944384, -53595.50459331329, -54065.07004083038, -47017.4979588387, 21081.18189348959, 46040.346746486044, 0.114, 0.966, 0.166, 192.0, 0.0, 0.0, 0.0, 0.0, 0.0, 0.0, 0.0, 0.0, 0.0, 1.7297111095327802E9, 0.0, 2024-10-24 00:48:29.532
105.0, -46567.669101675645, -49218.3177731416, -43482.301352298426, -53606.43459635194, -54087.690006219156, -47022.437694363325, 21338.115196003342, 46319.98942136639, 0.112, 0.968, 0.17200000000000001, 192.0, 3.0, 128.0, 30.0, 64.0, 5.0, 96.0, 0.0, 0.0, 0.0, 1.7297111095367403E9, 0.0, 2024-10-24 00:48:29.536
106.0, -46587.47274726305, -49216.462578351806, -43483.26247731, -53592.88943921202, -54072.87079964529, -46997.604906273475, 21198.752069324502, 46164.68950089091, 0.112, 0.968, 0.17200000000000001, 192.0, 0.0, 0.0, 0.0, 0.0, 0.0, 0.0, 0.0, 0.0, 0.0, 1.7297111095407467E9, 0.0, 2024-10-24 00:48:29.540
107.0, -46570.55247671038, -49194.13318564096, -43465.69400616813, -53572.45994477987, -54049.5579301784, -46974.49320250669, 20904.42429833702, 45853.329700628485, 0.112, 0.968, 0.17200000000000001, 192.0, 0.0, 0.0, 0.0, 0.0, 0.0, 0.0, 0.0, 0.0, 0.0, 1.729711109544745E9, 0.0, 2024-10-24 00:48:29.544
108.0, -46538.790647839385, -49176.11767960998, -43449.287825737934, -53567.31904355515, -54039.70081087361, -46979.25412407567, 20768.793912982215, 45723.0413821985, 0.112, 0.968, 0.17200000000000001, 192.0, 0.0, 0.0, 0.0, 0.0, 0.0, 0.0, 0.0, 0.0, 0.0, 1.729711109549763E9, 0.0, 2024-10-24 00:48:29.549
109.0, -46550.681775889614, -49196.43541531985, -43475.39466326174, -53597.13627065853, -54075.19538106864, -47020.40368561789, 21018.48525029245, 46006.014467002686, 0.112, 0.968, 0.17200000000000001, 192.0, 0.0, 0.0, 0.0, 0.0, 0.0, 0.0, 0.0, 0.0, 0.0, 1.729711109552734E9, 0.0, 2024-10-24 00:48:29.552
110.0, -46569.16666855415, -49214.62973530647, -43494.17012860419, -53616.04584646772, -54097.390663312755, -47034.395877646915, 21286.706183756138, 46298.95642983395, 0.112, 0.968, 0.17200000000000001, 192.0, 0.0, 0.0, 0.0, 0.0, 0.0, 0.0, 0.0, 0.0, 0.0, 1.7297111095557168E9, 0.0, 2024-10-24 00:48:29.555
111.0, -46585.41638677316, -49214.33916262855, -43488.313971556905, -53607.84275625262, -54075.97769212457, -47018.369676872455, 21149.265307100453, 46147.05397451568, 0.112, 0.968, 0.17200000000000001, 192.0, 0.0, 0.0, 0.0, 0.0, 0.0, 0.0, 0.0, 0.0, 0.0, 1.7297111095608027E9, 0.0, 2024-10-24 00:48:29.560
112.0, -46563.73519465151, -49193.820261218585, -43462.25183752202, -53589.357863588084, -54038.44911318411, -46998.096644651494, 20824.852088076128, 45808.98383962916, 0.112, 0.968, 0.17200000000000001, 192.0, 0.0, 0.0, 0.0, 0.0, 0.0, 0.0, 0.0, 0.0, 0.0, 1.7297111095649495E9, 0.0, 2024-10-24 00:48:29.564
113.0, -46534.2308919705, -49182.15265061291, -43450.472468194064, -53587.92735194294, -54044.260566742494, -47003.416359831856, 20697.737717358796, 45690.22902133811, 0.112, 0.968, 0.17200000000000001, 192.0, 0.0, 0.0, 0.0, 0.0, 0.0, 0.0, 0.0, 0.0, 0.0, 1.7297111095688748E9, 0.0, 2024-10-24 00:48:29.568
114.0, -46540.51173216245, -49199.1623281434, -43470.23141029256, -53611.48609059884, -54076.558837480414, -47033.59121484652, 20927.781871292817, 45953.867847188456, 0.112, 0.968, 0.17200000000000001, 192.0, 0.0, 0.0, 0.0, 0.0, 0.0, 0.0, 0.0, 0.0, 0.0, 1.7297111095729945E9, 0.0, 2024-10-24 00:48:29.572
115.0, -46572.02769184443, -49225.42562787839, -43495.645343738244, -53632.87671004257, -54098.016512157505, -47052.41138367789, 21198.90853153569, 46250.274330410284, 0.106, 0.968, 0.17, 192.0, 3.0, 80.0, 30.0, 64.0, 5.0, 80.0, 0.0, 0.0, 0.0, 1.729711109577764E9, 0.0, 2024-10-24 00:48:29.577
116.0, -46588.433872274625, -49219.815340020104, -43492.40434079222, -53615.442349367426, -54077.47525900308, -47029.702011311296, 21056.751436799936, 46091.82281396661, 0.106, 0.968, 0.17, 192.0, 0.0, 0.0, 0.0, 0.0, 0.0, 0.0, 0.0, 0.0, 0.0, 1.7297111095809784E9, 0.0, 2024-10-24 00:48:29.580
117.0, -46567.08795631981, -49195.09431065254, -43472.80186090492, -53591.235410122325, -54055.95052909262, -47007.55143255609, 20739.20020332339, 45760.368795438866, 0.106, 0.968, 0.17, 192.0, 0.0, 0.0, 0.0, 0.0, 0.0, 0.0, 0.0, 0.0, 0.0, 1.7297111095837553E9, 0.0, 2024-10-24 00:48:29.583
118.0, -46540.2882147179, -49180.319807567575, -43464.263494522995, -53585.26749435276, -54059.72797390557, -47006.92558371134, 20595.83611438705, 45625.27485195099, 0.106, 0.968, 0.17, 192.0, 0.0, 0.0, 0.0, 0.0, 0.0, 0.0, 0.0, 0.0, 0.0, 1.729711109587791E9, 0.0, 2024-10-24 00:48:29.587
119.0, -46552.000528812474, -49197.03891242015, -43486.45877676711, -53606.45694809639, -54087.4664887746, -47031.69131656782, 20858.089132081168, 45921.837797384, 0.106, 0.968, 0.17, 192.0, 0.0, 0.0, 0.0, 0.0, 0.0, 0.0, 0.0, 0.0, 0.0, 1.7297111095928433E9, 0.0, 2024-10-24 00:48:29.592
120.0, -46575.6933779351, -49215.054418451124, -43504.34017233136, -53620.6056023366, -54098.441195302155, -47040.40849690539, 21140.70458897407, 46231.07418192318, 0.106, 0.968, 0.17, 192.0, 0.0, 0.0, 0.0, 0.0, 0.0, 0.0, 0.0, 0.0, 0.0, 1.7297111095968716E9, 0.0, 2024-10-24 00:48:29.596
121.0, -46586.10929085127, -49209.15355791492, -43493.63368673727, -53602.47833758335, -54078.4140322702, -47015.95568847128, 20979.704973662494, 46056.574112960596, 0.106, 0.968, 0.17, 192.0, 0.0, 0.0, 0.0, 0.0, 0.0, 0.0, 0.0, 0.0, 0.0, 1.7297111096009245E9, 0.0, 2024-10-24 00:48:29.600
122.0, -46562.46114521756, -49183.24788609122, -43466.11868931278, -53574.58336050312, -54047.41216271069, -46984.39502530039, 20647.71451326782, 45710.166777392245, 0.106, 0.968, 0.17, 192.0, 0.0, 0.0, 0.0, 0.0, 0.0, 0.0, 0.0, 0.0, 0.0, 1.729711109605143E9, 0.0, 2024-10-24 00:48:29.605
123.0, -46536.5331216494, -49169.702728951306, -43450.42776470516, -53567.475505766335, -54042.53948241943, -46982.159850854856, 20511.033595923614, 45581.465432818586, 0.106, 0.968, 0.17, 192.0, 0.0, 0.0, 0.0, 0.0, 0.0, 0.0, 0.0, 0.0, 0.0, 1.7297111096088364E9, 0.0, 2024-10-24 00:48:29.608
124.0, -46544.06565953084, -49192.18858387334, -43470.052596336915, -53591.07894791114, -54075.35184327982, -47010.412455846366, 20758.847386699606, 45864.95260774525, 0.106, 0.968, 0.17, 192.0, 0.0, 0.0, 0.0, 0.0, 0.0, 0.0, 0.0, 0.0, 0.0, 1.7297111096118217E9, 0.0, 2024-10-24 00:48:29.611
125.0, -46570.328959265826, -49216.619040563, -43491.35380880282, -53610.63672430954, -54095.155488867225, -47033.680621824344, 21032.522145810384, 46164.60009391309, 0.116, 0.964, 0.166, 192.0, 3.0, 160.0, 30.0, 32.0, 5.0, 48.0, 0.0, 0.0, 0.0, 1.729711109617031E9, 0.0, 2024-10-24 00:48:29.617
126.0, -46582.68947394961, -49211.41108410491, -43479.97677087507, -53594.387006090525, -54063.10308731831, -47016.08979893802, 20902.256179124855, 46019.023182275676, 0.116, 0.964, 0.166, 192.0, 0.0, 0.0, 0.0, 0.0, 0.0, 0.0, 0.0, 0.0, 0.0, 1.729711109620927E9, 0.0, 2024-10-24 00:48:29.620
127.0, -46569.010206342966, -49192.52386004017, -43461.44717472162, -53574.203380847386, -54038.65027888421, -46989.89355443639, 20596.2607975317, 45698.74503597558, 0.116, 0.964, 0.166, 192.0, 0.0, 0.0, 0.0, 0.0, 0.0, 0.0, 0.0, 0.0, 0.0, 1.7297111096248164E9, 0.0, 2024-10-24 00:48:29.624
128.0, -46539.707069362055, -49176.16238309889, -43447.4549826926, -53564.681537709424, -54043.74647662002, -46977.86831591944, 20450.214499260725, 45562.33233956484, 0.116, 0.964, 0.166, 192.0, 0.0, 0.0, 0.0, 0.0, 0.0, 0.0, 0.0, 0.0, 0.0, 1.7297111096288347E9, 0.0, 2024-10-24 00:48:29.628
129.0, -46546.837275843296, -49194.446110063334, -43464.01762533398, -53587.23444786483, -54074.43542175715, -47007.953763956284, 20695.61430163554, 45844.50076156864, 0.116, 0.964, 0.166, 192.0, 0.0, 0.0, 0.0, 0.0, 0.0, 0.0, 0.0, 0.0, 0.0, 1.729711109632844E9, 0.0, 2024-10-24 00:48:29.632
130.0, -46568.719633665045, -49215.50145334023, -43481.31787554239, -53603.30535212819, -54087.35473005232, -47017.944993727804, 20960.05779028628, 46137.19685521089, 0.116, 0.964, 0.166, 192.0, 0.0, 0.0, 0.0, 0.0, 0.0, 0.0, 0.0, 0.0, 0.0, 1.7297111096388843E9, 0.0, 2024-10-24 00:48:29.638
131.0, -46579.44847100359, -49207.857156736514, -43470.16435505919, -53586.51919204226, -54055.61525292579, -46995.14621438339, 20797.627663329564, 45962.13799263692, 0.116, 0.964, 0.166, 192.0, 0.0, 0.0, 0.0, 0.0, 0.0, 0.0, 0.0, 0.0, 0.0, 1.729711109641901E9, 0.0, 2024-10-24 00:48:29.641
132.0, -46563.53402895141, -49187.49471753773, -43453.64641590672, -53570.58239824563, -54038.49381667302, -46981.534002010114, 20485.418496777835, 45638.641195135264, 0.116, 0.964, 0.166, 192.0, 0.0, 0.0, 0.0, 0.0, 0.0, 0.0, 0.0, 0.0, 0.0, 1.729711109645858E9, 0.0, 2024-10-24 00:48:29.645
133.0, -46539.64001412869, -49173.681339464354, -43446.24798849201, -53569.33070055613, -54039.2537759845, -46985.06557763405, 20352.626782968855, 45517.18181576512, 0.116, 0.964, 0.166, 192.0, 0.0, 0.0, 0.0, 0.0, 0.0, 0.0, 0.0, 0.0, 0.0, 1.7297111096488693E9, 0.0, 2024-10-24 00:48:29.648
134.0, -46550.59236891179, -49196.50247055322, -43469.89613412573, -53599.59496254861, -54069.003947854515, -47023.465874608264, 20592.908035863406, 45794.49990922212, 0.116, 0.964, 0.166, 192.0, 0.0, 0.0, 0.0, 0.0, 0.0, 0.0, 0.0, 0.0, 0.0, 1.7297111096530075E9, 0.0, 2024-10-24 00:48:29.653
135.0, -46562.50584870647, -49211.142863171444, -43477.98746561855, -53614.43652086693, -54086.550067251934, -47040.386145160934, 20809.854067546614, 46040.3690982305, 0.114, 0.962, 0.162, 192.0, 3.0, 144.0, 30.0, 16.0, 5.0, 16.0, 0.0, 0.0, 0.0, 1.729711109656886E9, 0.0, 2024-10-24 00:48:29.656
136.0, -46580.07431984834, -49210.36055211551, -43472.511288227, -53599.97494220435, -54067.61813969829, -47012.46881633626, 20665.841778021073, 45883.392796920874, 0.114, 0.962, 0.162, 192.0, 0.0, 0.0, 0.0, 0.0, 0.0, 0.0, 0.0, 0.0, 0.0, 1.7297111096610012E9, 0.0, 2024-10-24 00:48:29.661
137.0, -46561.87999986172, -49188.74641522723, -43449.26547399348, -53577.93612217142, -54037.01860153897, -46989.4912230362, 20371.134027377848, 45576.54804903842, 0.114, 0.962, 0.162, 192.0, 0.0, 0.0, 0.0, 0.0, 0.0, 0.0, 0.0, 0.0, 0.0, 1.7297111096649013E9, 0.0, 2024-10-24 00:48:29.664
138.0, -46539.215330984036, -49182.15265061291, -43441.44236343412, -53581.31123558417, -54047.814494110884, -46998.096644651494, 20253.899127709763, 45470.734890787, 0.114, 0.962, 0.162, 192.0, 0.0, 0.0, 0.0, 0.0, 0.0, 0.0, 0.0, 0.0, 0.0, 1.7297111096679084E9, 0.0, 2024-10-24 00:48:29.667
139.0, -46547.97721481052, -49204.32558111258, -43461.827154377366, -53608.22273590836, -54084.89603816224, -47030.43961887832, 20513.849915724983, 45767.96838855367, 0.114, 0.962, 0.162, 192.0, 0.0, 0.0, 0.0, 0.0, 0.0, 0.0, 0.0, 0.0, 0.0, 1.7297111096719427E9, 0.0, 2024-10-24 00:48:29.671
140.0, -46570.01603484345, -49222.16227318791, -43477.42867200717, -53622.66196282649, -54093.836735944366, -47044.99060451873, 20772.45959907289, 46054.741269915256, 0.114, 0.962, 0.162, 192.0, 0.0, 0.0, 0.0, 0.0, 0.0, 0.0, 0.0, 0.0, 0.0, 1.7297111096769192E9, 0.0, 2024-10-24 00:48:29.676
141.0, -46582.53301173842, -49211.20991840481, -43468.443270736134, -53600.24316313781, -54070.70268043312, -47016.0450954491, 20611.951722139325, 45878.564820118525, 0.114, 0.962, 0.162, 192.0, 0.0, 0.0, 0.0, 0.0, 0.0, 0.0, 0.0, 0.0, 0.0, 1.729711109680976E9, 0.0, 2024-10-24 00:48:29.680
142.0, -46567.31147376436, -49186.265371592686, -43448.48316293755, -53572.83992443561, -54044.37232546477, -46984.52913576712, 20289.080773482416, 45543.26630154447, 0.114, 0.962, 0.162, 192.0, 0.0, 0.0, 0.0, 0.0, 0.0, 0.0, 0.0, 0.0, 0.0, 1.7297111096849723E9, 0.0, 2024-10-24 00:48:29.684
143.0, -46547.59723515478, -49180.78919420114, -43443.47637217955, -53572.41524129096, -54051.14490403473, -46987.9936561577, 20161.921699276176, 45426.90311991014, 0.114, 0.962, 0.162, 192.0, 0.0, 0.0, 0.0, 0.0, 0.0, 0.0, 0.0, 0.0, 0.0, 1.729711109688933E9, 0.0, 2024-10-24 00:48:29.688
