%OpenBCI Raw EXG Data
%Number of channels = 8
%Sample Rate = 250 Hz
%Board = OpenBCI_GUI$BoardCytonSerial
Sample Index, EXG Channel 0, EXG Channel 1, EXG Channel 2, EXG Channel 3, EXG Channel 4, EXG Channel 5, EXG Channel 6, EXG Channel 7, Accel Channel 0, Accel Channel 1, Accel Channel 2, Other, Other, Other, Other, Other, Other, Other, Analog Channel 0, Analog Channel 1, Analog Channel 2, Timestamp, Other, Timestamp (Formatted)
0.0, 0.0, 0.0, 0.0, 0.0, 0.0, 0.0, 0.0, 0.0, 0.186, 0.9480000000000001, -0.14200000000000002, 192.0, 5.0, 208.0, 29.0, 160.0, 251.0, 144.0, 0.0, 0.0, 0.0, 1.729691151405864E9, 0.0, 2024-10-23 19:15:51.405
1.0, 21756.60690744006, 5261.175961634632, 43380.01976967094, 23207.279826078397, 15848.28088859092, 22561.13559736438, 187500.0, -27661.89308904327, 0.186, 0.9480000000000001, -0.14200000000000002, 192.0, 0.0, 0.0, 0.0, 0.0, 0.0, 0.0, 0.0, 0.0, 0.0, 1.7296911514269283E9, 0.0, 2024-10-23 19:15:51.426
2.0, 21784.16660835345, 5646.005945921654, 43445.085697780334, 23537.7056643612, 15842.42473154363, 22608.99068224319, 187500.0, -27556.728131381053, 0.186, 0.9480000000000001, -0.14200000000000002, 192.0, 0.0, 0.0, 0.0, 0.0, 0.0, 0.0, 0.0, 0.0, 0.0, 1.7296911514299972E9, 0.0, 2024-10-23 19:15:51.429
3.0, 21746.414511968436, 6105.244887500392, 43425.371459170754, 23611.645235019358, 15844.212871100053, 22604.296815907575, 187500.0, -27381.781027529363, 0.186, 0.9480000000000001, -0.14200000000000002, 192.0, 0.0, 0.0, 0.0, 0.0, 0.0, 0.0, 0.0, 0.0, 0.0, 1.729691151433968E9, 0.0, 2024-10-23 19:15:51.433
4.0, 21691.33981363056, 6103.680265388521, 43370.83320269981, 23422.035386804986, 15843.877594933225, 22564.93539392178, 187500.0, -27365.710123266, 0.186, 0.9480000000000001, -0.14200000000000002, 192.0, 0.0, 0.0, 0.0, 0.0, 0.0, 0.0, 0.0, 0.0, 0.0, 1.729691151436938E9, 0.0, 2024-10-23 19:15:51.436
5.0, 21709.48943012827, 5703.919315805354, 43358.7856124384, 23245.344846885782, 15835.294525062387, 22522.40002422333, 187500.0, -27491.796313738385, 0.186, 0.9480000000000001, -0.14200000000000002, 192.0, 0.0, 0.0, 0.0, 0.0, 0.0, 0.0, 0.0, 0.0, 0.0, 1.7296911514399476E9, 0.0, 2024-10-23 19:15:51.439
6.0, 21749.901384103465, 5251.22943535202, 43374.76710972394, 23193.645261960657, 15830.377141282219, 22509.726585117172, 187500.0, -27672.398408937268, 0.186, 0.9480000000000001, -0.14200000000000002, 192.0, 0.0, 0.0, 0.0, 0.0, 0.0, 0.0, 0.0, 0.0, 0.0, 1.7296911514433336E9, 0.0, 2024-10-23 19:15:51.443
7.0, 21778.288099561705, 5647.615271522435, 43452.59588391732, 23532.4530044142, 15850.024324658434, 22573.116132392424, 187500.0, -27555.83406160284, 0.186, 0.9480000000000001, -0.14200000000000002, 192.0, 0.0, 0.0, 0.0, 0.0, 0.0, 0.0, 0.0, 0.0, 0.0, 1.7296911514486206E9, 0.0, 2024-10-23 19:15:51.448
8.0, 21741.631238655, 6114.87848936063, 43441.7552878565, 23612.271083864103, 15865.178807399132, 22629.19665923079, 187500.0, -27381.98219322946, 0.182, 0.9500000000000001, -0.136, 192.0, 5.0, 176.0, 29.0, 176.0, 251.0, 192.0, 0.0, 0.0, 0.0, 1.7296911514498127E9, 0.0, 2024-10-23 19:15:51.449
9.0, 21688.367031618003, 6115.571393438744, 43385.83122322932, 23424.091747294875, 15866.363449855264, 22596.719574537226, 187500.0, -27377.534196082855, 0.182, 0.9500000000000001, -0.136, 192.0, 0.0, 0.0, 0.0, 0.0, 0.0, 0.0, 0.0, 0.0, 0.0, 1.7296911514552746E9, 0.0, 2024-10-23 19:15:51.455
10.0, 21709.645892339457, 5719.27496424615, 43378.611609770254, 23254.55376560137, 15874.18656041462, 22573.518463792618, 187500.0, -27502.301633632378, 0.182, 0.9500000000000001, -0.136, 192.0, 0.0, 0.0, 0.0, 0.0, 0.0, 0.0, 0.0, 0.0, 0.0, 1.7296911514560535E9, 0.0, 2024-10-23 19:15:51.456
11.0, 21749.45434921436, 5267.926188460135, 43387.775824996934, 23200.417840530616, 15859.434409074118, 22540.862565143416, 187500.0, -27686.74822887757, 0.182, 0.9500000000000001, -0.136, 192.0, 0.0, 0.0, 0.0, 0.0, 0.0, 0.0, 0.0, 0.0, 0.0, 1.7296911514599245E9, 0.0, 2024-10-23 19:15:51.459
12.0, 21767.49220698979, 5658.478219327715, 43439.00602328849, 23525.03222525504, 15837.172071596631, 22577.56412953903, 187500.0, -27593.429695776667, 0.182, 0.9500000000000001, -0.136, 192.0, 0.0, 0.0, 0.0, 0.0, 0.0, 0.0, 0.0, 0.0, 0.0, 1.7296911514649065E9, 0.0, 2024-10-23 19:15:51.464
13.0, 21728.287247215183, 6124.69090517651, 43418.330659667336, 23604.135048882374, 15847.342115323796, 22606.062603719547, 187500.0, -27421.14244951516, 0.182, 0.9500000000000001, -0.136, 192.0, 0.0, 0.0, 0.0, 0.0, 0.0, 0.0, 0.0, 0.0, 0.0, 1.7296911514689538E9, 0.0, 2024-10-23 19:15:51.468
14.0, 21675.134798900464, 6122.16515805306, 43359.27735081642, 23416.73802336908, 15848.929089180123, 22585.856626731947, 187500.0, -27405.585635374267, 0.182, 0.9500000000000001, -0.136, 192.0, 0.0, 0.0, 0.0, 0.0, 0.0, 0.0, 0.0, 0.0, 0.0, 1.7296911514730163E9, 0.0, 2024-10-23 19:15:51.473
15.0, 21699.274682912193, 5726.360467238483, 43348.72732743351, 23249.166995187643, 15844.883423433714, 22549.691504203263, 187500.0, -27522.17233445315, 0.182, 0.9500000000000001, -0.136, 192.0, 0.0, 0.0, 0.0, 0.0, 0.0, 0.0, 0.0, 0.0, 0.0, 1.729691151477081E9, 0.0, 2024-10-23 19:15:51.477
16.0, 21743.955820078354, 5279.437336854618, 43366.787536953394, 23204.172933599108, 15854.092342149299, 22539.856736642927, 187500.0, -27690.749191135073, 0.182, 0.9500000000000001, -0.136, 192.0, 0.0, 0.0, 0.0, 0.0, 0.0, 0.0, 0.0, 0.0, 0.0, 1.7296911514811077E9, 0.0, 2024-10-23 19:15:51.481
17.0, 21764.519424977236, 5673.967978235242, 43423.158636469685, 23527.98265552314, 15834.959248895557, 22593.74679252467, 187500.0, -27587.282966051458, 0.182, 0.9500000000000001, -0.136, 192.0, 0.0, 0.0, 0.0, 0.0, 0.0, 0.0, 0.0, 0.0, 0.0, 1.729691151483938E9, 0.0, 2024-10-23 19:15:51.483
18.0, 21726.677921614402, 6132.603422713688, 43401.052761203384, 23592.512141765612, 15825.45975750205, 22594.462048347243, 187500.0, -27394.499170124433, 0.184, 0.9520000000000001, -0.132, 192.0, 5.0, 192.0, 29.0, 192.0, 251.0, 224.0, 0.0, 0.0, 0.0, 1.7296911514881475E9, 0.0, 2024-10-23 19:15:51.488
19.0, 21678.174636146385, 6129.8094546567745, 43349.040251855884, 23399.571883627403, 15839.027266386423, 22555.27944031709, 187500.0, -27365.240736632437, 0.184, 0.9520000000000001, -0.132, 192.0, 0.0, 0.0, 0.0, 0.0, 0.0, 0.0, 0.0, 0.0, 0.0, 1.7296911514919431E9, 0.0, 2024-10-23 19:15:51.491
20.0, 21704.59439809256, 5734.1835777978395, 43338.33376626179, 23231.64322753468, 15840.480129776017, 22527.40681498132, 187500.0, -27522.68642457562, 0.184, 0.9520000000000001, -0.132, 192.0, 0.0, 0.0, 0.0, 0.0, 0.0, 0.0, 0.0, 0.0, 0.0, 1.7296911514975884E9, 0.0, 2024-10-23 19:15:51.497
21.0, 21747.30858174665, 5275.369319363752, 43354.53878099189, 23193.086468349276, 15834.109882606255, 22514.39809970833, 187500.0, -27693.16317953625, 0.184, 0.9520000000000001, -0.132, 192.0, 0.0, 0.0, 0.0, 0.0, 0.0, 0.0, 0.0, 0.0, 0.0, 1.7296911515009491E9, 0.0, 2024-10-23 19:15:51.500
22.0, 21760.585517953103, 5669.050594455075, 43408.182967684625, 23517.969074007164, 15821.414091755641, 22555.681771717285, 187500.0, -27579.146931069725, 0.184, 0.9520000000000001, -0.132, 192.0, 0.0, 0.0, 0.0, 0.0, 0.0, 0.0, 0.0, 0.0, 0.0, 1.7296911515080247E9, 0.0, 2024-10-23 19:15:51.508
23.0, 21721.648779111958, 6124.7579604098755, 43388.66989477514, 23587.19242658525, 15822.978713867513, 22580.313394107034, 187500.0, -27420.38249020368, 0.184, 0.9520000000000001, -0.132, 192.0, 0.0, 0.0, 0.0, 0.0, 0.0, 0.0, 0.0, 0.0, 0.0, 1.7296911515109735E9, 0.0, 2024-10-23 19:15:51.510
24.0, 21675.224205878283, 6118.253602773381, 43347.56503672183, 23408.57963664289, 15848.526757779928, 22573.80903647054, 187500.0, -27397.00256550343, 0.184, 0.9520000000000001, -0.132, 192.0, 0.0, 0.0, 0.0, 0.0, 0.0, 0.0, 0.0, 0.0, 0.0, 1.729691151515506E9, 0.0, 2024-10-23 19:15:51.515
25.0, 21700.593435835057, 5714.804615355089, 43345.5310279764, 23244.003742218465, 15847.811501957358, 22536.21340229671, 187500.0, -27514.013947726962, 0.184, 0.9520000000000001, -0.132, 192.0, 0.0, 0.0, 0.0, 0.0, 0.0, 0.0, 0.0, 0.0, 0.0, 1.7296911515214207E9, 0.0, 2024-10-23 19:15:51.521
26.0, 21744.291096245182, 5259.901912200679, 43363.07714737381, 23203.927064410098, 15846.828025201325, 22544.371789022898, 187500.0, -27691.307984746458, 0.184, 0.9520000000000001, -0.132, 192.0, 0.0, 0.0, 0.0, 0.0, 0.0, 0.0, 0.0, 0.0, 0.0, 1.7296911515214503E9, 0.0, 2024-10-23 19:15:51.521
27.0, 21766.44167500039, 5659.975786206221, 43424.67855509264, 23531.26836195807, 15833.70755120606, 22598.70887979375, 187500.0, -27596.782457444962, 0.184, 0.9520000000000001, -0.132, 192.0, 0.0, 0.0, 0.0, 0.0, 0.0, 0.0, 0.0, 0.0, 0.0, 1.7296911515254495E9, 0.0, 2024-10-23 19:15:51.525
28.0, 21729.382482693494, 6113.224460270937, 43408.58529908482, 23596.42369704529, 15831.584135482806, 22597.85951350445, 187500.0, -27435.849897366752, 0.182, 0.9560000000000001, -0.132, 192.0, 5.0, 176.0, 29.0, 224.0, 251.0, 224.0, 0.0, 0.0, 0.0, 1.729691151529278E9, 0.0, 2024-10-23 19:15:51.529
29.0, 21680.499217569737, 6098.293494974791, 43356.39397578168, 23407.14912499775, 15834.020475628433, 22562.14142586487, 187500.0, -27421.544780915356, 0.182, 0.9560000000000001, -0.132, 192.0, 0.0, 0.0, 0.0, 0.0, 0.0, 0.0, 0.0, 0.0, 0.0, 1.7296911515333905E9, 0.0, 2024-10-23 19:15:51.533
30.0, 21706.20372369334, 5694.397472667393, 43356.55043799287, 23247.088282953297, 15837.08266461881, 22536.638085441362, 187500.0, -27549.44146268862, 0.182, 0.9560000000000001, -0.132, 192.0, 0.0, 0.0, 0.0, 0.0, 0.0, 0.0, 0.0, 0.0, 0.0, 1.7296911515487056E9, 0.0, 2024-10-23 19:15:51.548
31.0, 21757.38921849599, 5243.6968974705815, 43389.42985408662, 23214.566494770825, 15857.020420672945, 22537.710969175216, 187500.0, -27708.652938443774, 0.182, 0.9560000000000001, -0.132, 192.0, 0.0, 0.0, 0.0, 0.0, 0.0, 0.0, 0.0, 0.0, 0.0, 1.7296911515487375E9, 0.0, 2024-10-23 19:15:51.548
32.0, 21775.047096615686, 5644.061344154042, 43452.707642639594, 23541.103129518408, 15851.499539792483, 22599.08885944949, 187500.0, -27581.158588070703, 0.182, 0.9560000000000001, -0.132, 192.0, 0.0, 0.0, 0.0, 0.0, 0.0, 0.0, 0.0, 0.0, 0.0, 1.7296911515487516E9, 0.0, 2024-10-23 19:15:51.548
33.0, 21735.886840329986, 6100.103986275672, 43434.15569474169, 23604.537380282567, 15848.70557173557, 22602.66513856234, 187500.0, -27409.184266231572, 0.182, 0.9560000000000001, -0.132, 192.0, 0.0, 0.0, 0.0, 0.0, 0.0, 0.0, 0.0, 0.0, 0.0, 1.7296911515487638E9, 0.0, 2024-10-23 19:15:51.548
34.0, 21681.661508281413, 6081.999073266873, 43378.94688593708, 23413.854648334345, 15851.588946770305, 22560.576803752996, 187500.0, -27379.45644610601, 0.182, 0.9560000000000001, -0.132, 192.0, 0.0, 0.0, 0.0, 0.0, 0.0, 0.0, 0.0, 0.0, 0.0, 1.72969115155444E9, 0.0, 2024-10-23 19:15:51.554
35.0, 21698.335909645073, 5676.963111992253, 43365.64759798618, 23241.053311950363, 15849.75610372497, 22536.503974974632, 187500.0, -27516.383232639222, 0.182, 0.9560000000000001, -0.132, 192.0, 0.0, 0.0, 0.0, 0.0, 0.0, 0.0, 0.0, 0.0, 0.0, 1.72969115156591E9, 0.0, 2024-10-23 19:15:51.565
36.0, 21744.134634033995, 5232.878653154213, 43385.38418834021, 23200.73076495299, 15845.79984495638, 22528.97143709319, 187500.0, -27698.14761854978, 0.182, 0.9560000000000001, -0.132, 192.0, 0.0, 0.0, 0.0, 0.0, 0.0, 0.0, 0.0, 0.0, 0.0, 1.7296911515659423E9, 0.0, 2024-10-23 19:15:51.565
37.0, 21765.59230871109, 5654.767829748133, 43447.43263094815, 23532.430652669747, 15844.145815866688, 22593.657385546852, 187500.0, -27597.60947198981, 0.182, 0.9560000000000001, -0.132, 192.0, 0.0, 0.0, 0.0, 0.0, 0.0, 0.0, 0.0, 0.0, 0.0, 1.7296911515659568E9, 0.0, 2024-10-23 19:15:51.565
38.0, 21728.309598959637, 6112.129224792627, 43428.85833130578, 23599.977624413685, 15843.788187955402, 22600.497019350176, 187500.0, -27423.71290012752, 0.182, 0.9580000000000001, -0.14200000000000002, 192.0, 5.0, 176.0, 29.0, 240.0, 251.0, 144.0, 0.0, 0.0, 0.0, 1.7296911515681574E9, 0.0, 2024-10-23 19:15:51.568
39.0, 21679.940423958353, 6100.059282786761, 43373.24719110098, 23410.032500032485, 15848.794978713391, 22559.526271763596, 187500.0, -27399.640071349153, 0.182, 0.9580000000000001, -0.14200000000000002, 192.0, 0.0, 0.0, 0.0, 0.0, 0.0, 0.0, 0.0, 0.0, 0.0, 1.7296911515720365E9, 0.0, 2024-10-23 19:15:51.572
40.0, 21701.778078291187, 5702.108824504474, 43358.3832810382, 23242.059140450852, 15844.145815866688, 22532.726530161683, 187500.0, -27558.404512215202, 0.182, 0.9580000000000001, -0.14200000000000002, 192.0, 0.0, 0.0, 0.0, 0.0, 0.0, 0.0, 0.0, 0.0, 0.0, 1.7296911515760312E9, 0.0, 2024-10-23 19:15:51.576
41.0, 21745.028703812208, 5259.23135986702, 43372.464880045045, 23203.41297428763, 15837.999086141479, 22524.657550413318, 187500.0, -27744.706302250186, 0.182, 0.9580000000000001, -0.14200000000000002, 192.0, 0.0, 0.0, 0.0, 0.0, 0.0, 0.0, 0.0, 0.0, 0.0, 1.7296911515826607E9, 0.0, 2024-10-23 19:15:51.582
42.0, 21763.558299965658, 5678.617141081946, 43430.73587784003, 23537.41509168328, 15823.783376667903, 22586.12484766541, 187500.0, -27619.536533300467, 0.182, 0.9580000000000001, -0.14200000000000002, 192.0, 0.0, 0.0, 0.0, 0.0, 0.0, 0.0, 0.0, 0.0, 0.0, 1.7296911515850253E9, 0.0, 2024-10-23 19:15:51.585
43.0, 21724.375691935504, 6133.765713425364, 43404.338467638314, 23602.52572328159, 15821.436443500095, 22591.623376801417, 187500.0, -27423.064699538318, 0.182, 0.9580000000000001, -0.14200000000000002, 192.0, 0.0, 0.0, 0.0, 0.0, 0.0, 0.0, 0.0, 0.0, 0.0, 1.7296911515890644E9, 0.0, 2024-10-23 19:15:51.589
44.0, 21676.073572167585, 6115.504338205378, 43345.77689716541, 23404.086936007374, 15823.537507478895, 22542.717759933206, 187500.0, -27415.08512676777, 0.182, 0.9580000000000001, -0.14200000000000002, 192.0, 0.0, 0.0, 0.0, 0.0, 0.0, 0.0, 0.0, 0.0, 0.0, 1.7296911515920308E9, 0.0, 2024-10-23 19:15:51.592
45.0, 21702.11335445802, 5707.495594918203, 43336.76914414992, 23232.22437289052, 15816.094376575278, 22501.903474557814, 187500.0, -27542.49007016302, 0.182, 0.9580000000000001, -0.14200000000000002, 192.0, 0.0, 0.0, 0.0, 0.0, 0.0, 0.0, 0.0, 0.0, 0.0, 1.72969115159614E9, 0.0, 2024-10-23 19:15:51.596
46.0, 21748.269706758227, 5262.561769790861, 43353.46589725804, 23191.9241776376, 15813.65803642965, 22494.594454120932, 187500.0, -27712.184514067714, 0.182, 0.9580000000000001, -0.14200000000000002, 192.0, 0.0, 0.0, 0.0, 0.0, 0.0, 0.0, 0.0, 0.0, 0.0, 1.7296911516001723E9, 0.0, 2024-10-23 19:15:51.600
47.0, 21767.26868954524, 5684.897981273888, 43415.13436021023, 23524.540486877024, 15832.768777938936, 22557.156986851336, 187500.0, -27607.4665912946, 0.182, 0.9580000000000001, -0.14200000000000002, 192.0, 0.0, 0.0, 0.0, 0.0, 0.0, 0.0, 0.0, 0.0, 0.0, 1.7296911516040711E9, 0.0, 2024-10-23 19:15:51.604
48.0, 21732.332912961592, 6138.414876272068, 43404.40552287168, 23598.636519746367, 15842.692952477093, 22608.208371187255, 187500.0, -27424.495211183457, 0.17200000000000001, 0.9540000000000001, -0.136, 192.0, 5.0, 96.0, 29.0, 208.0, 251.0, 192.0, 0.0, 0.0, 0.0, 1.7296911516091027E9, 0.0, 2024-10-23 19:15:51.609
49.0, 21685.394249605448, 6111.5927829257, 43347.72149893302, 23407.48440116458, 15842.42473154363, 22576.670059760818, 187500.0, -27409.184266231572, 0.17200000000000001, 0.9540000000000001, -0.136, 192.0, 0.0, 0.0, 0.0, 0.0, 0.0, 0.0, 0.0, 0.0, 0.0, 1.7296911516130767E9, 0.0, 2024-10-23 19:15:51.613
50.0, 21706.49429637126, 5694.21865871175, 43336.09859181626, 23237.052349692865, 15828.477243003517, 22519.069614299493, 187500.0, -27534.35403518129, 0.17200000000000001, 0.9540000000000001, -0.136, 192.0, 0.0, 0.0, 0.0, 0.0, 0.0, 0.0, 0.0, 0.0, 0.0, 1.729691151617072E9, 0.0, 2024-10-23 19:15:51.617
51.0, 21748.001485824763, 5242.556958503361, 43352.39301352418, 23203.59178824327, 15830.734769193503, 22529.060844071013, 187500.0, -27689.72101089013, 0.17200000000000001, 0.9540000000000001, -0.136, 192.0, 0.0, 0.0, 0.0, 0.0, 0.0, 0.0, 0.0, 0.0, 0.0, 1.7296911516201E9, 0.0, 2024-10-23 19:15:51.620
52.0, 21765.145273821985, 5660.489876328693, 43409.83699677432, 23535.649303871312, 15820.072987088322, 22575.016030671126, 187500.0, -27580.75625667051, 0.17200000000000001, 0.9540000000000001, -0.136, 192.0, 0.0, 0.0, 0.0, 0.0, 0.0, 0.0, 0.0, 0.0, 0.0, 1.7296911516240935E9, 0.0, 2024-10-23 19:15:51.624
53.0, 21723.615732624025, 6109.424663713535, 43393.00613319947, 23601.206970358726, 15839.474301275528, 22609.057737476556, 187500.0, -27406.680870852575, 0.17200000000000001, 0.9540000000000001, -0.136, 192.0, 0.0, 0.0, 0.0, 0.0, 0.0, 0.0, 0.0, 0.0, 0.0, 1.7296911516300993E9, 0.0, 2024-10-23 19:15:51.630
54.0, 21674.57600528908, 6078.758070320853, 43346.313339032335, 23412.87117157831, 15856.483978806018, 22599.625301316417, 187500.0, -27401.763487072407, 0.17200000000000001, 0.9540000000000001, -0.136, 192.0, 0.0, 0.0, 0.0, 0.0, 0.0, 0.0, 0.0, 0.0, 0.0, 1.7296911516331046E9, 0.0, 2024-10-23 19:15:51.633
55.0, 21693.329118887083, 5660.445172839782, 43331.24826326946, 23242.439120106596, 15838.110844863755, 22536.325161018987, 187500.0, -27569.513329209487, 0.17200000000000001, 0.9540000000000001, -0.136, 192.0, 0.0, 0.0, 0.0, 0.0, 0.0, 0.0, 0.0, 0.0, 0.0, 1.7296911516372056E9, 0.0, 2024-10-23 19:15:51.637
56.0, 21739.574878165113, 5215.891327368179, 43354.89640890317, 23218.65686400615, 15839.742522208993, 22537.554506964032, 187500.0, -27759.570212312963, 0.17200000000000001, 0.9540000000000001, -0.136, 192.0, 0.0, 0.0, 0.0, 0.0, 0.0, 0.0, 0.0, 0.0, 0.0, 1.729691151641137E9, 0.0, 2024-10-23 19:15:51.641
57.0, 21756.651610928966, 5640.820341208022, 43422.71160158057, 23558.09045530444, 15845.889251934203, 22617.37258641393, 187500.0, -27640.90480099974, 0.17200000000000001, 0.9540000000000001, -0.136, 192.0, 0.0, 0.0, 0.0, 0.0, 0.0, 0.0, 0.0, 0.0, 0.0, 1.729691151645242E9, 0.0, 2024-10-23 19:15:51.645
58.0, 21717.603113365545, 6088.972817536929, 43410.1946246856, 23619.043662434062, 15859.65792651867, 22625.41921441784, 187500.0, -27473.311421073846, 0.17200000000000001, 0.9500000000000001, -0.14, 192.0, 5.0, 96.0, 29.0, 176.0, 251.0, 160.0, 0.0, 0.0, 0.0, 1.7296911516481185E9, 0.0, 2024-10-23 19:15:51.648
59.0, 21663.377781316973, 6048.136180417083, 43354.29291180288, 23417.76620361402, 15853.33238283782, 22575.351306837954, 187500.0, -27458.492214499976, 0.17200000000000001, 0.9500000000000001, -0.14, 192.0, 0.0, 0.0, 0.0, 0.0, 0.0, 0.0, 0.0, 0.0, 0.0, 1.729691151652269E9, 0.0, 2024-10-23 19:15:51.652
60.0, 21681.505046070226, 5631.1643876033295, 43342.893522130675, 23249.479919610014, 15856.416923572651, 22542.78481516657, 187500.0, -27596.111905111302, 0.17200000000000001, 0.9500000000000001, -0.14, 192.0, 0.0, 0.0, 0.0, 0.0, 0.0, 0.0, 0.0, 0.0, 0.0, 1.729691151658162E9, 0.0, 2024-10-23 19:15:51.658
61.0, 21727.19201173687, 5188.801013088348, 43368.061586387346, 23220.08737565129, 15860.775513741437, 22540.996675610146, 187500.0, -27766.36514262738, 0.17200000000000001, 0.9500000000000001, -0.14, 192.0, 0.0, 0.0, 0.0, 0.0, 0.0, 0.0, 0.0, 0.0, 0.0, 1.7296911516611614E9, 0.0, 2024-10-23 19:15:51.661
62.0, 21741.742997377278, 5612.7912536610675, 43432.32285169636, 23548.881536588855, 15860.060257918867, 22599.200618171766, 187500.0, -27631.919399728704, 0.17200000000000001, 0.9500000000000001, -0.14, 192.0, 0.0, 0.0, 0.0, 0.0, 0.0, 0.0, 0.0, 0.0, 0.0, 1.7296911516651783E9, 0.0, 2024-10-23 19:15:51.665
63.0, 21706.360185904527, 6065.950520747962, 43416.83309278883, 23611.108793152427, 15856.349868339286, 22603.24628391818, 187500.0, -27460.705037201053, 0.17200000000000001, 0.9500000000000001, -0.14, 192.0, 0.0, 0.0, 0.0, 0.0, 0.0, 0.0, 0.0, 0.0, 0.0, 1.7296911516692078E9, 0.0, 2024-10-23 19:15:51.669
64.0, 21657.85690043651, 6030.925337186496, 43358.204467082556, 23410.948921555155, 15848.392647313196, 22543.27655354459, 187500.0, -27450.289124284882, 0.17200000000000001, 0.9500000000000001, -0.14, 192.0, 0.0, 0.0, 0.0, 0.0, 0.0, 0.0, 0.0, 0.0, 0.0, 1.7296911516731932E9, 0.0, 2024-10-23 19:15:51.673
65.0, 21679.985127447264, 5621.530785743093, 43347.67679544411, 23245.36719863024, 15848.124426379733, 22510.240675239645, 187500.0, -27603.778553459473, 0.17200000000000001, 0.9500000000000001, -0.14, 192.0, 0.0, 0.0, 0.0, 0.0, 0.0, 0.0, 0.0, 0.0, 0.0, 1.7296911516761768E9, 0.0, 2024-10-23 19:15:51.676
66.0, 21728.86839257102, 5183.8836293081795, 43370.721443977534, 23218.65686400615, 15846.716266479048, 22499.69065185674, 187500.0, -27760.73250302464, 0.17200000000000001, 0.9500000000000001, -0.14, 192.0, 0.0, 0.0, 0.0, 0.0, 0.0, 0.0, 0.0, 0.0, 0.0, 1.729691151680194E9, 0.0, 2024-10-23 19:15:51.680
67.0, 21750.281363759204, 5623.2965735550615, 43424.92442428165, 23546.08756853194, 15841.575365254328, 22565.673001488805, 187500.0, -27616.89902745474, 0.17200000000000001, 0.9500000000000001, -0.14, 192.0, 0.0, 0.0, 0.0, 0.0, 0.0, 0.0, 0.0, 0.0, 0.0, 1.7296911516843805E9, 0.0, 2024-10-23 19:15:51.684
68.0, 21713.15511621894, 6071.20318069496, 43399.77871176943, 23598.703574979732, 15843.162339110655, 22592.673908790817, 187500.0, -27447.070473083317, 0.17200000000000001, 0.9560000000000001, -0.14200000000000002, 192.0, 5.0, 96.0, 29.0, 224.0, 251.0, 144.0, 0.0, 0.0, 0.0, 1.7296911516881878E9, 0.0, 2024-10-23 19:15:51.688
69.0, 21660.449702793325, 6028.511348785323, 43339.56311220683, 23393.78278181348, 15844.70460947807, 22534.55937320702, 187500.0, -27452.546650474866, 0.17200000000000001, 0.9560000000000001, -0.14200000000000002, 192.0, 0.0, 0.0, 0.0, 0.0, 0.0, 0.0, 0.0, 0.0, 0.0, 1.729691151692197E9, 0.0, 2024-10-23 19:15:51.692
70.0, 21686.57889206158, 5618.535651986081, 43333.63989992618, 23234.794823502878, 15845.285754833909, 22508.49723917213, 187500.0, -27581.829140404363, 0.17200000000000001, 0.9560000000000001, -0.14200000000000002, 192.0, 0.0, 0.0, 0.0, 0.0, 0.0, 0.0, 0.0, 0.0, 0.0, 1.7296911516971912E9, 0.0, 2024-10-23 19:15:51.697
71.0, 21734.881011829497, 5186.5211351539065, 43348.05677509985, 23207.391584800673, 15834.17693783962, 22518.73433813266, 187500.0, -27753.02115118756, 0.17200000000000001, 0.9560000000000001, -0.14200000000000002, 192.0, 0.0, 0.0, 0.0, 0.0, 0.0, 0.0, 0.0, 0.0, 0.0, 1.729691151701184E9, 0.0, 2024-10-23 19:15:51.701
72.0, 21753.142387049484, 5628.3480678019605, 43401.58920307031, 23540.857260329398, 15832.27703956092, 22592.226873901713, 187500.0, -27653.131205216792, 0.17200000000000001, 0.9560000000000001, -0.14200000000000002, 192.0, 0.0, 0.0, 0.0, 0.0, 0.0, 0.0, 0.0, 0.0, 0.0, 1.7296911517042472E9, 0.0, 2024-10-23 19:15:51.704
73.0, 21716.329063931593, 6073.527762118311, 43380.0421214154, 23600.37995581388, 15836.054484373866, 22599.491190849687, 187500.0, -27475.05485714136, 0.17200000000000001, 0.9560000000000001, -0.14200000000000002, 192.0, 0.0, 0.0, 0.0, 0.0, 0.0, 0.0, 0.0, 0.0, 0.0, 1.7296911517082095E9, 0.0, 2024-10-23 19:15:51.708
74.0, 21671.42440932088, 6034.412209321525, 43323.179283521094, 23402.544665639958, 15839.51900476444, 22568.623431756907, 187500.0, -27453.217202808526, 0.17200000000000001, 0.9560000000000001, -0.14200000000000002, 192.0, 0.0, 0.0, 0.0, 0.0, 0.0, 0.0, 0.0, 0.0, 0.0, 1.7296911517122278E9, 0.0, 2024-10-23 19:15:51.712
75.0, 21703.14153470296, 5626.962259645732, 43317.300774729345, 23241.433291606107, 15847.431522301618, 22537.04041684156, 187500.0, -27600.135219113257, 0.17200000000000001, 0.9560000000000001, -0.14200000000000002, 192.0, 0.0, 0.0, 0.0, 0.0, 0.0, 0.0, 0.0, 0.0, 0.0, 1.7296911517162304E9, 0.0, 2024-10-23 19:15:51.716
76.0, 21750.102549803563, 5188.398681688152, 43339.16078080664, 23213.605369759247, 15842.223565843531, 22513.97341656368, 187500.0, -27772.198947930214, 0.17200000000000001, 0.9560000000000001, -0.14200000000000002, 192.0, 0.0, 0.0, 0.0, 0.0, 0.0, 0.0, 0.0, 0.0, 0.0, 1.7296911517202046E9, 0.0, 2024-10-23 19:15:51.720
77.0, 21766.754599422766, 5628.728047457701, 43398.54936582439, 23545.84169934293, 15837.70851346356, 22591.66808029033, 187500.0, -27636.61326606432, 0.17200000000000001, 0.9560000000000001, -0.14200000000000002, 192.0, 0.0, 0.0, 0.0, 0.0, 0.0, 0.0, 0.0, 0.0, 0.0, 1.7296911517252443E9, 0.0, 2024-10-23 19:15:51.725
78.0, 21731.9305815614, 6076.34408191968, 43383.26077261696, 23601.788115714564, 15837.864975674747, 22602.687490306795, 187500.0, -27484.934328190608, 0.178, 0.9480000000000001, -0.14200000000000002, 192.0, 5.0, 144.0, 29.0, 160.0, 251.0, 144.0, 0.0, 0.0, 0.0, 1.729691151730319E9, 0.0, 2024-10-23 19:15:51.730
79.0, 21680.990955947753, 6027.505520284834, 43329.14719929066, 23400.845933061355, 15838.736693708504, 22553.446597271755, 187500.0, -27478.13939787619, 0.178, 0.9480000000000001, -0.14200000000000002, 192.0, 0.0, 0.0, 0.0, 0.0, 0.0, 0.0, 0.0, 0.0, 0.0, 1.729691151734316E9, 0.0, 2024-10-23 19:15:51.734
80.0, 21697.978281733787, 5608.544422214559, 43319.87122534171, 23236.73942527049, 15840.144853609188, 22523.09292830145, 187500.0, -27622.2187426351, 0.178, 0.9480000000000001, -0.14200000000000002, 192.0, 0.0, 0.0, 0.0, 0.0, 0.0, 0.0, 0.0, 0.0, 0.0, 1.7296911517372606E9, 0.0, 2024-10-23 19:15:51.737
81.0, 21746.772139879722, 5179.7709083284035, 43347.922664633115, 23217.919256439123, 15847.342115323796, 22529.39612023784, 187500.0, -27782.59250910193, 0.178, 0.9480000000000001, -0.14200000000000002, 192.0, 0.0, 0.0, 0.0, 0.0, 0.0, 0.0, 0.0, 0.0, 0.0, 1.7296911517472641E9, 0.0, 2024-10-23 19:15:51.747
82.0, 21766.93341337841, 5632.751361459656, 43413.994421243005, 23548.36744646638, 15859.769685240948, 22588.583539555497, 187500.0, -27671.727856603608, 0.178, 0.9480000000000001, -0.14200000000000002, 192.0, 0.0, 0.0, 0.0, 0.0, 0.0, 0.0, 0.0, 0.0, 0.0, 1.7296911517502513E9, 0.0, 2024-10-23 19:15:51.750
83.0, 21727.795508837167, 6075.405308652557, 43397.58824081281, 23599.70940348022, 15851.924222937134, 22584.537873809084, 187500.0, -27503.888607488705, 0.178, 0.9480000000000001, -0.14200000000000002, 192.0, 0.0, 0.0, 0.0, 0.0, 0.0, 0.0, 0.0, 0.0, 0.0, 1.7296911517542927E9, 0.0, 2024-10-23 19:15:51.754
84.0, 21677.66054602391, 6027.349058073647, 43345.843952398776, 23399.01309001602, 15858.249766617986, 22545.824652412495, 187500.0, -27497.317194618845, 0.178, 0.9480000000000001, -0.14200000000000002, 192.0, 0.0, 0.0, 0.0, 0.0, 0.0, 0.0, 0.0, 0.0, 0.0, 1.7296911517573247E9, 0.0, 2024-10-23 19:15:51.757
85.0, 21697.084211955575, 5606.5104134691255, 43340.83716164078, 23238.236992148995, 15856.171054383643, 22505.747974604128, 187500.0, -27634.601609063342, 0.178, 0.9480000000000001, -0.14200000000000002, 192.0, 0.0, 0.0, 0.0, 0.0, 0.0, 0.0, 0.0, 0.0, 0.0, 1.7296911517603352E9, 0.0, 2024-10-23 19:15:51.760
86.0, 21744.82753811211, 5182.162544985121, 43367.48044103151, 23219.282712850894, 15857.735676495515, 22526.35628299192, 187500.0, -27798.104619753914, 0.178, 0.9480000000000001, -0.14200000000000002, 192.0, 0.0, 0.0, 0.0, 0.0, 0.0, 0.0, 0.0, 0.0, 0.0, 1.729691151763324E9, 0.0, 2024-10-23 19:15:51.763
87.0, 21755.757541150757, 5631.499663770159, 43427.472523149554, 23547.875708088366, 15857.847435217791, 22585.074315676015, 187500.0, -27664.888222800284, 0.178, 0.9480000000000001, -0.14200000000000002, 192.0, 0.0, 0.0, 0.0, 0.0, 0.0, 0.0, 0.0, 0.0, 0.0, 1.729691151767342E9, 0.0, 2024-10-23 19:15:51.767
88.0, 21715.01031100873, 6072.052546984261, 43409.63583107422, 23596.6695662343, 15859.345002096297, 22601.547551339576, 187500.0, -27496.311366118356, 0.182, 0.9520000000000001, -0.14, 192.0, 5.0, 176.0, 29.0, 192.0, 251.0, 160.0, 0.0, 0.0, 0.0, 1.7296911517702737E9, 0.0, 2024-10-23 19:15:51.770
89.0, 21659.175653359373, 6017.38018004658, 43346.26863554343, 23389.848874789343, 15845.442217045096, 22551.07731235949, 187500.0, -27512.426973870635, 0.182, 0.9520000000000001, -0.14, 192.0, 0.0, 0.0, 0.0, 0.0, 0.0, 0.0, 0.0, 0.0, 0.0, 1.7296911517744222E9, 0.0, 2024-10-23 19:15:51.774
90.0, 21682.421467592892, 5602.44239597826, 43343.56407446433, 23235.97946595901, 15857.847435217791, 22522.623541667886, 187500.0, -27661.647219854265, 0.182, 0.9520000000000001, -0.14, 192.0, 0.0, 0.0, 0.0, 0.0, 0.0, 0.0, 0.0, 0.0, 0.0, 1.7296911517774076E9, 0.0, 2024-10-23 19:15:51.777
91.0, 21738.747863620265, 5186.632893876183, 43377.494022547486, 23228.536335055393, 15853.824121215835, 22503.333986202953, 187500.0, -27804.60897739041, 0.182, 0.9520000000000001, -0.14, 192.0, 0.0, 0.0, 0.0, 0.0, 0.0, 0.0, 0.0, 0.0, 0.0, 1.7296911517814133E9, 0.0, 2024-10-23 19:15:51.781
92.0, 21753.343552749582, 5644.933062187799, 43432.54636914091, 23552.61427791289, 15843.207042599564, 22562.856681687437, 187500.0, -27669.067999013427, 0.182, 0.9520000000000001, -0.14, 192.0, 0.0, 0.0, 0.0, 0.0, 0.0, 0.0, 0.0, 0.0, 0.0, 1.7296911517853367E9, 0.0, 2024-10-23 19:15:51.785
93.0, 21716.23965695377, 6083.854268056663, 43408.2947264069, 23598.882388935377, 15847.520929279439, 22599.245321660677, 187500.0, -27512.136401192714, 0.182, 0.9520000000000001, -0.14, 192.0, 0.0, 0.0, 0.0, 0.0, 0.0, 0.0, 0.0, 0.0, 0.0, 1.7296911517884233E9, 0.0, 2024-10-23 19:15:51.788
94.0, 21668.876310452975, 6028.801921463242, 43353.22002806902, 23393.402802157736, 15854.628784016228, 22538.381521508876, 187500.0, -27501.876950487727, 0.182, 0.9520000000000001, -0.14, 192.0, 0.0, 0.0, 0.0, 0.0, 0.0, 0.0, 0.0, 0.0, 0.0, 1.729691151792438E9, 0.0, 2024-10-23 19:15:51.792
95.0, 21701.599264335546, 5619.474425253204, 43356.8857141597, 23244.204907918564, 15869.157417912176, 22536.191050552257, 187500.0, -27639.071957954402, 0.182, 0.9520000000000001, -0.14, 192.0, 0.0, 0.0, 0.0, 0.0, 0.0, 0.0, 0.0, 0.0, 0.0, 1.729691151796438E9, 0.0, 2024-10-23 19:15:51.796
96.0, 21750.43782597039, 5202.45792895054, 43381.02559817143, 23231.375006601218, 15855.142874138699, 22533.419434239797, 187500.0, -27793.723677840673, 0.182, 0.9520000000000001, -0.14, 192.0, 0.0, 0.0, 0.0, 0.0, 0.0, 0.0, 0.0, 0.0, 0.0, 1.7296911518003955E9, 0.0, 2024-10-23 19:15:51.800
97.0, 21758.81973014113, 5660.5122280731475, 43427.78544757193, 23548.814481355486, 15839.60841174226, 22591.42221110132, 187500.0, -27644.726949301596, 0.182, 0.9520000000000001, -0.14, 192.0, 0.0, 0.0, 0.0, 0.0, 0.0, 0.0, 0.0, 0.0, 0.0, 1.7296911518044512E9, 0.0, 2024-10-23 19:15:51.804
98.0, 21720.665302355923, 6095.566582151245, 43398.906993735676, 23585.76191494011, 15847.029190901423, 22594.66321404734, 187500.0, -27499.127685919728, 0.188, 0.9460000000000001, -0.136, 192.0, 5.0, 224.0, 29.0, 144.0, 251.0, 192.0, 0.0, 0.0, 0.0, 1.7296911518084583E9, 0.0, 2024-10-23 19:15:51.808
99.0, 21669.14453138644, 6035.95447968894, 43342.02180409692, 23385.15500845373, 15844.592850755795, 22553.156024593834, 187500.0, -27479.05581939886, 0.188, 0.9460000000000001, -0.136, 192.0, 0.0, 0.0, 0.0, 0.0, 0.0, 0.0, 0.0, 0.0, 0.0, 1.7296911518133795E9, 0.0, 2024-10-23 19:15:51.813
100.0, 21694.379650876483, 5618.222727563707, 43328.34253649027, 23225.45179432056, 15839.071969875333, 22521.17067827829, 187500.0, -27624.45391708063, 0.188, 0.9460000000000001, -0.136, 192.0, 0.0, 0.0, 0.0, 0.0, 0.0, 0.0, 0.0, 0.0, 0.0, 1.729691151816389E9, 0.0, 2024-10-23 19:15:51.816
101.0, 21745.520442190224, 5200.4909754384735, 43350.582522223296, 23213.337148825784, 15837.954382652568, 22509.391308950344, 187500.0, -27804.050183779025, 0.188, 0.9460000000000001, -0.136, 192.0, 0.0, 0.0, 0.0, 0.0, 0.0, 0.0, 0.0, 0.0, 0.0, 1.729691151820371E9, 0.0, 2024-10-23 19:15:51.820
102.0, 21753.29884926067, 5656.623024537925, 43400.62807805873, 23536.27515271606, 15836.27800181842, 22580.04517317357, 187500.0, -27676.511129917042, 0.188, 0.9460000000000001, -0.136, 192.0, 0.0, 0.0, 0.0, 0.0, 0.0, 0.0, 0.0, 0.0, 0.0, 1.729691151824456E9, 0.0, 2024-10-23 19:15:51.824
103.0, 21717.133726731983, 6093.756090850365, 43375.21414461305, 23575.971850868686, 15844.816368200347, 22587.309490121545, 187500.0, -27530.509535134977, 0.188, 0.9460000000000001, -0.136, 192.0, 0.0, 0.0, 0.0, 0.0, 0.0, 0.0, 0.0, 0.0, 0.0, 1.7296911518284047E9, 0.0, 2024-10-23 19:15:51.828
104.0, 21671.178540131874, 6029.628936008088, 43324.14040853267, 23374.493226348546, 15844.078760633322, 22549.065655358514, 187500.0, -27539.60669512829, 0.188, 0.9460000000000001, -0.136, 192.0, 0.0, 0.0, 0.0, 0.0, 0.0, 0.0, 0.0, 0.0, 0.0, 1.729691151832388E9, 0.0, 2024-10-23 19:15:51.832
105.0, 21697.39713637795, 5604.744625657157, 43321.41349570912, 23218.947436684066, 15845.017533900445, 22498.573064633976, 187500.0, -27668.129225746303, 0.188, 0.9460000000000001, -0.136, 192.0, 0.0, 0.0, 0.0, 0.0, 0.0, 0.0, 0.0, 0.0, 0.0, 1.7296911518394E9, 0.0, 2024-10-23 19:15:51.839
106.0, 21749.40964572545, 5188.890420066169, 43349.5319902339, 23207.324529567308, 15843.721132722038, 22487.06191623949, 187500.0, -27810.420430948787, 0.188, 0.9460000000000001, -0.136, 192.0, 0.0, 0.0, 0.0, 0.0, 0.0, 0.0, 0.0, 0.0, 0.0, 1.7296911518424537E9, 0.0, 2024-10-23 19:15:51.842
107.0, 21758.8867853745, 5657.204169893762, 43411.31221190837, 23532.56476313648, 15851.097208392288, 22585.454295331754, 187500.0, -27694.370173736832, 0.188, 0.9460000000000001, -0.136, 192.0, 0.0, 0.0, 0.0, 0.0, 0.0, 0.0, 0.0, 0.0, 0.0, 1.7296911518463912E9, 0.0, 2024-10-23 19:15:51.846
108.0, 21720.955875033844, 6088.72694834792, 43397.007095456975, 23573.04377234504, 15850.22549035853, 22588.98587095569, 187500.0, -27548.92737256615, 0.188, 0.9460000000000001, -0.136, 192.0, 0.0, 0.0, 0.0, 0.0, 0.0, 0.0, 0.0, 0.0, 0.0, 1.729691151849435E9, 0.0, 2024-10-23 19:15:51.849
109.0, 21674.844226222544, 6021.917584171008, 43346.55920822134, 23373.53210133697, 15853.0418101599, 22548.618620469406, 187500.0, -27535.605732870787, 0.18, 0.9500000000000001, -0.14, 192.0, 5.0, 160.0, 29.0, 176.0, 251.0, 160.0, 0.0, 0.0, 0.0, 1.729691151852523E9, 0.0, 2024-10-23 19:15:51.852
110.0, 21697.598302078048, 5598.083805809475, 43342.35708026375, 23222.657826263647, 15849.174958369133, 22523.607018423918, 187500.0, -27669.53738564699, 0.18, 0.9500000000000001, -0.14, 192.0, 0.0, 0.0, 0.0, 0.0, 0.0, 0.0, 0.0, 0.0, 0.0, 1.729691151856498E9, 0.0, 2024-10-23 19:15:51.856
111.0, 21746.705084646357, 5184.665940364116, 43370.654388744166, 23220.86968670722, 15846.76096996796, 22523.09292830145, 187500.0, -27820.255198509123, 0.18, 0.9500000000000001, -0.14, 192.0, 0.0, 0.0, 0.0, 0.0, 0.0, 0.0, 0.0, 0.0, 0.0, 1.7296911518625307E9, 0.0, 2024-10-23 19:15:51.862
112.0, 21756.137520806496, 5653.180855891807, 43428.053668505396, 23547.205155754706, 15853.287679348909, 22577.809998728037, 187500.0, -27688.134037033804, 0.18, 0.9500000000000001, -0.14, 192.0, 0.0, 0.0, 0.0, 0.0, 0.0, 0.0, 0.0, 0.0, 0.0, 1.7296911518654413E9, 0.0, 2024-10-23 19:15:51.865
113.0, 21717.15607847644, 6085.575352379722, 43409.41231362967, 23588.891159163853, 15860.239071874508, 22589.969347711725, 187500.0, -27524.362805409768, 0.18, 0.9500000000000001, -0.14, 192.0, 0.0, 0.0, 0.0, 0.0, 0.0, 0.0, 0.0, 0.0, 0.0, 1.7296911518694284E9, 0.0, 2024-10-23 19:15:51.869
114.0, 21668.7645517307, 6017.38018004658, 43355.09757460327, 23388.597177099848, 15862.451894575584, 22559.861547930428, 187500.0, -27537.393872427212, 0.18, 0.9500000000000001, -0.14, 192.0, 0.0, 0.0, 0.0, 0.0, 0.0, 0.0, 0.0, 0.0, 0.0, 1.72969115187265E9, 0.0, 2024-10-23 19:15:51.872
115.0, 21692.457400853327, 5593.255829007128, 43348.43675475559, 23240.69568403908, 15854.56172878286, 22539.94614362075, 187500.0, -27670.453807169655, 0.18, 0.9500000000000001, -0.14, 192.0, 0.0, 0.0, 0.0, 0.0, 0.0, 0.0, 0.0, 0.0, 0.0, 1.7296911518764365E9, 0.0, 2024-10-23 19:15:51.876
116.0, 21743.620543911522, 5183.235428718976, 43375.325903335324, 23231.754986256958, 15867.369278355753, 22524.724605646683, 187500.0, -27840.148251074344, 0.18, 0.9500000000000001, -0.14, 192.0, 0.0, 0.0, 0.0, 0.0, 0.0, 0.0, 0.0, 0.0, 0.0, 1.7296911518804984E9, 0.0, 2024-10-23 19:15:51.880
117.0, 21752.181262037906, 5647.816437222533, 43429.77475282845, 23542.868917330376, 15862.675412020137, 22570.0762951465, 187500.0, -27734.960941667672, 0.18, 0.9500000000000001, -0.14, 192.0, 0.0, 0.0, 0.0, 0.0, 0.0, 0.0, 0.0, 0.0, 0.0, 1.7296911518846655E9, 0.0, 2024-10-23 19:15:51.884
118.0, 21718.11720348802, 6082.267294200336, 43415.82726428834, 23585.627804473377, 15871.973737713544, 22630.13543249791, 187500.0, -27578.27521303597, 0.18, 0.9500000000000001, -0.14, 192.0, 0.0, 0.0, 0.0, 0.0, 0.0, 0.0, 0.0, 0.0, 0.0, 1.7296911518904617E9, 0.0, 2024-10-23 19:15:51.890
119.0, 21671.67027850989, 6008.99827587584, 43355.58931298129, 23375.566110082404, 15855.254632860975, 22549.13271059188, 187500.0, -27572.419055988677, 0.18, 0.9520000000000001, -0.14, 192.0, 5.0, 160.0, 29.0, 192.0, 251.0, 160.0, 0.0, 0.0, 0.0, 1.7296911518936243E9, 0.0, 2024-10-23 19:15:51.893
120.0, 21696.10073519954, 5584.113965524908, 43345.95571112105, 23217.427518061104, 15849.42082755814, 22536.392216252356, 187500.0, -27705.90367387577, 0.18, 0.9520000000000001, -0.14, 192.0, 0.0, 0.0, 0.0, 0.0, 0.0, 0.0, 0.0, 0.0, 0.0, 1.72969115189652E9, 0.0, 2024-10-23 19:15:51.896
121.0, 21745.766311379233, 5171.299597179842, 43367.68160673161, 23201.870703920213, 15839.966039653546, 22515.26981774209, 187500.0, -27868.490263043674, 0.18, 0.9520000000000001, -0.14, 192.0, 0.0, 0.0, 0.0, 0.0, 0.0, 0.0, 0.0, 0.0, 0.0, 1.7296911519005454E9, 0.0, 2024-10-23 19:15:51.900
122.0, 21750.77310213722, 5642.049687153064, 43415.4472846326, 23515.577437350446, 15839.60841174226, 22542.42718725529, 187500.0, -27734.4468515452, 0.18, 0.9520000000000001, -0.14, 192.0, 0.0, 0.0, 0.0, 0.0, 0.0, 0.0, 0.0, 0.0, 0.0, 1.7296911519045289E9, 0.0, 2024-10-23 19:15:51.904
123.0, 21715.30088368665, 6077.394613909079, 43392.84967098828, 23550.960248823198, 15846.917432179145, 22558.36398105192, 187500.0, -27601.185751102657, 0.18, 0.9520000000000001, -0.14, 192.0, 0.0, 0.0, 0.0, 0.0, 0.0, 0.0, 0.0, 0.0, 0.0, 1.72969115190851E9, 0.0, 2024-10-23 19:15:51.908
124.0, 21668.85395870852, 6004.594982218145, 43333.97517609301, 23348.29698184693, 15840.793054198391, 22528.21147778171, 187500.0, -27627.13612641527, 0.18, 0.9520000000000001, -0.14, 192.0, 0.0, 0.0, 0.0, 0.0, 0.0, 0.0, 0.0, 0.0, 0.0, 1.7296911519124942E9, 0.0, 2024-10-23 19:15:51.912
125.0, 21694.08907819856, 5579.129526511375, 43328.990737079475, 23203.480029520993, 15847.744446723993, 22516.677977642772, 187500.0, -27780.78201780105, 0.18, 0.9520000000000001, -0.14, 192.0, 0.0, 0.0, 0.0, 0.0, 0.0, 0.0, 0.0, 0.0, 0.0, 1.7296911519195004E9, 0.0, 2024-10-23 19:15:51.919
126.0, 21746.54862243517, 5170.249065190443, 43361.24430432848, 23204.21763708802, 15847.856205446269, 22511.40296595132, 187500.0, -27923.833182315015, 0.18, 0.9520000000000001, -0.14, 192.0, 0.0, 0.0, 0.0, 0.0, 0.0, 0.0, 0.0, 0.0, 0.0, 1.7296911519225261E9, 0.0, 2024-10-23 19:15:51.922
127.0, 21750.862509115042, 5645.916538943832, 43410.52990085243, 23519.37723390785, 15839.071969875333, 22568.958707923735, 187500.0, -27764.26407864858, 0.18, 0.9520000000000001, -0.14, 192.0, 0.0, 0.0, 0.0, 0.0, 0.0, 0.0, 0.0, 0.0, 0.0, 1.7296911519265287E9, 0.0, 2024-10-23 19:15:51.926
128.0, 21713.289226685672, 6078.467497642934, 43382.56786853884, 23548.546260422023, 15832.902888405668, 22560.576803752996, 187500.0, -27603.957367415118, 0.18, 0.9520000000000001, -0.14, 192.0, 0.0, 0.0, 0.0, 0.0, 0.0, 0.0, 0.0, 0.0, 0.0, 1.7296911519295125E9, 0.0, 2024-10-23 19:15:51.929
129.0, 21668.98806917525, 6006.5395839857565, 43325.59327192227, 23345.726531234566, 15838.759045452958, 22538.336818019965, 187500.0, -27631.71823402861, 0.182, 0.9580000000000001, -0.14200000000000002, 192.0, 5.0, 176.0, 29.0, 240.0, 251.0, 144.0, 0.0, 0.0, 0.0, 1.7296911519325233E9, 0.0, 2024-10-23 19:15:51.932
130.0, 21690.53515083017, 5577.184924743763, 43319.893577086164, 23193.98053812749, 15844.592850755795, 22509.413660694798, 187500.0, -27800.339794199444, 0.182, 0.9580000000000001, -0.14200000000000002, 192.0, 0.0, 0.0, 0.0, 0.0, 0.0, 0.0, 0.0, 0.0, 0.0, 1.7296911519365425E9, 0.0, 2024-10-23 19:15:51.936
131.0, 21744.581668923103, 5171.634873346672, 43354.53878099189, 23202.921235909613, 15853.645307260193, 22517.348529976432, 187500.0, -27955.974990841747, 0.182, 0.9580000000000001, -0.14200000000000002, 192.0, 0.0, 0.0, 0.0, 0.0, 0.0, 0.0, 0.0, 0.0, 0.0, 1.7296911519405425E9, 0.0, 2024-10-23 19:15:51.940
132.0, 21746.034532312697, 5649.425762823315, 43405.07607520534, 23524.94281827722, 15845.442217045096, 22571.685620747285, 187500.0, -27813.773192617085, 0.182, 0.9580000000000001, -0.14200000000000002, 192.0, 0.0, 0.0, 0.0, 0.0, 0.0, 0.0, 0.0, 0.0, 0.0, 1.7296911519445436E9, 0.0, 2024-10-23 19:15:51.944
133.0, 21699.900531756943, 6072.946616762473, 43373.3365980788, 23551.451987201213, 15840.256612331465, 22573.2278911147, 187500.0, -27669.269164713525, 0.182, 0.9580000000000001, -0.14200000000000002, 192.0, 0.0, 0.0, 0.0, 0.0, 0.0, 0.0, 0.0, 0.0, 0.0, 1.7296911519485521E9, 0.0, 2024-10-23 19:15:51.948
134.0, 21660.650868493423, 5997.084796081162, 43330.600062680256, 23352.00737142651, 15859.814388729857, 22541.488413988165, 187500.0, -27662.80951056594, 0.182, 0.9580000000000001, -0.14200000000000002, 192.0, 0.0, 0.0, 0.0, 0.0, 0.0, 0.0, 0.0, 0.0, 0.0, 1.7296911519545596E9, 0.0, 2024-10-23 19:15:51.954
135.0, 21688.00940370672, 5572.334596196962, 43330.7788766359, 23202.138924853676, 15865.491731821507, 22512.431146196264, 187500.0, -27808.766401859095, 0.182, 0.9580000000000001, -0.14200000000000002, 192.0, 0.0, 0.0, 0.0, 0.0, 0.0, 0.0, 0.0, 0.0, 0.0, 1.7296911519576862E9, 0.0, 2024-10-23 19:15:51.957
136.0, 21741.184203765893, 5165.9798819994785, 43359.65733047215, 23206.25164583345, 15861.110789908265, 22517.482640443166, 187500.0, -27953.13631929592, 0.182, 0.9580000000000001, -0.14200000000000002, 192.0, 0.0, 0.0, 0.0, 0.0, 0.0, 0.0, 0.0, 0.0, 0.0, 1.7296911519605727E9, 0.0, 2024-10-23 19:15:51.960
137.0, 21747.867375358033, 5652.622062280424, 43409.389961885216, 23527.93795203423, 15856.059295661367, 22576.915928949828, 187500.0, -27798.953986043216, 0.182, 0.9580000000000001, -0.14200000000000002, 192.0, 0.0, 0.0, 0.0, 0.0, 0.0, 0.0, 0.0, 0.0, 0.0, 1.72969115196456E9, 0.0, 2024-10-23 19:15:51.964
138.0, 21708.751822561244, 6085.888276802097, 43385.607705784765, 23560.504443705613, 15861.446066075096, 22586.460123832243, 187500.0, -27660.70844658714, 0.182, 0.9580000000000001, -0.14200000000000002, 192.0, 0.0, 0.0, 0.0, 0.0, 0.0, 0.0, 0.0, 0.0, 0.0, 1.7296911519686723E9, 0.0, 2024-10-23 19:15:51.968
139.0, 21658.70626672581, 6001.599848461134, 43328.409591723634, 23353.773159238477, 15853.108865393266, 22560.375638052898, 187500.0, -27678.679249129207, 0.184, 0.9540000000000001, -0.14200000000000002, 192.0, 5.0, 192.0, 29.0, 208.0, 251.0, 144.0, 0.0, 0.0, 0.0, 1.729691151978592E9, 0.0, 2024-10-23 19:15:51.978
140.0, 21680.7674385032, 5571.976968285677, 43321.88288234269, 23204.865837677222, 15838.624934986226, 22516.096832286934, 187500.0, -27814.510800184107, 0.184, 0.9540000000000001, -0.14200000000000002, 192.0, 0.0, 0.0, 0.0, 0.0, 0.0, 0.0, 0.0, 0.0, 0.0, 1.729691151981666E9, 0.0, 2024-10-23 19:15:51.981
141.0, 21737.87614558651, 5173.601826858739, 43351.29777804587, 23208.509172023438, 15846.917432179145, 22500.003576279116, 187500.0, -27973.92344163936, 0.184, 0.9540000000000001, -0.14200000000000002, 192.0, 0.0, 0.0, 0.0, 0.0, 0.0, 0.0, 0.0, 0.0, 0.0, 1.7296911519845831E9, 0.0, 2024-10-23 19:15:51.984
142.0, 21744.738131134287, 5666.658957798357, 43402.97501122654, 23528.60850436789, 15855.321688094342, 22564.84598694396, 187500.0, -27836.84019289496, 0.184, 0.9540000000000001, -0.14200000000000002, 192.0, 0.0, 0.0, 0.0, 0.0, 0.0, 0.0, 0.0, 0.0, 0.0, 1.7296911519878254E9, 0.0, 2024-10-23 19:15:51.987
143.0, 21708.461249883327, 6100.841593842697, 43381.11500514925, 23568.32755426497, 15852.974754926534, 22596.116077436935, 187500.0, -27676.28761247249, 0.184, 0.9540000000000001, -0.14200000000000002, 192.0, 0.0, 0.0, 0.0, 0.0, 0.0, 0.0, 0.0, 0.0, 0.0, 1.7296911519917076E9, 0.0, 2024-10-23 19:15:51.991
144.0, 21659.980316159763, 6012.708665455421, 43320.09474278626, 23362.62445004278, 15841.307144320865, 22564.913042177326, 187500.0, -27674.410065938246, 0.184, 0.9540000000000001, -0.14200000000000002, 192.0, 0.0, 0.0, 0.0, 0.0, 0.0, 0.0, 0.0, 0.0, 0.0, 1.7296911519947598E9, 0.0, 2024-10-23 19:15:51.994
145.0, 21685.796581005645, 5582.012901546109, 43313.07629502729, 23207.54804701186, 15832.165280838643, 22516.968550320693, 187500.0, -27822.311558999012, 0.184, 0.9540000000000001, -0.14200000000000002, 192.0, 0.0, 0.0, 0.0, 0.0, 0.0, 0.0, 0.0, 0.0, 0.0, 1.7296911519978924E9, 0.0, 2024-10-23 19:15:51.997
146.0, 21744.06757880063, 5181.603751373738, 43347.05094659936, 23204.865837677222, 15829.304257548363, 22492.22516920867, 187500.0, -27994.464694793787, 0.184, 0.9540000000000001, -0.14200000000000002, 192.0, 0.0, 0.0, 0.0, 0.0, 0.0, 0.0, 0.0, 0.0, 0.0, 1.7296911520007603E9, 0.0, 2024-10-23 19:15:52.000
147.0, 21754.863471372544, 5676.918408503343, 43405.21018567207, 23527.826193311954, 15836.456815774061, 22577.385315583386, 187500.0, -27858.119053616414, 0.184, 0.9540000000000001, -0.14200000000000002, 192.0, 0.0, 0.0, 0.0, 0.0, 0.0, 0.0, 0.0, 0.0, 0.0, 1.7296911520046618E9, 0.0, 2024-10-23 19:15:52.004
148.0, 21722.229924467796, 6111.503375947878, 43388.64754303069, 23561.7114379062, 15846.604507756772, 22589.09762967797, 187500.0, -27712.519790234543, 0.184, 0.9540000000000001, -0.14200000000000002, 192.0, 0.0, 0.0, 0.0, 0.0, 0.0, 0.0, 0.0, 0.0, 0.0, 1.7296911520086951E9, 0.0, 2024-10-23 19:15:52.008
149.0, 21673.056086666118, 6014.09447361165, 43335.31628076032, 23349.74984523652, 15841.195385598587, 22536.682788930273, 187500.0, -27717.884208903815, 0.178, 0.9520000000000001, -0.136, 192.0, 5.0, 144.0, 29.0, 192.0, 251.0, 192.0, 0.0, 0.0, 0.0, 1.729691152012674E9, 0.0, 2024-10-23 19:15:52.012
150.0, 21697.128915444486, 5582.929323068777, 43332.119981303214, 23197.422706773606, 15846.716266479048, 22511.090041528947, 187500.0, -27876.22396662521, 0.178, 0.9520000000000001, -0.136, 192.0, 0.0, 0.0, 0.0, 0.0, 0.0, 0.0, 0.0, 0.0, 0.0, 1.7296911520177417E9, 0.0, 2024-10-23 19:15:52.017
151.0, 21755.757541150757, 5181.626103118194, 43367.97217940953, 23202.58595974278, 15842.648248988182, 22497.2096082222, 187500.0, -28028.126421943478, 0.178, 0.9520000000000001, -0.136, 192.0, 0.0, 0.0, 0.0, 0.0, 0.0, 0.0, 0.0, 0.0, 0.0, 1.7296911520217724E9, 0.0, 2024-10-23 19:15:52.021
152.0, 21763.11126507655, 5678.661844570857, 43420.766999812964, 23524.182858965738, 15844.056408888866, 22563.50488227664, 187500.0, -27891.66902204383, 0.178, 0.9520000000000001, -0.136, 192.0, 0.0, 0.0, 0.0, 0.0, 0.0, 0.0, 0.0, 0.0, 0.0, 1.7296911520247931E9, 0.0, 2024-10-23 19:15:52.024
153.0, 21720.48648840028, 6105.557811922767, 43390.94977270958, 23550.557917423, 15837.864975674747, 22571.41739981382, 187500.0, -27738.425462058243, 0.178, 0.9520000000000001, -0.136, 192.0, 0.0, 0.0, 0.0, 0.0, 0.0, 0.0, 0.0, 0.0, 0.0, 1.729691152029667E9, 0.0, 2024-10-23 19:15:52.029
154.0, 21670.709153498312, 6003.298581039737, 43329.48247545749, 23332.449595028116, 15842.156510610166, 22500.472962912674, 187500.0, -27758.050293690005, 0.178, 0.9520000000000001, -0.136, 192.0, 0.0, 0.0, 0.0, 0.0, 0.0, 0.0, 0.0, 0.0, 0.0, 1.7296911520387979E9, 0.0, 2024-10-23 19:15:52.038
155.0, 21695.944272988352, 5570.546456640537, 43328.141370790174, 23189.26432004742, 15849.912565936158, 22478.568253346475, 187500.0, -27908.410478640853, 0.178, 0.9520000000000001, -0.136, 192.0, 0.0, 0.0, 0.0, 0.0, 0.0, 0.0, 0.0, 0.0, 0.0, 1.729691152041731E9, 0.0, 2024-10-23 19:15:52.041
156.0, 21753.947049849874, 5181.916675796113, 43368.553324765366, 23214.25357034845, 15864.508255065473, 22548.41745476931, 187500.0, -28051.931029788382, 0.178, 0.9520000000000001, -0.136, 192.0, 0.0, 0.0, 0.0, 0.0, 0.0, 0.0, 0.0, 0.0, 0.0, 1.7296911520448987E9, 0.0, 2024-10-23 19:15:52.044
157.0, 21751.577764937614, 5678.035995726108, 43412.4968543645, 23530.329588690947, 15857.959193940067, 22594.149123924868, 187500.0, -27928.43764167281, 0.178, 0.9520000000000001, -0.136, 192.0, 0.0, 0.0, 0.0, 0.0, 0.0, 0.0, 0.0, 0.0, 0.0, 1.729691152048744E9, 0.0, 2024-10-23 19:15:52.048
158.0, 21712.171639462907, 6102.272105487837, 43383.19371738359, 23552.90485059081, 15848.99614441349, 22566.522367778107, 187500.0, -27790.482674894654, 0.178, 0.9520000000000001, -0.136, 192.0, 0.0, 0.0, 0.0, 0.0, 0.0, 0.0, 0.0, 0.0, 0.0, 1.7296911520517864E9, 0.0, 2024-10-23 19:15:52.051
159.0, 21669.524511042182, 6003.991485117851, 43326.330879489295, 23346.508842290503, 15851.56659502585, 22524.590495179953, 187500.0, -27795.55652088601, 0.17200000000000001, 0.9520000000000001, -0.134, 192.0, 5.0, 96.0, 29.0, 192.0, 251.0, 208.0, 0.0, 0.0, 0.0, 1.7296911520547123E9, 0.0, 2024-10-23 19:15:52.054
160.0, 21692.01036596422, 5569.630035117869, 43323.246338754456, 23198.048555618356, 15850.650173503182, 22484.625576093862, 187500.0, -27941.0440255456, 0.17200000000000001, 0.9520000000000001, -0.134, 192.0, 0.0, 0.0, 0.0, 0.0, 0.0, 0.0, 0.0, 0.0, 0.0, 1.7296911520580568E9, 0.0, 2024-10-23 19:15:52.058
161.0, 21748.560279436148, 5182.095489751755, 43362.07131887333, 23218.232180861498, 15863.591833542805, 22537.666265686308, 187500.0, -28090.46543722933, 0.17200000000000001, 0.9520000000000001, -0.134, 192.0, 0.0, 0.0, 0.0, 0.0, 0.0, 0.0, 0.0, 0.0, 0.0, 1.7296911520617325E9, 0.0, 2024-10-23 19:15:52.061
162.0, 21751.533061448703, 5681.276998672128, 43411.80395028638, 23537.03511202754, 15853.868824704747, 22592.159818668344, 187500.0, -27950.521165194652, 0.17200000000000001, 0.9520000000000001, -0.134, 192.0, 0.0, 0.0, 0.0, 0.0, 0.0, 0.0, 0.0, 0.0, 0.0, 1.7296911520647044E9, 0.0, 2024-10-23 19:15:52.064
163.0, 21711.09875572905, 6104.909611333563, 43383.14901389468, 23556.14585353683, 15844.346981566785, 22567.975231167704, 187500.0, -27812.812067605504, 0.17200000000000001, 0.9520000000000001, -0.134, 192.0, 0.0, 0.0, 0.0, 0.0, 0.0, 0.0, 0.0, 0.0, 0.0, 1.7296911520687256E9, 0.0, 2024-10-23 19:15:52.068
164.0, 21666.864653451998, 6002.695083939444, 43328.364888234726, 23343.80428121141, 15848.862033946758, 22534.872297629394, 187500.0, -27837.242524295158, 0.17200000000000001, 0.9520000000000001, -0.134, 192.0, 0.0, 0.0, 0.0, 0.0, 0.0, 0.0, 0.0, 0.0, 0.0, 1.729691152071777E9, 0.0, 2024-10-23 19:15:52.071
165.0, 21692.703270042333, 5571.462878163205, 43332.45525747004, 23206.31870106682, 15862.518949808951, 22542.203669810733, 187500.0, -27962.00996184468, 0.17200000000000001, 0.9520000000000001, -0.134, 192.0, 0.0, 0.0, 0.0, 0.0, 0.0, 0.0, 0.0, 0.0, 0.0, 1.7296911520757413E9, 0.0, 2024-10-23 19:15:52.075
166.0, 21749.722570147824, 5185.850582820247, 43369.15682186566, 23220.40030007366, 15865.447028332595, 22536.146347063346, 187500.0, -28122.495487033786, 0.17200000000000001, 0.9520000000000001, -0.134, 192.0, 0.0, 0.0, 0.0, 0.0, 0.0, 0.0, 0.0, 0.0, 0.0, 1.7296911520807412E9, 0.0, 2024-10-23 19:15:52.080
167.0, 21749.901384103465, 5683.176896950829, 43409.70288630759, 23536.051635271506, 15845.531624022917, 22582.190940641278, 187500.0, -27982.77473244366, 0.17200000000000001, 0.9520000000000001, -0.134, 192.0, 0.0, 0.0, 0.0, 0.0, 0.0, 0.0, 0.0, 0.0, 0.0, 1.7296911520847385E9, 0.0, 2024-10-23 19:15:52.084
168.0, 21710.070575484107, 6105.580163667222, 43378.94688593708, 23558.60454542691, 15838.51317626395, 22575.50776904914, 187500.0, -27827.94419860175, 0.17200000000000001, 0.9520000000000001, -0.134, 192.0, 0.0, 0.0, 0.0, 0.0, 0.0, 0.0, 0.0, 0.0, 0.0, 1.7296911520991447E9, 0.0, 2024-10-23 19:15:52.099
169.0, 21666.127045884972, 5996.704816425421, 43321.48055094249, 23344.18426086715, 15841.105978620766, 22531.36307374991, 187500.0, -27858.051998383045, 0.178, 0.9460000000000001, -0.128, 192.0, 5.0, 144.0, 29.0, 144.0, 252.0, 0.0, 0.0, 0.0, 0.0, 1.7296911520992565E9, 0.0, 2024-10-23 19:15:52.099
170.0, 21691.45157235284, 5562.164552469797, 43318.86539684122, 23201.35661379774, 15843.005876899468, 22498.528361145065, 187500.0, -28035.681311569373, 0.178, 0.9460000000000001, -0.128, 192.0, 0.0, 0.0, 0.0, 0.0, 0.0, 0.0, 0.0, 0.0, 0.0, 1.7296911520993361E9, 0.0, 2024-10-23 19:15:52.099
171.0, 21743.64289565598, 5167.87978027818, 43355.477554259014, 23217.65103550566, 15837.864975674747, 22501.50114315762, 187500.0, -28184.85685406409, 0.178, 0.9460000000000001, -0.128, 192.0, 0.0, 0.0, 0.0, 0.0, 0.0, 0.0, 0.0, 0.0, 0.0, 1.729691152100756E9, 0.0, 2024-10-23 19:15:52.100
172.0, 21745.6322009125, 5671.509286345159, 43403.17617692664, 23538.51032716159, 15829.192498826087, 22578.14527489487, 187500.0, -28020.571532317586, 0.178, 0.9460000000000001, -0.128, 192.0, 0.0, 0.0, 0.0, 0.0, 0.0, 0.0, 0.0, 0.0, 0.0, 1.7296911521096885E9, 0.0, 2024-10-23 19:15:52.109
173.0, 21710.58466560658, 6097.6452943855875, 43376.10821439126, 23558.04575181553, 15834.89219366219, 22573.786684726085, 187500.0, -27877.2297951257, 0.178, 0.9460000000000001, -0.128, 192.0, 0.0, 0.0, 0.0, 0.0, 0.0, 0.0, 0.0, 0.0, 0.0, 1.7296911521097255E9, 0.0, 2024-10-23 19:15:52.109
174.0, 21670.217415120296, 5988.278208765771, 43325.25799575543, 23338.685731731148, 15838.647286730682, 22514.375747963877, 187500.0, -27927.52122015014, 0.178, 0.9460000000000001, -0.128, 192.0, 0.0, 0.0, 0.0, 0.0, 0.0, 0.0, 0.0, 0.0, 0.0, 1.729691152112838E9, 0.0, 2024-10-23 19:15:52.112
175.0, 21693.68674679837, 5545.780723784056, 43323.40280096565, 23193.622910216203, 15830.198327326576, 22476.891872512326, 187500.0, -28071.13117827549, 0.178, 0.9460000000000001, -0.128, 192.0, 0.0, 0.0, 0.0, 0.0, 0.0, 0.0, 0.0, 0.0, 0.0, 1.7296911521167943E9, 0.0, 2024-10-23 19:15:52.116
176.0, 21749.54375619218, 5163.387079642664, 43357.153935093156, 23207.615102245225, 15828.499594747973, 22484.69263132723, 187500.0, -28219.59146494764, 0.178, 0.9460000000000001, -0.128, 192.0, 0.0, 0.0, 0.0, 0.0, 0.0, 0.0, 0.0, 0.0, 0.0, 1.729691152127854E9, 0.0, 2024-10-23 19:15:52.127
177.0, 21750.102549803563, 5671.6657485563455, 43407.87004326225, 23521.32183567546, 15836.345057051785, 22547.165757079812, 187500.0, -28075.914451588924, 0.178, 0.9460000000000001, -0.128, 192.0, 0.0, 0.0, 0.0, 0.0, 0.0, 0.0, 0.0, 0.0, 0.0, 1.7296911521318195E9, 0.0, 2024-10-23 19:15:52.131
178.0, 21710.137630717472, 6094.560753650756, 43383.48429006151, 23546.46754818768, 15838.401417541674, 22574.010202170637, 187500.0, -27912.09851647598, 0.178, 0.9460000000000001, -0.128, 192.0, 0.0, 0.0, 0.0, 0.0, 0.0, 0.0, 0.0, 0.0, 0.0, 1.7296911521348855E9, 0.0, 2024-10-23 19:15:52.134
179.0, 21670.820912220588, 5990.178107044471, 43330.28713825788, 23338.0598828864, 15843.274097832931, 22555.94999265075, 187500.0, -27947.548383182097, 0.184, 0.9520000000000001, -0.132, 192.0, 5.0, 192.0, 29.0, 192.0, 251.0, 224.0, 0.0, 0.0, 0.0, 1.72969115213782E9, 0.0, 2024-10-23 19:15:52.137
180.0, 21697.464191611314, 5552.665061076291, 43323.447504454554, 23191.9241776376, 15834.981600640012, 22505.278587970566, 187500.0, -28113.66654797394, 0.184, 0.9520000000000001, -0.132, 192.0, 0.0, 0.0, 0.0, 0.0, 0.0, 0.0, 0.0, 0.0, 0.0, 1.7296911521408439E9, 0.0, 2024-10-23 19:15:52.140
181.0, 21756.33868650659, 5178.653321105638, 43356.81865892633, 23212.331320325295, 15830.041865115389, 22496.11437274389, 187500.0, -28272.475692328895, 0.184, 0.9520000000000001, -0.132, 192.0, 0.0, 0.0, 0.0, 0.0, 0.0, 0.0, 0.0, 0.0, 0.0, 1.7296911521449497E9, 0.0, 2024-10-23 19:15:52.144
182.0, 21760.02672434172, 5697.705530846779, 43411.245156675, 23535.13521374884, 15849.264365346953, 22578.18997838378, 187500.0, -28133.134917394513, 0.184, 0.9520000000000001, -0.132, 192.0, 0.0, 0.0, 0.0, 0.0, 0.0, 0.0, 0.0, 0.0, 0.0, 1.7296911521480772E9, 0.0, 2024-10-23 19:15:52.148
183.0, 21723.34751169056, 6121.6510679305875, 43395.241307645, 23561.353809994915, 15861.155493397177, 22591.89159773488, 187500.0, -27998.711526240295, 0.184, 0.9520000000000001, -0.132, 192.0, 0.0, 0.0, 0.0, 0.0, 0.0, 0.0, 0.0, 0.0, 0.0, 1.729691152150885E9, 0.0, 2024-10-23 19:15:52.150
184.0, 21672.027906421175, 6001.353979272125, 43337.28323427239, 23345.90534519021, 15850.873690947736, 22534.492317973654, 187500.0, -28018.49282008324, 0.184, 0.9520000000000001, -0.132, 192.0, 0.0, 0.0, 0.0, 0.0, 0.0, 0.0, 0.0, 0.0, 0.0, 1.7296911521548295E9, 0.0, 2024-10-23 19:15:52.154
185.0, 21689.797543263143, 5559.8623227909, 43326.66615565612, 23196.618043973216, 15842.290621076898, 22478.992936491126, 187500.0, -28161.968667741858, 0.184, 0.9520000000000001, -0.132, 192.0, 0.0, 0.0, 0.0, 0.0, 0.0, 0.0, 0.0, 0.0, 0.0, 1.7296911521578157E9, 0.0, 2024-10-23 19:15:52.157
186.0, 21749.700218403366, 5189.35980669973, 43365.11115611925, 23219.68504425109, 15853.131217137721, 22503.13282050286, 187500.0, -28315.16752423853, 0.184, 0.9520000000000001, -0.132, 192.0, 0.0, 0.0, 0.0, 0.0, 0.0, 0.0, 0.0, 0.0, 0.0, 1.7296911521608295E9, 0.0, 2024-10-23 19:15:52.160
187.0, 21751.041323070684, 5706.601525139991, 43414.44145613211, 23543.338303963938, 15852.214795615053, 22594.17147566932, 187500.0, -28170.216461445867, 0.184, 0.9520000000000001, -0.132, 192.0, 0.0, 0.0, 0.0, 0.0, 0.0, 0.0, 0.0, 0.0, 0.0, 1.7296911521638827E9, 0.0, 2024-10-23 19:15:52.163
188.0, 21709.645892339457, 6128.043666844806, 43383.05960691686, 23565.310068763505, 15837.46264427455, 22581.587443540986, 187500.0, -28017.50934332721, 0.184, 0.9520000000000001, -0.132, 192.0, 0.0, 0.0, 0.0, 0.0, 0.0, 0.0, 0.0, 0.0, 0.0, 1.7296911521688545E9, 0.0, 2024-10-23 19:15:52.168
189.0, 21666.171749373883, 6011.032284621273, 43326.755562633945, 23352.566165037893, 15842.80471119937, 22549.400931525342, 187500.0, -28047.863012297516, 0.184, 0.9560000000000001, -0.138, 192.0, 5.0, 192.0, 29.0, 224.0, 251.0, 176.0, 0.0, 0.0, 0.0, 1.7296911521731064E9, 0.0, 2024-10-23 19:15:52.173
190.0, 21695.944272988352, 5575.933227054265, 43332.81288538133, 23213.180686614596, 15867.52574056694, 22520.83540211146, 187500.0, -28211.567188688183, 0.184, 0.9560000000000001, -0.138, 192.0, 0.0, 0.0, 0.0, 0.0, 0.0, 0.0, 0.0, 0.0, 0.0, 1.7296911521769848E9, 0.0, 2024-10-23 19:15:52.176
191.0, 21754.215270783337, 5204.8942690961685, 43364.64176948569, 23234.683064780602, 15854.22645261603, 22512.766422363096, 187500.0, -28380.85930119268, 0.184, 0.9560000000000001, -0.138, 192.0, 0.0, 0.0, 0.0, 0.0, 0.0, 0.0, 0.0, 0.0, 0.0, 1.7296911521799295E9, 0.0, 2024-10-23 19:15:52.179
192.0, 21750.236660270293, 5715.65398164439, 43405.746627538996, 23548.121577277372, 15840.32366756483, 22581.766257496627, 187500.0, -28231.05790985321, 0.184, 0.9560000000000001, -0.138, 192.0, 0.0, 0.0, 0.0, 0.0, 0.0, 0.0, 0.0, 0.0, 0.0, 1.729691152183951E9, 0.0, 2024-10-23 19:15:52.183
193.0, 21705.57787484859, 6128.177777311537, 43376.868173702744, 23562.404341984315, 15836.27800181842, 22569.718667235218, 187500.0, -28070.192405008365, 0.184, 0.9560000000000001, -0.138, 192.0, 0.0, 0.0, 0.0, 0.0, 0.0, 0.0, 0.0, 0.0, 0.0, 1.729691152187922E9, 0.0, 2024-10-23 19:15:52.187
194.0, 21662.886042938953, 6001.868069394597, 43323.22398701, 23343.848984700322, 15847.029190901423, 22526.669207414296, 187500.0, -28094.242882042276, 0.184, 0.9560000000000001, -0.138, 192.0, 0.0, 0.0, 0.0, 0.0, 0.0, 0.0, 0.0, 0.0, 0.0, 1.72969115219572E9, 0.0, 2024-10-23 19:15:52.195
195.0, 21686.95887171732, 5554.140276210342, 43321.212330009024, 23197.44505851806, 15845.911603678656, 22487.55365461751, 187500.0, -28244.02192163729, 0.184, 0.9560000000000001, -0.138, 192.0, 0.0, 0.0, 0.0, 0.0, 0.0, 0.0, 0.0, 0.0, 0.0, 1.729691152198979E9, 0.0, 2024-10-23 19:15:52.198
196.0, 21747.085064302097, 5184.464774664018, 43360.46199327255, 23226.234105376498, 15851.633650259217, 22511.648835140328, 187500.0, -28408.553112572805, 0.184, 0.9560000000000001, -0.138, 192.0, 0.0, 0.0, 0.0, 0.0, 0.0, 0.0, 0.0, 0.0, 0.0, 1.729691152202026E9, 0.0, 2024-10-23 19:15:52.202
197.0, 21745.319276490125, 5696.252667457184, 43409.92640375214, 23542.33247546345, 15848.750275224482, 22573.831388214992, 187500.0, -28282.623384311606, 0.184, 0.9560000000000001, -0.138, 192.0, 0.0, 0.0, 0.0, 0.0, 0.0, 0.0, 0.0, 0.0, 0.0, 1.729691152204916E9, 0.0, 2024-10-23 19:15:52.204
198.0, 21701.822781780098, 6104.551983422278, 43383.14901389468, 23551.697856390223, 15844.503443777972, 22564.488359032675, 187500.0, -28152.893859493004, 0.184, 0.9560000000000001, -0.138, 192.0, 0.0, 0.0, 0.0, 0.0, 0.0, 0.0, 0.0, 0.0, 0.0, 1.7296911522079353E9, 0.0, 2024-10-23 19:15:52.207
199.0, 21658.639211492446, 5970.955606812908, 43326.71085914503, 23326.392272280726, 15833.46168201705, 22510.75476536212, 187500.0, -28171.155234712987, 0.17400000000000002, 0.9520000000000001, -0.136, 192.0, 5.0, 112.0, 29.0, 192.0, 251.0, 192.0, 0.0, 0.0, 0.0, 1.7296911522120929E9, 0.0, 2024-10-23 19:15:52.212
200.0, 21692.949139231343, 5535.09658993442, 43330.71182140253, 23189.174913069597, 15848.146778124188, 22501.344680946433, 187500.0, -28318.98967254039, 0.17400000000000002, 0.9520000000000001, -0.136, 192.0, 0.0, 0.0, 0.0, 0.0, 0.0, 0.0, 0.0, 0.0, 0.0, 1.7296911522229726E9, 0.0, 2024-10-23 19:15:52.222
201.0, 21754.215270783337, 5166.0916407217555, 43369.20152535457, 23219.170954128618, 15844.235222844509, 22514.286340986055, 187500.0, -28473.39552323765, 0.17400000000000002, 0.9520000000000001, -0.136, 192.0, 0.0, 0.0, 0.0, 0.0, 0.0, 0.0, 0.0, 0.0, 0.0, 1.7296911522259612E9, 0.0, 2024-10-23 19:15:52.225
202.0, 21748.314410247138, 5675.845524769488, 43408.942926996104, 23524.831059554945, 15826.867917402735, 22557.671076973806, 187500.0, -28321.9848062974, 0.17400000000000002, 0.9520000000000001, -0.136, 192.0, 0.0, 0.0, 0.0, 0.0, 0.0, 0.0, 0.0, 0.0, 0.0, 1.7296911522299547E9, 0.0, 2024-10-23 19:15:52.229
203.0, 21711.501087129247, 6087.96698903644, 43383.01490342795, 23529.99431252412, 15831.830004671814, 22546.495204746152, 187500.0, -28189.90834831099, 0.17400000000000002, 0.9520000000000001, -0.136, 192.0, 0.0, 0.0, 0.0, 0.0, 0.0, 0.0, 0.0, 0.0, 0.0, 1.7296911522329495E9, 0.0, 2024-10-23 19:15:52.232
204.0, 21672.43023782137, 5955.264682205282, 43329.43777196858, 23313.025929096453, 15837.105016363266, 22512.632311896363, 187500.0, -28216.43986897944, 0.17400000000000002, 0.9520000000000001, -0.136, 192.0, 0.0, 0.0, 0.0, 0.0, 0.0, 0.0, 0.0, 0.0, 0.0, 1.7296911522359583E9, 0.0, 2024-10-23 19:15:52.235
205.0, 21695.54194158816, 5513.2365838571295, 43324.922719588605, 23170.578261682782, 15842.245917587987, 22488.91711102928, 187500.0, -28389.33061234124, 0.17400000000000002, 0.9520000000000001, -0.136, 192.0, 0.0, 0.0, 0.0, 0.0, 0.0, 0.0, 0.0, 0.0, 0.0, 1.729691152238932E9, 0.0, 2024-10-23 19:15:52.238
206.0, 21750.281363759204, 5150.244253902943, 43359.54557174988, 23201.870703920213, 15840.65894373166, 22495.1085442434, 187500.0, -28553.32536140983, 0.17400000000000002, 0.9520000000000001, -0.136, 192.0, 0.0, 0.0, 0.0, 0.0, 0.0, 0.0, 0.0, 0.0, 0.0, 1.7296911522429328E9, 0.0, 2024-10-23 19:15:52.242
207.0, 21747.576802680112, 5675.912580002854, 43409.233499674025, 23521.120669975364, 15848.772626968936, 22558.900422918847, 187500.0, -28400.506484568894, 0.17400000000000002, 0.9520000000000001, -0.136, 192.0, 0.0, 0.0, 0.0, 0.0, 0.0, 0.0, 0.0, 0.0, 0.0, 1.7296911522459643E9, 0.0, 2024-10-23 19:15:52.245
208.0, 21709.601188850545, 6099.187564753004, 43389.72042676454, 23547.451024943715, 15859.210891629566, 22594.462048347243, 187500.0, -28258.237631110864, 0.17400000000000002, 0.9520000000000001, -0.136, 192.0, 0.0, 0.0, 0.0, 0.0, 0.0, 0.0, 0.0, 0.0, 0.0, 1.7296911522500026E9, 0.0, 2024-10-23 19:15:52.250
209.0, 21664.405961561915, 5963.266606720282, 43329.43777196858, 23326.794603680923, 15850.918394436647, 22530.245486527147, 187500.0, -28289.64183207057, 0.18, 0.9520000000000001, -0.132, 192.0, 5.0, 160.0, 29.0, 192.0, 251.0, 224.0, 0.0, 0.0, 0.0, 1.7296911522539985E9, 0.0, 2024-10-23 19:15:52.253
210.0, 21683.33788911556, 5519.271554860063, 43322.44167595407, 23184.011660100423, 15850.896042692191, 22487.330137172954, 187500.0, -28434.90581928561, 0.18, 0.9520000000000001, -0.132, 192.0, 0.0, 0.0, 0.0, 0.0, 0.0, 0.0, 0.0, 0.0, 0.0, 1.729691152257975E9, 0.0, 2024-10-23 19:15:52.257
211.0, 21738.233773497795, 5159.631986574172, 43356.10340310376, 23215.16999187112, 15849.621993258239, 22499.578893134465, 187500.0, -28604.33204225684, 0.18, 0.9520000000000001, -0.132, 192.0, 0.0, 0.0, 0.0, 0.0, 0.0, 0.0, 0.0, 0.0, 0.0, 1.7296911522619648E9, 0.0, 2024-10-23 19:15:52.261
212.0, 21728.44370942637, 5683.26630392865, 43398.951697224584, 23531.6036381249, 15850.51606303645, 22597.680699548808, 187500.0, -28475.69775291655, 0.18, 0.9520000000000001, -0.132, 192.0, 0.0, 0.0, 0.0, 0.0, 0.0, 0.0, 0.0, 0.0, 0.0, 1.729691152264963E9, 0.0, 2024-10-23 19:15:52.264
213.0, 21687.316499628603, 6097.555887407767, 43371.68256898911, 23546.08756853194, 15843.989353655501, 22589.678775033808, 187500.0, -28334.144155281087, 0.18, 0.9520000000000001, -0.132, 192.0, 0.0, 0.0, 0.0, 0.0, 0.0, 0.0, 0.0, 0.0, 0.0, 1.7296911522679808E9, 0.0, 2024-10-23 19:15:52.267
214.0, 21649.67616196587, 5965.859409077098, 43315.04324853936, 23328.00159788151, 15847.677391490626, 22535.431091240775, 187500.0, -28363.268478306352, 0.18, 0.9520000000000001, -0.132, 192.0, 0.0, 0.0, 0.0, 0.0, 0.0, 0.0, 0.0, 0.0, 0.0, 1.72969115227211E9, 0.0, 2024-10-23 19:15:52.272
215.0, 21672.9666796883, 5524.680677018247, 43307.39895193565, 23193.48879974947, 15843.989353655501, 22498.77423033407, 187500.0, -28517.696680748068, 0.18, 0.9520000000000001, -0.132, 192.0, 0.0, 0.0, 0.0, 0.0, 0.0, 0.0, 0.0, 0.0, 0.0, 1.729691152276115E9, 0.0, 2024-10-23 19:15:52.276
216.0, 21733.450500184357, 5174.317082681308, 43345.21810355403, 23238.035826448897, 15844.346981566785, 22521.483602700664, 187500.0, -28662.357170862815, 0.18, 0.9520000000000001, -0.132, 192.0, 0.0, 0.0, 0.0, 0.0, 0.0, 0.0, 0.0, 0.0, 0.0, 1.72969115228413E9, 0.0, 2024-10-23 19:15:52.284
217.0, 21727.504936159246, 5703.98637103872, 43387.552307552374, 23554.000086069118, 15831.539431993895, 22581.56509179653, 187500.0, -28502.36338405173, 0.18, 0.9520000000000001, -0.132, 192.0, 0.0, 0.0, 0.0, 0.0, 0.0, 0.0, 0.0, 0.0, 0.0, 1.72969115228712E9, 0.0, 2024-10-23 19:15:52.287
218.0, 21686.53418857267, 6115.526689949834, 43357.75743219345, 23563.812501885, 15823.448100501073, 22557.402856040342, 187500.0, -28363.961382384467, 0.18, 0.9520000000000001, -0.132, 192.0, 0.0, 0.0, 0.0, 0.0, 0.0, 0.0, 0.0, 0.0, 0.0, 1.729691152290068E9, 0.0, 2024-10-23 19:15:52.290
219.0, 21643.66354270739, 5974.576589414667, 43297.98886751996, 23342.351417821817, 15823.090472589789, 22516.07448054248, 187500.0, -28405.468571837973, 0.182, 0.9580000000000001, -0.128, 192.0, 5.0, 176.0, 29.0, 240.0, 252.0, 0.0, 0.0, 0.0, 0.0, 1.7296911522940953E9, 0.0, 2024-10-23 19:15:52.294
220.0, 21662.170787116385, 5522.0431711725205, 43289.42814939358, 23195.813381172822, 15817.502536475962, 22463.614936305876, 187500.0, -28577.062914021364, 0.182, 0.9580000000000001, -0.128, 192.0, 0.0, 0.0, 0.0, 0.0, 0.0, 0.0, 0.0, 0.0, 0.0, 1.7296911522970784E9, 0.0, 2024-10-23 19:15:52.297
221.0, 21721.8275930676, 5170.78550705737, 43333.19286503707, 23234.437195591592, 15831.271211060432, 22508.966625805693, 187500.0, -28731.848744374365, 0.182, 0.9580000000000001, -0.128, 192.0, 0.0, 0.0, 0.0, 0.0, 0.0, 0.0, 0.0, 0.0, 0.0, 1.729691152300069E9, 0.0, 2024-10-23 19:15:52.300
222.0, 21719.14538373296, 5701.773548337645, 43380.73502549351, 23546.624010398868, 15821.279981288908, 22574.546644037564, 187500.0, -28579.074571022342, 0.182, 0.9580000000000001, -0.128, 192.0, 0.0, 0.0, 0.0, 0.0, 0.0, 0.0, 0.0, 0.0, 0.0, 1.7296911523040051E9, 0.0, 2024-10-23 19:15:52.304
223.0, 21675.82770297858, 6109.469367202445, 43351.074260601315, 23550.535565678547, 15813.054539329356, 22552.977210638193, 187500.0, -28412.419964363573, 0.182, 0.9580000000000001, -0.128, 192.0, 0.0, 0.0, 0.0, 0.0, 0.0, 0.0, 0.0, 0.0, 0.0, 1.7296911523090951E9, 0.0, 2024-10-23 19:15:52.309
224.0, 21645.85401366401, 5975.828287104165, 43306.415475179616, 23332.71781596158, 15842.983525155012, 22530.2678382716, 187500.0, -28447.400444436127, 0.182, 0.9580000000000001, -0.128, 192.0, 0.0, 0.0, 0.0, 0.0, 0.0, 0.0, 0.0, 0.0, 0.0, 1.7296911523130631E9, 0.0, 2024-10-23 19:15:52.313
225.0, 21678.755781502223, 5531.989697455132, 43312.71866711601, 23193.55585498284, 15848.571461268839, 22503.758669347608, 187500.0, -28616.625501707258, 0.182, 0.9580000000000001, -0.128, 192.0, 0.0, 0.0, 0.0, 0.0, 0.0, 0.0, 0.0, 0.0, 0.0, 1.7296911523170462E9, 0.0, 2024-10-23 19:15:52.317
226.0, 21742.6817706444, 5183.235428718976, 43358.271522315925, 23235.107747925253, 15852.728885737526, 22520.65658815582, 187500.0, -28765.175195357227, 0.182, 0.9580000000000001, -0.128, 192.0, 0.0, 0.0, 0.0, 0.0, 0.0, 0.0, 0.0, 0.0, 0.0, 1.729691152321201E9, 0.0, 2024-10-23 19:15:52.321
227.0, 21734.657494384945, 5706.780339095633, 43401.969182726054, 23542.958324308198, 15842.983525155012, 22575.194844626767, 187500.0, -28627.93548440164, 0.182, 0.9580000000000001, -0.128, 192.0, 0.0, 0.0, 0.0, 0.0, 0.0, 0.0, 0.0, 0.0, 0.0, 1.729691152327082E9, 0.0, 2024-10-23 19:15:52.327
228.0, 21688.367031618003, 6111.861003859163, 43370.96731316654, 23547.205155754706, 15835.428635529119, 22570.635088757885, 187500.0, -28480.41397099662, 0.182, 0.9580000000000001, -0.128, 192.0, 0.0, 0.0, 0.0, 0.0, 0.0, 0.0, 0.0, 0.0, 0.0, 1.729691152330082E9, 0.0, 2024-10-23 19:15:52.330
229.0, 21656.51579576919, 5969.614502145589, 43324.855664355244, 23328.00159788151, 15848.169129868644, 22544.41649251181, 187500.0, -28511.102916133754, 0.18, 0.9580000000000001, -0.134, 192.0, 5.0, 160.0, 29.0, 240.0, 251.0, 208.0, 0.0, 0.0, 0.0, 1.7296911523341136E9, 0.0, 2024-10-23 19:15:52.334
230.0, 21685.90833972792, 5524.077179917954, 43325.03447831088, 23183.586976955772, 15847.610336257261, 22506.329119959966, 187500.0, -28689.49218863156, 0.18, 0.9580000000000001, -0.134, 192.0, 0.0, 0.0, 0.0, 0.0, 0.0, 0.0, 0.0, 0.0, 0.0, 1.7296911523381186E9, 0.0, 2024-10-23 19:15:52.338
231.0, 21744.760482878744, 5171.83603904677, 43360.216124083534, 23218.522753539415, 15840.748350709482, 22510.50889617311, 187500.0, -28849.15069927582, 0.18, 0.9580000000000001, -0.134, 192.0, 0.0, 0.0, 0.0, 0.0, 0.0, 0.0, 0.0, 0.0, 0.0, 1.7296911523420897E9, 0.0, 2024-10-23 19:15:52.342
232.0, 21738.412587453437, 5700.70066460379, 43398.7952350134, 23525.970998522163, 15827.270248802932, 22575.172492882313, 187500.0, -28707.194770240163, 0.18, 0.9580000000000001, -0.134, 192.0, 0.0, 0.0, 0.0, 0.0, 0.0, 0.0, 0.0, 0.0, 0.0, 1.7296911523460965E9, 0.0, 2024-10-23 19:15:52.346
233.0, 21700.928712001885, 6111.279858503325, 43373.090728889794, 23539.918487062274, 15833.215812828043, 22583.487341819688, 187500.0, -28557.236916689508, 0.18, 0.9580000000000001, -0.134, 192.0, 0.0, 0.0, 0.0, 0.0, 0.0, 0.0, 0.0, 0.0, 0.0, 1.7296911523501604E9, 0.0, 2024-10-23 19:15:52.350
234.0, 21669.032772664163, 5965.032394532251, 43329.616585924225, 23320.670225700167, 15856.238109617008, 22534.78289065157, 187500.0, -28606.634271935734, 0.18, 0.9580000000000001, -0.134, 192.0, 0.0, 0.0, 0.0, 0.0, 0.0, 0.0, 0.0, 0.0, 0.0, 1.729691152353142E9, 0.0, 2024-10-23 19:15:52.353
235.0, 21697.19597067785, 5519.629182771348, 43333.37167899271, 23189.06315434732, 15861.066086419356, 22519.293131744045, 187500.0, -28771.83601520491, 0.18, 0.9580000000000001, -0.134, 192.0, 0.0, 0.0, 0.0, 0.0, 0.0, 0.0, 0.0, 0.0, 0.0, 1.7296911523562417E9, 0.0, 2024-10-23 19:15:52.356
236.0, 21755.98105859531, 5177.155754227132, 43372.57663876732, 23240.516870083437, 15859.546167796394, 22538.873259886892, 187500.0, -28912.00380468414, 0.18, 0.9580000000000001, -0.134, 192.0, 0.0, 0.0, 0.0, 0.0, 0.0, 0.0, 0.0, 0.0, 0.0, 1.729691152360083E9, 0.0, 2024-10-23 19:15:52.360
237.0, 21742.6817706444, 5706.825042584544, 43410.97693574154, 23552.99425756863, 15854.964060183056, 22584.828446487005, 187500.0, -28760.526032510526, 0.18, 0.9580000000000001, -0.134, 192.0, 0.0, 0.0, 0.0, 0.0, 0.0, 0.0, 0.0, 0.0, 0.0, 1.7296911523641489E9, 0.0, 2024-10-23 19:15:52.364
238.0, 21691.563331075115, 6110.385788725113, 43367.59219975379, 23552.03313255705, 15839.697818720082, 22566.36590556692, 187500.0, -28627.175525090162, 0.18, 0.9580000000000001, -0.134, 192.0, 0.0, 0.0, 0.0, 0.0, 0.0, 0.0, 0.0, 0.0, 0.0, 1.7296911523691404E9, 0.0, 2024-10-23 19:15:52.369
239.0, 21652.7607027007, 5957.7010223509105, 43306.549585646346, 23325.073519357866, 15844.168167611144, 22522.69059690125, 187500.0, -28699.52812189199, 0.18, 0.9580000000000001, -0.134, 192.0, 0.0, 0.0, 0.0, 0.0, 0.0, 0.0, 0.0, 0.0, 0.0, 1.7296911523732407E9, 0.0, 2024-10-23 19:15:52.373
240.0, 21674.57600528908, 5505.435825042227, 43302.280402455384, 23193.35468928274, 15839.65311523117, 22494.795619821027, 187500.0, -28852.324646988473, 0.188, 0.9580000000000001, -0.13, 192.0, 5.0, 224.0, 29.0, 240.0, 251.0, 240.0, 0.0, 0.0, 0.0, 1.729691152376143E9, 0.0, 2024-10-23 19:15:52.376
241.0, 21735.797433352167, 5167.052765733334, 43339.741926162475, 23245.054274207865, 15840.033094886912, 22541.13078607688, 187500.0, -28995.50992196917, 0.188, 0.9580000000000001, -0.13, 192.0, 0.0, 0.0, 0.0, 0.0, 0.0, 0.0, 0.0, 0.0, 0.0, 1.7296911523801768E9, 0.0, 2024-10-23 19:15:52.380
242.0, 21729.471889671313, 5705.327475706038, 43380.712673749054, 23561.532623950556, 15840.256612331465, 22606.174362441823, 187500.0, -28856.258554012606, 0.188, 0.9580000000000001, -0.13, 192.0, 0.0, 0.0, 0.0, 0.0, 0.0, 0.0, 0.0, 0.0, 0.0, 1.729691152384211E9, 0.0, 2024-10-23 19:15:52.384
243.0, 21686.780057761676, 6114.453806215979, 43350.96250187904, 23575.56951946849, 15836.74738845198, 22589.61171980044, 187500.0, -28706.658328373236, 0.188, 0.9580000000000001, -0.13, 192.0, 0.0, 0.0, 0.0, 0.0, 0.0, 0.0, 0.0, 0.0, 0.0, 1.7296911523891644E9, 0.0, 2024-10-23 19:15:52.389
244.0, 21649.85497592151, 5960.964377041385, 43297.295963441844, 23352.879089460264, 15835.048655873377, 22546.294039046057, 187500.0, -28758.51437550955, 0.188, 0.9580000000000001, -0.13, 192.0, 0.0, 0.0, 0.0, 0.0, 0.0, 0.0, 0.0, 0.0, 0.0, 1.7296911523921545E9, 0.0, 2024-10-23 19:15:52.392
245.0, 21675.067743667096, 5513.28128734604, 43300.20169022104, 23216.868724449723, 15838.42376928613, 22516.186239264756, 187500.0, -28913.143743651362, 0.188, 0.9580000000000001, -0.13, 192.0, 0.0, 0.0, 0.0, 0.0, 0.0, 0.0, 0.0, 0.0, 0.0, 1.7296911523971493E9, 0.0, 2024-10-23 19:15:52.397
246.0, 21743.285267744694, 5183.347187441253, 43346.805077410354, 23269.79765531989, 15845.062237389355, 22523.718777146194, 187500.0, -29061.805196023608, 0.188, 0.9580000000000001, -0.13, 192.0, 0.0, 0.0, 0.0, 0.0, 0.0, 0.0, 0.0, 0.0, 0.0, 1.7296911524011967E9, 0.0, 2024-10-23 19:15:52.401
247.0, 21732.847003084065, 5720.772531124656, 43385.94298195159, 23577.558824725013, 15830.600658726771, 22577.653536516853, 187500.0, -28905.164170880817, 0.188, 0.9580000000000001, -0.13, 192.0, 0.0, 0.0, 0.0, 0.0, 0.0, 0.0, 0.0, 0.0, 0.0, 1.7296911524062989E9, 0.0, 2024-10-23 19:15:52.406
248.0, 21694.6702235544, 6126.747265666398, 43361.266656072934, 23581.738600938155, 15832.902888405668, 22564.153082865847, 187500.0, -28756.949753397676, 0.188, 0.9580000000000001, -0.13, 192.0, 0.0, 0.0, 0.0, 0.0, 0.0, 0.0, 0.0, 0.0, 0.0, 1.7296911524092872E9, 0.0, 2024-10-23 19:15:52.409
249.0, 21664.9647551733, 5973.637816147544, 43312.696315371555, 23356.43301682866, 15834.623972728727, 22528.45734697072, 187500.0, -28817.813553549477, 0.188, 0.9580000000000001, -0.13, 192.0, 0.0, 0.0, 0.0, 0.0, 0.0, 0.0, 0.0, 0.0, 0.0, 1.729691152413263E9, 0.0, 2024-10-23 19:15:52.413
250.0, 21692.72562178679, 5524.814787484978, 43320.11709453072, 23225.541201298383, 15837.552051252373, 22529.0161405821, 187500.0, -28991.821884134042, 0.192, 0.9580000000000001, -0.132, 192.0, 6.0, 0.0, 29.0, 240.0, 251.0, 224.0, 0.0, 0.0, 0.0, 1.7296911524182897E9, 0.0, 2024-10-23 19:15:52.418
251.0, 21751.01897132623, 5185.224733975499, 43365.69230147509, 23275.430294922626, 15844.391685055696, 22538.716797675705, 187500.0, -29118.66803391791, 0.192, 0.9580000000000001, -0.132, 192.0, 0.0, 0.0, 0.0, 0.0, 0.0, 0.0, 0.0, 0.0, 0.0, 1.7296911524222217E9, 0.0, 2024-10-23 19:15:52.422
252.0, 21741.474776443814, 5723.477092203748, 43407.08773220632, 23577.827045658476, 15844.65990598916, 22588.404725599852, 187500.0, -28966.810282088554, 0.192, 0.9580000000000001, -0.132, 192.0, 0.0, 0.0, 0.0, 0.0, 0.0, 0.0, 0.0, 0.0, 0.0, 1.7296911524251847E9, 0.0, 2024-10-23 19:15:52.425
253.0, 21701.375746890993, 6122.813358642264, 43376.55524928037, 23572.172054311282, 15831.494728504984, 22574.546644037564, 187500.0, -28835.337321202438, 0.192, 0.9580000000000001, -0.132, 192.0, 0.0, 0.0, 0.0, 0.0, 0.0, 0.0, 0.0, 0.0, 0.0, 1.7296911524282775E9, 0.0, 2024-10-23 19:15:52.428
254.0, 21663.646002250436, 5961.746688097321, 43321.61466140922, 23340.54092652094, 15826.89026914719, 22515.672149142283, 187500.0, -28890.412019540316, 0.192, 0.9580000000000001, -0.132, 192.0, 0.0, 0.0, 0.0, 0.0, 0.0, 0.0, 0.0, 0.0, 0.0, 1.7296911524322245E9, 0.0, 2024-10-23 19:15:52.432
255.0, 21687.204740906327, 5511.739016978624, 43325.213292266526, 23203.59178824327, 15830.131272093211, 22504.49627691463, 187500.0, -29041.196887635815, 0.192, 0.9580000000000001, -0.132, 192.0, 0.0, 0.0, 0.0, 0.0, 0.0, 0.0, 0.0, 0.0, 0.0, 1.729691152436226E9, 0.0, 2024-10-23 19:15:52.436
0.0, 21749.34259049208, 5181.469640907007, 43366.47461253102, 23247.378855631217, 15830.913583149146, 22524.478736457677, 187500.0, -29189.90304349697, 0.192, 0.9580000000000001, -0.132, 192.0, 0.0, 0.0, 0.0, 0.0, 0.0, 0.0, 0.0, 0.0, 0.0, 1.729691152441227E9, 0.0, 2024-10-23 19:15:52.441
1.0, 21740.82657585461, 5723.27592650365, 43403.645563560196, 23549.417978455782, 15822.106995833756, 22569.383391068386, 187500.0, -29041.5545155471, 0.192, 0.9580000000000001, -0.132, 192.0, 0.0, 0.0, 0.0, 0.0, 0.0, 0.0, 0.0, 0.0, 0.0, 1.729691152445226E9, 0.0, 2024-10-23 19:15:52.445
2.0, 21703.901494014444, 6127.127245322138, 43377.426967314124, 23549.395626711324, 15831.22650757152, 22560.152120608345, 187500.0, -28889.875577673385, 0.192, 0.9580000000000001, -0.132, 192.0, 0.0, 0.0, 0.0, 0.0, 0.0, 0.0, 0.0, 0.0, 0.0, 1.7296911524492385E9, 0.0, 2024-10-23 19:15:52.449
3.0, 21671.558519787613, 5966.2170369883825, 43326.64380391166, 23314.85877214179, 15833.46168201705, 22519.427242210775, 187500.0, -28949.577087113514, 0.192, 0.9580000000000001, -0.132, 192.0, 0.0, 0.0, 0.0, 0.0, 0.0, 0.0, 0.0, 0.0, 0.0, 1.7296911524523652E9, 0.0, 2024-10-23 19:15:52.452
4.0, 21700.504028857235, 5514.689447246725, 43334.13163830419, 23181.01652634341, 15849.532586280417, 22522.64589341234, 187500.0, -29099.601995897534, 0.186, 0.9580000000000001, -0.134, 192.0, 5.0, 208.0, 29.0, 240.0, 251.0, 208.0, 0.0, 0.0, 0.0, 1.729691152456259E9, 0.0, 2024-10-23 19:15:52.456
5.0, 21759.512634219245, 5185.35884444223, 43373.805984712366, 23228.916314711132, 15854.56172878286, 22541.443710499254, 187500.0, -29242.004959822294, 0.186, 0.9580000000000001, -0.134, 192.0, 0.0, 0.0, 0.0, 0.0, 0.0, 0.0, 0.0, 0.0, 0.0, 1.7296911524603028E9, 0.0, 2024-10-23 19:15:52.460
6.0, 21743.620543911522, 5725.824025371555, 43407.847691517796, 23532.631818369846, 15844.99518215599, 22579.531083051097, 187500.0, -29085.676859101877, 0.186, 0.9580000000000001, -0.134, 192.0, 0.0, 0.0, 0.0, 0.0, 0.0, 0.0, 0.0, 0.0, 0.0, 1.729691152464258E9, 0.0, 2024-10-23 19:15:52.464
7.0, 21692.792677020156, 6123.97564935394, 43371.07907188882, 23528.519097390068, 15834.646324473182, 22571.70797249174, 187500.0, -28930.10871769294, 0.186, 0.9580000000000001, -0.134, 192.0, 0.0, 0.0, 0.0, 0.0, 0.0, 0.0, 0.0, 0.0, 0.0, 1.729691152469447E9, 0.0, 2024-10-23 19:15:52.469
8.0, 21645.406978774903, 5953.297728693215, 43303.08506525577, 23293.155228275686, 15822.621085956227, 22513.12405027438, 187500.0, -28977.002677560173, 0.186, 0.9580000000000001, -0.134, 192.0, 0.0, 0.0, 0.0, 0.0, 0.0, 0.0, 0.0, 0.0, 0.0, 1.7296911524742975E9, 0.0, 2024-10-23 19:15:52.474
9.0, 21665.300031340128, 5502.105415118386, 43291.59626860575, 23156.250793486928, 15822.911658634146, 22490.16880871878, 187500.0, -29151.86037443404, 0.186, 0.9580000000000001, -0.134, 192.0, 0.0, 0.0, 0.0, 0.0, 0.0, 0.0, 0.0, 0.0, 0.0, 1.7296911524785056E9, 0.0, 2024-10-23 19:15:52.478
10.0, 21723.571029135113, 5177.6027891162385, 43332.34349874777, 23221.204962874053, 15829.840699415292, 22530.804280138527, 187500.0, -29281.478140530366, 0.186, 0.9580000000000001, -0.134, 192.0, 0.0, 0.0, 0.0, 0.0, 0.0, 0.0, 0.0, 0.0, 0.0, 1.7296911524832726E9, 0.0, 2024-10-23 19:15:52.483
11.0, 21710.58466560658, 5732.618955685968, 43365.22291484153, 23533.212963725684, 15826.309123791352, 22581.878016218903, 187500.0, -29137.197630071358, 0.186, 0.9580000000000001, -0.134, 192.0, 0.0, 0.0, 0.0, 0.0, 0.0, 0.0, 0.0, 0.0, 0.0, 1.7296911524872549E9, 0.0, 2024-10-23 19:15:52.487
12.0, 21670.709153498312, 6137.140826838116, 43336.478571472, 23536.27515271606, 15823.001065611967, 22576.021859171615, 187500.0, -29022.711994971276, 0.186, 0.9580000000000001, -0.134, 192.0, 0.0, 0.0, 0.0, 0.0, 0.0, 0.0, 0.0, 0.0, 0.0, 1.729691152491328E9, 0.0, 2024-10-23 19:15:52.491
13.0, 21630.654827434402, 5958.662147362488, 43280.33098940027, 23302.61001618028, 15824.699798190572, 22503.1104687584, 187500.0, -29073.718675818287, 0.186, 0.9580000000000001, -0.134, 192.0, 0.0, 0.0, 0.0, 0.0, 0.0, 0.0, 0.0, 0.0, 0.0, 1.7296911524943385E9, 0.0, 2024-10-23 19:15:52.494
14.0, 21649.698513710322, 5497.791528438513, 43275.6147713202, 23166.309078491817, 15840.32366756483, 22480.646965580818, 187500.0, -29246.385901735535, 0.186, 0.96, -0.136, 192.0, 5.0, 208.0, 30.0, 0.0, 251.0, 192.0, 0.0, 0.0, 0.0, 1.729691152498284E9, 0.0, 2024-10-23 19:15:52.498
15.0, 21702.649796324946, 5168.729146567482, 43308.494187413955, 23231.889096723688, 15822.442272000584, 22530.424300482788, 187500.0, -29402.781057689317, 0.186, 0.96, -0.136, 192.0, 0.0, 0.0, 0.0, 0.0, 0.0, 0.0, 0.0, 0.0, 0.0, 1.729691152504332E9, 0.0, 2024-10-23 19:15:52.504
16.0, 21689.126990929486, 5716.257478744684, 43347.74385067748, 23546.80282435451, 15824.118652834733, 22586.14719940987, 187500.0, -29240.73091038834, 0.186, 0.96, -0.136, 192.0, 0.0, 0.0, 0.0, 0.0, 0.0, 0.0, 0.0, 0.0, 0.0, 1.7296911525083823E9, 0.0, 2024-10-23 19:15:52.508
17.0, 21657.745141714233, 6124.73560866542, 43336.85855112774, 23564.505405963115, 15850.314897336353, 22594.350289624967, 187500.0, -29072.064646728595, 0.186, 0.96, -0.136, 192.0, 0.0, 0.0, 0.0, 0.0, 0.0, 0.0, 0.0, 0.0, 0.0, 1.7296911525115428E9, 0.0, 2024-10-23 19:15:52.511
18.0, 21630.56542045658, 5951.330775181148, 43288.13174821517, 23339.04335964243, 15853.71236249356, 22537.778024408584, 187500.0, -29124.09950782055, 0.186, 0.96, -0.136, 192.0, 0.0, 0.0, 0.0, 0.0, 0.0, 0.0, 0.0, 0.0, 0.0, 1.7296911525143995E9, 0.0, 2024-10-23 19:15:52.514
19.0, 21661.05319989362, 5493.477641758638, 43296.468948897, 23206.54221851137, 15860.864920719257, 22515.515686931096, 187500.0, -29287.289594088747, 0.186, 0.96, -0.136, 192.0, 0.0, 0.0, 0.0, 0.0, 0.0, 0.0, 0.0, 0.0, 0.0, 1.7296911525183427E9, 0.0, 2024-10-23 19:15:52.518
20.0, 21725.403872180446, 5176.284036193376, 43347.27446404391, 23276.883158312223, 15867.19046440011, 22569.405742812844, 187500.0, -29406.603205991174, 0.186, 0.96, -0.136, 192.0, 0.0, 0.0, 0.0, 0.0, 0.0, 0.0, 0.0, 0.0, 0.0, 1.7296911525233078E9, 0.0, 2024-10-23 19:15:52.523
21.0, 21713.088060985574, 5725.3769904824485, 43382.43375807211, 23572.95436536722, 15858.361525340264, 22598.23949316019, 187500.0, -29268.84940491312, 0.186, 0.96, -0.136, 192.0, 0.0, 0.0, 0.0, 0.0, 0.0, 0.0, 0.0, 0.0, 0.0, 1.7296911525323572E9, 0.0, 2024-10-23 19:15:52.532
22.0, 21675.559482045115, 6124.355629009679, 43360.43964152809, 23573.691972934244, 15861.557824797372, 22588.360022110945, 187500.0, -29129.553333467644, 0.186, 0.96, -0.136, 192.0, 0.0, 0.0, 0.0, 0.0, 0.0, 0.0, 0.0, 0.0, 0.0, 1.729691152535725E9, 0.0, 2024-10-23 19:15:52.535
23.0, 21647.753911942713, 5948.55915886869, 43312.18222524908, 23346.017103912487, 15867.458685333573, 22549.579745480987, 187500.0, -29182.14698817098, 0.186, 0.96, -0.136, 192.0, 0.0, 0.0, 0.0, 0.0, 0.0, 0.0, 0.0, 0.0, 0.0, 1.7296911525393507E9, 0.0, 2024-10-23 19:15:52.539
24.0, 21671.223243620785, 5484.738109676613, 43313.50097817194, 23212.666596492123, 15860.931975952624, 22520.567181177998, 187500.0, -29343.638341860576, 0.192, 0.9500000000000001, -0.134, 192.0, 6.0, 0.0, 29.0, 176.0, 251.0, 208.0, 0.0, 0.0, 0.0, 1.729691152542582E9, 0.0, 2024-10-23 19:15:52.542
25.0, 21729.941276304875, 5164.437611632063, 43350.940150134586, 23256.721884813534, 15849.487882791505, 22504.74214610364, 187500.0, -29482.21915748348, 0.192, 0.9500000000000001, -0.134, 192.0, 0.0, 0.0, 0.0, 0.0, 0.0, 0.0, 0.0, 0.0, 0.0, 1.7296911525466316E9, 0.0, 2024-10-23 19:15:52.546
26.0, 21714.227999952796, 5712.144757764907, 43388.6922465196, 23545.84169934293, 15847.453874046074, 22571.484455047186, 187500.0, -29331.478992876888, 0.192, 0.9500000000000001, -0.134, 192.0, 0.0, 0.0, 0.0, 0.0, 0.0, 0.0, 0.0, 0.0, 0.0, 1.729691152548832E9, 0.0, 2024-10-23 19:15:52.548
27.0, 21672.609051777014, 6107.077730545728, 43358.65150197167, 23536.521021905068, 15857.71332475106, 22580.60396678495, 187500.0, -29195.155703443972, 0.192, 0.9500000000000001, -0.134, 192.0, 0.0, 0.0, 0.0, 0.0, 0.0, 0.0, 0.0, 0.0, 0.0, 1.729691152552448E9, 0.0, 2024-10-23 19:15:52.552
28.0, 21641.026036861665, 5920.93240272193, 43308.13655950267, 23303.45938246958, 15860.931975952624, 22529.284361515565, 187500.0, -29243.681340656443, 0.192, 0.9500000000000001, -0.134, 192.0, 0.0, 0.0, 0.0, 0.0, 0.0, 0.0, 0.0, 0.0, 0.0, 1.7296911525553772E9, 0.0, 2024-10-23 19:15:52.555
29.0, 21659.309763826106, 5454.943234317689, 43301.363980932714, 23162.576337167782, 15859.143836396199, 22495.801448321516, 187500.0, -29412.414659549555, 0.192, 0.9500000000000001, -0.134, 192.0, 0.0, 0.0, 0.0, 0.0, 0.0, 0.0, 0.0, 0.0, 0.0, 1.7296911525584028E9, 0.0, 2024-10-23 19:15:52.558
30.0, 21718.20661046584, 5145.483332333963, 43343.92170237562, 23223.887172208688, 15855.411095072162, 22508.385480449855, 187500.0, -29552.381283328687, 0.192, 0.9500000000000001, -0.134, 192.0, 0.0, 0.0, 0.0, 0.0, 0.0, 0.0, 0.0, 0.0, 0.0, 1.7296911525624087E9, 0.0, 2024-10-23 19:15:52.562
31.0, 21702.11335445802, 5706.914449562365, 43375.21414461305, 23518.997254252106, 15850.381952569718, 22568.064638145523, 187500.0, -29408.838380436708, 0.192, 0.9500000000000001, -0.134, 192.0, 0.0, 0.0, 0.0, 0.0, 0.0, 0.0, 0.0, 0.0, 0.0, 1.7296911525654497E9, 0.0, 2024-10-23 19:15:52.565
32.0, 21658.90743242591, 6105.11077703366, 43343.07233608632, 23511.732937304132, 15852.594775270794, 22565.516539277618, 187500.0, -29261.942715876427, 0.192, 0.9500000000000001, -0.134, 192.0, 0.0, 0.0, 0.0, 0.0, 0.0, 0.0, 0.0, 0.0, 0.0, 1.7296911525684154E9, 0.0, 2024-10-23 19:15:52.568
33.0, 21622.09410930802, 5920.708885277377, 43284.37665514668, 23278.67129786865, 15851.499539792483, 22510.240675239645, 187500.0, -29307.808495498717, 0.192, 0.9500000000000001, -0.134, 192.0, 0.0, 0.0, 0.0, 0.0, 0.0, 0.0, 0.0, 0.0, 0.0, 1.7296911525724316E9, 0.0, 2024-10-23 19:15:52.572
34.0, 21643.551783985113, 5458.921844830733, 43279.52632659988, 23144.24790671443, 15851.1419118812, 22486.54782611702, 187500.0, -29482.710895861495, 0.186, 0.9500000000000001, -0.132, 192.0, 5.0, 208.0, 29.0, 176.0, 251.0, 224.0, 0.0, 0.0, 0.0, 1.7296911525764391E9, 0.0, 2024-10-23 19:15:52.576
35.0, 21703.923845758898, 5156.301576650331, 43322.32991723179, 23217.382814572196, 15849.465531047052, 22519.069614299493, 187500.0, -29615.86023758176, 0.186, 0.9500000000000001, -0.132, 192.0, 0.0, 0.0, 0.0, 0.0, 0.0, 0.0, 0.0, 0.0, 0.0, 1.7296911525804656E9, 0.0, 2024-10-23 19:15:52.580
36.0, 21685.05897343862, 5718.693818890312, 43349.62139721172, 23516.493858873113, 15840.36837105374, 22571.70797249174, 187500.0, -29464.516575874877, 0.186, 0.9500000000000001, -0.132, 192.0, 0.0, 0.0, 0.0, 0.0, 0.0, 0.0, 0.0, 0.0, 0.0, 1.7296911525855236E9, 0.0, 2024-10-23 19:15:52.585
37.0, 21639.215545560783, 6110.341085236202, 43311.84694908225, 23508.69310005821, 15834.534565750906, 22558.85571942994, 187500.0, -29323.253550917336, 0.186, 0.9500000000000001, -0.132, 192.0, 0.0, 0.0, 0.0, 0.0, 0.0, 0.0, 0.0, 0.0, 0.0, 1.729691152588458E9, 0.0, 2024-10-23 19:15:52.588
38.0, 21606.492591678216, 5923.011114956274, 43256.973416444474, 23280.25827172497, 15834.646324473182, 22508.094907771934, 187500.0, -29369.834586362194, 0.186, 0.9500000000000001, -0.132, 192.0, 0.0, 0.0, 0.0, 0.0, 0.0, 0.0, 0.0, 0.0, 0.0, 1.7296911525924525E9, 0.0, 2024-10-23 19:15:52.592
39.0, 21636.15335657041, 5464.018042566543, 43265.355320615214, 23161.838729600757, 15850.47135954754, 22494.236826209646, 187500.0, -29520.574750968786, 0.186, 0.9500000000000001, -0.132, 192.0, 0.0, 0.0, 0.0, 0.0, 0.0, 0.0, 0.0, 0.0, 0.0, 1.7296911525964422E9, 0.0, 2024-10-23 19:15:52.596
40.0, 21705.53317135968, 5165.8010680438365, 43315.73615261748, 23238.79578576038, 15850.158435125166, 22517.84026835445, 187500.0, -29651.041883354414, 0.186, 0.9500000000000001, -0.132, 192.0, 0.0, 0.0, 0.0, 0.0, 0.0, 0.0, 0.0, 0.0, 0.0, 1.7296911526024456E9, 0.0, 2024-10-23 19:15:52.602
41.0, 21695.452534610336, 5726.6063364274905, 43356.930417648604, 23543.76298710859, 15860.32847885233, 22593.18799891329, 187500.0, -29487.74003836394, 0.186, 0.9500000000000001, -0.132, 192.0, 0.0, 0.0, 0.0, 0.0, 0.0, 0.0, 0.0, 0.0, 0.0, 1.7296911526054327E9, 0.0, 2024-10-23 19:15:52.605
42.0, 21656.962830658296, 6120.399370241091, 43335.45039122706, 23544.56764990898, 15871.70551678008, 22608.94597875428, 187500.0, -29339.27975169179, 0.186, 0.9500000000000001, -0.132, 192.0, 0.0, 0.0, 0.0, 0.0, 0.0, 0.0, 0.0, 0.0, 0.0, 1.7296911526084912E9, 0.0, 2024-10-23 19:15:52.608
43.0, 21628.397301244415, 5925.134530679528, 43288.04234123735, 23322.86069665679, 15866.18463589962, 22552.239603071168, 187500.0, -29385.413752247543, 0.186, 0.9500000000000001, -0.132, 192.0, 0.0, 0.0, 0.0, 0.0, 0.0, 0.0, 0.0, 0.0, 0.0, 1.7296911526135569E9, 0.0, 2024-10-23 19:15:52.613
44.0, 21645.228164819262, 5445.577853390915, 43277.64878006563, 23182.24587228845, 15852.170092126144, 22487.598358106417, 187500.0, -29543.32882682429, 0.186, 0.9520000000000001, -0.13, 192.0, 5.0, 208.0, 29.0, 192.0, 251.0, 240.0, 0.0, 0.0, 0.0, 1.7296911526164913E9, 0.0, 2024-10-23 19:15:52.616
45.0, 21708.640063838968, 5145.483332333963, 43325.39210622217, 23260.9910680045, 15861.222548630543, 22550.138539092368, 187500.0, -29700.998032212025, 0.186, 0.9520000000000001, -0.13, 192.0, 0.0, 0.0, 0.0, 0.0, 0.0, 0.0, 0.0, 0.0, 0.0, 1.7296911526237817E9, 0.0, 2024-10-23 19:15:52.623
46.0, 21699.00646197873, 5706.780339095633, 43362.473650273525, 23560.571498938978, 15849.42082755814, 22598.75358328266, 187500.0, -29555.890507208172, 0.186, 0.9520000000000001, -0.13, 192.0, 0.0, 0.0, 0.0, 0.0, 0.0, 0.0, 0.0, 0.0, 0.0, 1.7296911526501963E9, 0.0, 2024-10-23 19:15:52.650
47.0, 21668.272813352683, 6099.880468831118, 43349.263769300436, 23562.80667338451, 15869.291528378908, 22617.260827691654, 187500.0, -29414.113392128158, 0.186, 0.9520000000000001, -0.13, 192.0, 0.0, 0.0, 0.0, 0.0, 0.0, 0.0, 0.0, 0.0, 0.0, 1.7296911526502285E9, 0.0, 2024-10-23 19:15:52.650
48.0, 21644.5576124856, 5905.867326959054, 43304.71674260101, 23333.634237484246, 15870.0961911793, 22558.36398105192, 187500.0, -29463.48839562993, 0.186, 0.9520000000000001, -0.13, 192.0, 0.0, 0.0, 0.0, 0.0, 0.0, 0.0, 0.0, 0.0, 0.0, 1.7296911526502385E9, 0.0, 2024-10-23 19:15:52.650
49.0, 21676.61001403451, 5445.0861150128985, 43312.15987350463, 23207.74921271196, 15873.493656336506, 22527.496221959143, 187500.0, -29624.644473152697, 0.186, 0.9520000000000001, -0.13, 192.0, 0.0, 0.0, 0.0, 0.0, 0.0, 0.0, 0.0, 0.0, 0.0, 1.7296911526502476E9, 0.0, 2024-10-23 19:15:52.650
50.0, 21743.26291600024, 5155.608672572216, 43365.42408054163, 23288.059030539876, 15871.750220268992, 22554.430074027787, 187500.0, -29739.241866975055, 0.186, 0.9520000000000001, -0.13, 192.0, 0.0, 0.0, 0.0, 0.0, 0.0, 0.0, 0.0, 0.0, 0.0, 1.7296911526502564E9, 0.0, 2024-10-23 19:15:52.650
51.0, 21725.694444858367, 5717.263307245173, 43401.276278647936, 23576.307127035514, 15881.964967485068, 22611.18115319981, 187500.0, -29587.406466890156, 0.186, 0.9520000000000001, -0.13, 192.0, 0.0, 0.0, 0.0, 0.0, 0.0, 0.0, 0.0, 0.0, 0.0, 1.7296911526502652E9, 0.0, 2024-10-23 19:15:52.650
52.0, 21685.975394961286, 6102.070939787739, 43378.477499303524, 23565.734751908156, 15885.988281487023, 22607.649577575874, 187500.0, -29444.489412842922, 0.186, 0.9520000000000001, -0.13, 192.0, 0.0, 0.0, 0.0, 0.0, 0.0, 0.0, 0.0, 0.0, 0.0, 1.7296911526502736E9, 0.0, 2024-10-23 19:15:52.650
53.0, 21655.442912035338, 5903.587449024612, 43329.77304813541, 23335.511784018494, 15884.602473330793, 22572.51263529213, 187500.0, -29508.46010547401, 0.186, 0.9520000000000001, -0.13, 192.0, 0.0, 0.0, 0.0, 0.0, 0.0, 0.0, 0.0, 0.0, 0.0, 1.7296911526526992E9, 0.0, 2024-10-23 19:15:52.652
54.0, 21679.135761157962, 5437.084190497898, 43330.443600469065, 23203.480029520993, 15878.321633138852, 22533.575896450984, 187500.0, -29687.36346809429, 0.188, 0.9580000000000001, -0.128, 192.0, 5.0, 224.0, 29.0, 240.0, 252.0, 0.0, 0.0, 0.0, 0.0, 1.7296911526565037E9, 0.0, 2024-10-23 19:15:52.656
55.0, 21738.6808083869, 5149.126666680178, 43376.53289753591, 23279.207739735575, 15873.560711569871, 22541.913097132816, 187500.0, -29819.886960969805, 0.188, 0.9580000000000001, -0.128, 192.0, 0.0, 0.0, 0.0, 0.0, 0.0, 0.0, 0.0, 0.0, 0.0, 1.7296911526604939E9, 0.0, 2024-10-23 19:15:52.660
56.0, 21713.91507553042, 5709.1719757523515, 43399.10815943577, 23565.086551318953, 15859.61322302976, 22584.33670810899, 187500.0, -29647.24208679701, 0.188, 0.9580000000000001, -0.128, 192.0, 0.0, 0.0, 0.0, 0.0, 0.0, 0.0, 0.0, 0.0, 0.0, 1.729691152664546E9, 0.0, 2024-10-23 19:15:52.664
57.0, 21668.406923819413, 6095.186602495504, 43356.528086248414, 23543.450062686214, 15854.002935171478, 22568.46696954572, 187500.0, -29515.232684043967, 0.188, 0.9580000000000001, -0.128, 192.0, 0.0, 0.0, 0.0, 0.0, 0.0, 0.0, 0.0, 0.0, 0.0, 1.7296911526695309E9, 0.0, 2024-10-23 19:15:52.669
58.0, 21634.544030969624, 5897.105443132573, 43300.00052452094, 23315.395214008717, 15863.658888776172, 22538.0685970865, 187500.0, -29585.528920355908, 0.188, 0.9580000000000001, -0.128, 192.0, 0.0, 0.0, 0.0, 0.0, 0.0, 0.0, 0.0, 0.0, 0.0, 1.7296911526755068E9, 0.0, 2024-10-23 19:15:52.675
59.0, 21655.86759517999, 5433.59731836287, 43298.502957642435, 23185.01748860091, 15861.200196886088, 22514.353396219423, 187500.0, -29754.84338460486, 0.188, 0.9580000000000001, -0.128, 192.0, 0.0, 0.0, 0.0, 0.0, 0.0, 0.0, 0.0, 0.0, 0.0, 1.7296911526765203E9, 0.0, 2024-10-23 19:15:52.676
60.0, 21711.63519759598, 5147.360878868209, 43336.43386798309, 23250.597506832783, 15845.978658912023, 22511.022986295582, 187500.0, -29881.175444266257, 0.188, 0.9580000000000001, -0.128, 192.0, 0.0, 0.0, 0.0, 0.0, 0.0, 0.0, 0.0, 0.0, 0.0, 1.7296911526805077E9, 0.0, 2024-10-23 19:15:52.680
61.0, 21689.86459849651, 5710.624839141946, 43359.09853686077, 23531.64834161381, 15834.154586095166, 22545.489376245663, 187500.0, -29717.06893647539, 0.188, 0.9580000000000001, -0.128, 192.0, 0.0, 0.0, 0.0, 0.0, 0.0, 0.0, 0.0, 0.0, 0.0, 1.7296911526856189E9, 0.0, 2024-10-23 19:15:52.685
62.0, 21647.86567066499, 6092.705558860965, 43326.464989956025, 23516.762079806576, 15830.600658726771, 22562.2755363316, 187500.0, -29576.85644350725, 0.188, 0.9580000000000001, -0.128, 192.0, 0.0, 0.0, 0.0, 0.0, 0.0, 0.0, 0.0, 0.0, 0.0, 1.729691152689623E9, 0.0, 2024-10-23 19:15:52.689
63.0, 21614.695681893314, 5885.862515671553, 43270.85384975122, 23281.08528626982, 15828.968981381535, 22512.40879445181, 187500.0, -29630.38887147771, 0.188, 0.9580000000000001, -0.128, 192.0, 0.0, 0.0, 0.0, 0.0, 0.0, 0.0, 0.0, 0.0, 0.0, 1.7296911526926248E9, 0.0, 2024-10-23 19:15:52.692
64.0, 21643.037693862643, 5420.230975178597, 43273.87133525268, 23159.20122375503, 15836.792091940892, 22505.256236226112, 187500.0, -29779.117379083324, 0.188, 0.9520000000000001, -0.128, 192.0, 5.0, 224.0, 29.0, 192.0, 252.0, 0.0, 0.0, 0.0, 0.0, 1.7296911526977715E9, 0.0, 2024-10-23 19:15:52.697
65.0, 21713.53509587468, 5147.807913757314, 43324.6768503996, 23245.389550374693, 15834.489862261995, 22530.133727804867, 187500.0, -29913.898398148824, 0.188, 0.9520000000000001, -0.128, 192.0, 0.0, 0.0, 0.0, 0.0, 0.0, 0.0, 0.0, 0.0, 0.0, 1.7296911527006578E9, 0.0, 2024-10-23 19:15:52.700
66.0, 21701.800430035644, 5723.588850926024, 43363.27831307391, 23541.885440574344, 15831.360618038252, 22586.2813098766, 187500.0, -29763.158233542235, 0.188, 0.9520000000000001, -0.128, 192.0, 0.0, 0.0, 0.0, 0.0, 0.0, 0.0, 0.0, 0.0, 0.0, 1.7296911527035315E9, 0.0, 2024-10-23 19:15:52.703
67.0, 21662.394304560938, 6108.240021257404, 43336.14329530517, 23531.42482416926, 15841.41890304314, 22583.66615577533, 187500.0, -29632.512287200963, 0.188, 0.9520000000000001, -0.128, 192.0, 0.0, 0.0, 0.0, 0.0, 0.0, 0.0, 0.0, 0.0, 0.0, 1.729691152709562E9, 0.0, 2024-10-23 19:15:52.709
68.0, 21637.13683332644, 5900.435853056414, 43290.99277150545, 23302.006519079987, 15846.403342056674, 22529.910210360315, 187500.0, -29683.608375025797, 0.188, 0.9520000000000001, -0.128, 192.0, 0.0, 0.0, 0.0, 0.0, 0.0, 0.0, 0.0, 0.0, 0.0, 1.729691152712971E9, 0.0, 2024-10-23 19:15:52.712
69.0, 21653.364199800995, 5422.935536257689, 43284.019027235394, 23164.63269765767, 15829.617181970738, 22488.559483118, 187500.0, -29839.824717023937, 0.188, 0.9520000000000001, -0.128, 192.0, 0.0, 0.0, 0.0, 0.0, 0.0, 0.0, 0.0, 0.0, 0.0, 1.7296911527165983E9, 0.0, 2024-10-23 19:15:52.716
70.0, 21721.738186089777, 5154.289919649354, 43337.28323427239, 23255.55959410186, 15844.324629822331, 22510.64300663984, 187500.0, -29955.494994580153, 0.188, 0.9520000000000001, -0.128, 192.0, 0.0, 0.0, 0.0, 0.0, 0.0, 0.0, 0.0, 0.0, 0.0, 1.7296911527205837E9, 0.0, 2024-10-23 19:15:52.720
71.0, 21708.148325460952, 5729.824987629055, 43371.79432771139, 23553.150719779816, 15845.129292622722, 22589.008222700148, 187500.0, -29794.696544968672, 0.188, 0.9520000000000001, -0.128, 192.0, 0.0, 0.0, 0.0, 0.0, 0.0, 0.0, 0.0, 0.0, 0.0, 1.7296911527256937E9, 0.0, 2024-10-23 19:15:52.725
72.0, 21673.167845388394, 6111.995114325895, 43343.29585353087, 23540.052597529007, 15846.716266479048, 22587.9800424552, 187500.0, -29655.48988050102, 0.188, 0.9520000000000001, -0.128, 192.0, 0.0, 0.0, 0.0, 0.0, 0.0, 0.0, 0.0, 0.0, 0.0, 1.729691152728649E9, 0.0, 2024-10-23 19:15:52.728
73.0, 21650.391417788436, 5903.5203937912465, 43302.74978908894, 23317.965664621075, 15861.982507942022, 22556.12880660639, 187500.0, -29704.149628180225, 0.188, 0.9520000000000001, -0.128, 192.0, 0.0, 0.0, 0.0, 0.0, 0.0, 0.0, 0.0, 0.0, 0.0, 1.7296911527345648E9, 0.0, 2024-10-23 19:15:52.734
74.0, 21682.041487937153, 5435.74308583058, 43309.47766416999, 23200.73076495299, 15870.587929557316, 22548.1715855803, 187500.0, -29869.10550226039, 0.184, 0.9560000000000001, -0.128, 192.0, 5.0, 192.0, 29.0, 224.0, 252.0, 0.0, 0.0, 0.0, 0.0, 1.7296911527396917E9, 0.0, 2024-10-23 19:15:52.739
75.0, 21747.196823024373, 5165.130515710177, 43356.304568803855, 23293.89283584271, 15858.339173595808, 22565.89651893336, 187500.0, -30001.338422457986, 0.184, 0.9560000000000001, -0.128, 192.0, 0.0, 0.0, 0.0, 0.0, 0.0, 0.0, 0.0, 0.0, 0.0, 1.729691152743637E9, 0.0, 2024-10-23 19:15:52.743
76.0, 21720.933523289386, 5724.304106748594, 43380.26563885995, 23578.09526659194, 15840.971868154034, 22600.429964116807, 187500.0, -29840.137641446312, 0.184, 0.9560000000000001, -0.128, 192.0, 0.0, 0.0, 0.0, 0.0, 0.0, 0.0, 0.0, 0.0, 0.0, 1.729691152746614E9, 0.0, 2024-10-23 19:15:52.746
77.0, 21676.7664762457, 6095.164250751049, 43351.67775770161, 23561.66673441729, 15853.980583427023, 22606.71080430875, 187500.0, -29693.219625141577, 0.184, 0.9560000000000001, -0.128, 192.0, 0.0, 0.0, 0.0, 0.0, 0.0, 0.0, 0.0, 0.0, 0.0, 1.7296911527496045E9, 0.0, 2024-10-23 19:15:52.749
78.0, 21654.57119400158, 5880.811021424654, 43308.42713218059, 23331.48847001654, 15865.558787054872, 22560.062713630523, 187500.0, -29753.614038659816, 0.184, 0.9560000000000001, -0.128, 192.0, 0.0, 0.0, 0.0, 0.0, 0.0, 0.0, 0.0, 0.0, 0.0, 1.7296911527526748E9, 0.0, 2024-10-23 19:15:52.752
79.0, 21674.665412266902, 5402.506041825538, 43310.28232697038, 23197.89209340717, 15864.038868431911, 22526.870373114394, 187500.0, -29918.569912739982, 0.184, 0.9560000000000001, -0.128, 192.0, 0.0, 0.0, 0.0, 0.0, 0.0, 0.0, 0.0, 0.0, 0.0, 1.729691152756588E9, 0.0, 2024-10-23 19:15:52.756
80.0, 21740.044264798675, 5136.654393274116, 43364.418252041134, 23285.734449116524, 15876.175865671143, 22570.76919922462, 187500.0, -30053.28387657212, 0.184, 0.9560000000000001, -0.128, 192.0, 0.0, 0.0, 0.0, 0.0, 0.0, 0.0, 0.0, 0.0, 0.0, 1.7296911527607584E9, 0.0, 2024-10-23 19:15:52.760
81.0, 21723.816898324123, 5708.769644352155, 43395.57658381183, 23566.204138541718, 15865.178807399132, 22595.579635570008, 187500.0, -29911.238540558643, 0.184, 0.9560000000000001, -0.128, 192.0, 0.0, 0.0, 0.0, 0.0, 0.0, 0.0, 0.0, 0.0, 0.0, 1.729691152764933E9, 0.0, 2024-10-23 19:15:52.764
82.0, 21677.90641521292, 6079.294512187781, 43361.78074619541, 23538.555030650503, 15858.428580573629, 22574.03255391509, 187500.0, -29751.043588047458, 0.184, 0.9560000000000001, -0.128, 192.0, 0.0, 0.0, 0.0, 0.0, 0.0, 0.0, 0.0, 0.0, 0.0, 1.7296911527687304E9, 0.0, 2024-10-23 19:15:52.768
83.0, 21651.821929433576, 5870.439811997391, 43311.511672915425, 23298.027908566943, 15862.317784108853, 22546.02581811259, 187500.0, -29811.549760287973, 0.184, 0.9560000000000001, -0.128, 192.0, 0.0, 0.0, 0.0, 0.0, 0.0, 0.0, 0.0, 0.0, 0.0, 1.7296911527717557E9, 0.0, 2024-10-23 19:15:52.771
84.0, 21674.508950055715, 5401.366102858317, 43308.69535311405, 23161.86108134521, 15852.862996204258, 22505.703271115217, 187500.0, -29981.98181175969, 0.176, 0.9560000000000001, -0.13, 192.0, 5.0, 128.0, 29.0, 224.0, 251.0, 240.0, 0.0, 0.0, 0.0, 1.7296911527756753E9, 0.0, 2024-10-23 19:15:52.775
85.0, 21738.099663031062, 5139.537768308851, 43350.42606001211, 23243.735521285, 15841.485958276506, 22511.514724673598, 187500.0, -30123.20013322832, 0.176, 0.9560000000000001, -0.13, 192.0, 0.0, 0.0, 0.0, 0.0, 0.0, 0.0, 0.0, 0.0, 0.0, 1.729691152780655E9, 0.0, 2024-10-23 19:15:52.780
86.0, 21713.266874941215, 5706.959153051276, 43364.6864729746, 23519.153716463294, 15828.298429047874, 22558.743960707663, 187500.0, -29960.524137082593, 0.176, 0.9560000000000001, -0.13, 192.0, 0.0, 0.0, 0.0, 0.0, 0.0, 0.0, 0.0, 0.0, 0.0, 1.7296911527846808E9, 0.0, 2024-10-23 19:15:52.784
87.0, 21667.33404008556, 6081.641445355588, 43327.4261149676, 23494.544445818003, 15828.812519170348, 22559.70508571924, 187500.0, -29821.786859248503, 0.176, 0.9560000000000001, -0.13, 192.0, 0.0, 0.0, 0.0, 0.0, 0.0, 0.0, 0.0, 0.0, 0.0, 1.729691152787728E9, 0.0, 2024-10-23 19:15:52.787
88.0, 21640.534298483646, 5870.998605608775, 43279.16869868859, 23263.382704661217, 15842.938821666101, 22516.610922409407, 187500.0, -29891.032563571047, 0.176, 0.9560000000000001, -0.13, 192.0, 0.0, 0.0, 0.0, 0.0, 0.0, 0.0, 0.0, 0.0, 0.0, 1.7296911527936718E9, 0.0, 2024-10-23 19:15:52.793
89.0, 21671.156188387416, 5411.714960541125, 43284.868393524695, 23146.706598604513, 15852.304202592875, 22515.22511425318, 187500.0, -30085.515092076672, 0.176, 0.9560000000000001, -0.13, 192.0, 0.0, 0.0, 0.0, 0.0, 0.0, 0.0, 0.0, 0.0, 0.0, 1.7296911527977924E9, 0.0, 2024-10-23 19:15:52.797
90.0, 21733.070520528618, 5149.797219013836, 43328.94603359056, 23243.154375929164, 15836.27800181842, 22512.811125852004, 187500.0, -30211.26600638223, 0.176, 0.9560000000000001, -0.13, 192.0, 0.0, 0.0, 0.0, 0.0, 0.0, 0.0, 0.0, 0.0, 0.0, 1.7296911528007166E9, 0.0, 2024-10-23 19:15:52.800
91.0, 21711.16581096242, 5727.969792839264, 43357.645673471176, 23532.72122534767, 15830.488900004495, 22551.99373388216, 187500.0, -30034.575466463026, 0.176, 0.9560000000000001, -0.13, 192.0, 0.0, 0.0, 0.0, 0.0, 0.0, 0.0, 0.0, 0.0, 0.0, 1.7296911528047068E9, 0.0, 2024-10-23 19:15:52.804
92.0, 21672.497293054737, 6109.245849757892, 43327.20259752305, 23524.361672921383, 15840.256612331465, 22583.37558309741, 187500.0, -29904.980052111157, 0.176, 0.9560000000000001, -0.13, 192.0, 0.0, 0.0, 0.0, 0.0, 0.0, 0.0, 0.0, 0.0, 0.0, 1.7296911528086658E9, 0.0, 2024-10-23 19:15:52.808
93.0, 21643.19415607383, 5889.416443039947, 43276.08415795376, 23297.73733588902, 15841.441254787596, 22533.75471040663, 187500.0, -29949.907058466324, 0.176, 0.9560000000000001, -0.13, 192.0, 0.0, 0.0, 0.0, 0.0, 0.0, 0.0, 0.0, 0.0, 0.0, 1.7296911528126788E9, 0.0, 2024-10-23 19:15:52.812
94.0, 21660.606165004512, 5413.793672775469, 43273.200782919026, 23170.600613427236, 15838.0884931193, 22495.98026227716, 187500.0, -30111.040784244633, 0.184, 0.9500000000000001, -0.13, 192.0, 5.0, 192.0, 29.0, 176.0, 251.0, 240.0, 0.0, 0.0, 0.0, 1.7296911528157425E9, 0.0, 2024-10-23 19:15:52.815
95.0, 21724.39804367996, 5160.436649374563, 43326.040306811374, 23272.94925128809, 15845.621031000737, 22545.444672756752, 187500.0, -30221.704271042858, 0.184, 0.9500000000000001, -0.13, 192.0, 0.0, 0.0, 0.0, 0.0, 0.0, 0.0, 0.0, 0.0, 0.0, 1.7296911528207052E9, 0.0, 2024-10-23 19:15:52.820
96.0, 21706.360185904527, 5743.034868602142, 43361.91485666214, 23562.784321640054, 15855.008763671967, 22611.47172587773, 187500.0, -30054.334408561517, 0.184, 0.9500000000000001, -0.13, 192.0, 0.0, 0.0, 0.0, 0.0, 0.0, 0.0, 0.0, 0.0, 0.0, 1.7296911528247168E9, 0.0, 2024-10-23 19:15:52.824
97.0, 21666.10469414052, 6120.242908029903, 43335.91977786062, 23542.287771974537, 15856.28281310592, 22595.959615225747, 187500.0, -29935.713700737204, 0.184, 0.9500000000000001, -0.13, 192.0, 0.0, 0.0, 0.0, 0.0, 0.0, 0.0, 0.0, 0.0, 0.0, 1.7296911528287408E9, 0.0, 2024-10-23 19:15:52.828
98.0, 21643.171804329373, 5902.5816205241235, 43294.1220157292, 23317.71979543207, 15853.690010749104, 22555.346495550453, 187500.0, -30002.679527125303, 0.184, 0.9500000000000001, -0.13, 192.0, 0.0, 0.0, 0.0, 0.0, 0.0, 0.0, 0.0, 0.0, 0.0, 1.7296911528327816E9, 0.0, 2024-10-23 19:15:52.832
99.0, 21664.92005168439, 5431.317440428429, 43294.68080934058, 23195.276939305895, 15856.61808927275, 22528.949085348737, 187500.0, -30172.59748847455, 0.184, 0.9500000000000001, -0.13, 192.0, 0.0, 0.0, 0.0, 0.0, 0.0, 0.0, 0.0, 0.0, 0.0, 1.7296911528398397E9, 0.0, 2024-10-23 19:15:52.839
100.0, 21732.042340283675, 5181.424937418096, 43349.71080418954, 23295.613920165768, 15860.149664896688, 22545.55643147903, 187500.0, -30297.588443468627, 0.184, 0.9500000000000001, -0.13, 192.0, 0.0, 0.0, 0.0, 0.0, 0.0, 0.0, 0.0, 0.0, 0.0, 1.7296911528427856E9, 0.0, 2024-10-23 19:15:52.842
101.0, 21715.569104620114, 5763.129086867462, 43381.29381910489, 23575.636574701857, 15859.322650351842, 22586.929510465805, 187500.0, -30151.340979497552, 0.184, 0.9500000000000001, -0.13, 192.0, 0.0, 0.0, 0.0, 0.0, 0.0, 0.0, 0.0, 0.0, 0.0, 1.7296911528467376E9, 0.0, 2024-10-23 19:15:52.846
102.0, 21677.52643555718, 6134.704486692487, 43359.2326473275, 23560.99618208363, 15861.222548630543, 22597.47953384871, 187500.0, -30007.708669627747, 0.184, 0.9500000000000001, -0.13, 192.0, 0.0, 0.0, 0.0, 0.0, 0.0, 0.0, 0.0, 0.0, 0.0, 1.7296911528497295E9, 0.0, 2024-10-23 19:15:52.849
103.0, 21654.28062132366, 5913.779844496232, 43317.81486485182, 23328.158060092697, 15865.670545777148, 22553.781873438584, 187500.0, -30075.702676260793, 0.184, 0.9500000000000001, -0.13, 192.0, 0.0, 0.0, 0.0, 0.0, 0.0, 0.0, 0.0, 0.0, 0.0, 1.7296911528528123E9, 0.0, 2024-10-23 19:15:52.852
104.0, 21676.7664762457, 5433.619670107326, 43320.6758881421, 23199.25554981894, 15866.47520857754, 22529.954913849226, 187500.0, -30235.9870357498, 0.184, 0.9500000000000001, -0.13, 192.0, 0.0, 0.0, 0.0, 0.0, 0.0, 0.0, 0.0, 0.0, 0.0, 1.7296911528568065E9, 0.0, 2024-10-23 19:15:52.856
105.0, 21746.92860209091, 5191.639684634171, 43378.65631325916, 23308.019138338466, 15874.633595303727, 22567.03645790058, 187500.0, -30344.214182402397, 0.18, 0.9460000000000001, -0.136, 192.0, 5.0, 160.0, 29.0, 144.0, 251.0, 192.0, 0.0, 0.0, 0.0, 1.7296911528607547E9, 0.0, 2024-10-23 19:15:52.860
106.0, 21722.028758767698, 5770.3934038154375, 43401.119816436745, 23588.511179508114, 15855.23228111652, 22600.541722839087, 187500.0, -30166.49546223825, 0.18, 0.9460000000000001, -0.136, 192.0, 0.0, 0.0, 0.0, 0.0, 0.0, 0.0, 0.0, 0.0, 0.0, 1.7296911528647988E9, 0.0, 2024-10-23 19:15:52.864
107.0, 21677.973470446286, 6141.4994170069, 43366.20639159756, 23563.90190886282, 15861.0437346749, 22575.775989982605, 187500.0, -30039.13522233191, 0.18, 0.9460000000000001, -0.136, 192.0, 0.0, 0.0, 0.0, 0.0, 0.0, 0.0, 0.0, 0.0, 0.0, 1.7296911528688693E9, 0.0, 2024-10-23 19:15:52.868
108.0, 21648.268002065182, 5907.946039193397, 43309.65647812563, 23322.27955130095, 15859.054429418378, 22516.208591009214, 187500.0, -30130.35269145402, 0.18, 0.9460000000000001, -0.136, 192.0, 0.0, 0.0, 0.0, 0.0, 0.0, 0.0, 0.0, 0.0, 0.0, 1.729691152871814E9, 0.0, 2024-10-23 19:15:52.871
109.0, 21675.00068843373, 5431.384495661795, 43315.04324853936, 23199.277901563397, 15872.979566214033, 22522.578838178975, 187500.0, -30307.959652895886, 0.18, 0.9460000000000001, -0.136, 192.0, 0.0, 0.0, 0.0, 0.0, 0.0, 0.0, 0.0, 0.0, 0.0, 1.7296911528757608E9, 0.0, 2024-10-23 19:15:52.875
110.0, 21742.6817706444, 5189.963303800024, 43365.37937705271, 23302.118277802263, 15862.340135853308, 22546.13757683487, 187500.0, -30416.276206526305, 0.18, 0.9460000000000001, -0.136, 192.0, 0.0, 0.0, 0.0, 0.0, 0.0, 0.0, 0.0, 0.0, 0.0, 1.729691152880816E9, 0.0, 2024-10-23 19:15:52.880
111.0, 21721.604075623047, 5772.829743961066, 43380.73502549351, 23569.53454846556, 15853.891176449202, 22570.299812591056, 187500.0, -30250.090986501098, 0.18, 0.9460000000000001, -0.136, 192.0, 0.0, 0.0, 0.0, 0.0, 0.0, 0.0, 0.0, 0.0, 0.0, 1.7296911528929892E9, 0.0, 2024-10-23 19:15:52.892
112.0, 21683.04731643764, 6140.650050717599, 43347.74385067748, 23538.64443762832, 15859.61322302976, 22587.37654535491, 187500.0, -30126.463487918794, 0.18, 0.9460000000000001, -0.136, 192.0, 0.0, 0.0, 0.0, 0.0, 0.0, 0.0, 0.0, 0.0, 0.0, 1.729691152893032E9, 0.0, 2024-10-23 19:15:52.893
113.0, 21659.62268824848, 5906.806100226177, 43298.32414368679, 23294.585739920825, 15861.33430735282, 22549.84796641445, 187500.0, -30193.004631162243, 0.18, 0.9460000000000001, -0.136, 192.0, 0.0, 0.0, 0.0, 0.0, 0.0, 0.0, 0.0, 0.0, 0.0, 1.7296911528938105E9, 0.0, 2024-10-23 19:15:52.893
114.0, 21680.588624547556, 5423.762550802535, 43292.13271047267, 23153.72504636348, 15842.782359454914, 22479.216453935678, 187500.0, -30372.91382228301, 0.18, 0.9460000000000001, -0.136, 192.0, 0.0, 0.0, 0.0, 0.0, 0.0, 0.0, 0.0, 0.0, 0.0, 1.7296911528978527E9, 0.0, 2024-10-23 19:15:52.897
115.0, 21742.279439244205, 5182.520172896406, 43337.372641250215, 23250.12812019922, 15836.456815774061, 22497.008442522103, 187500.0, -30496.60837609868, 0.184, 0.9560000000000001, -0.128, 192.0, 5.0, 192.0, 29.0, 224.0, 252.0, 0.0, 0.0, 0.0, 0.0, 1.7296911529008608E9, 0.0, 2024-10-23 19:15:52.900
116.0, 21717.603113365545, 5762.905569422909, 43360.59610373928, 23525.27809444405, 15828.521946492428, 22550.98790538167, 187500.0, -30316.118039622077, 0.184, 0.9560000000000001, -0.128, 192.0, 0.0, 0.0, 0.0, 0.0, 0.0, 0.0, 0.0, 0.0, 0.0, 1.729691152903924E9, 0.0, 2024-10-23 19:15:52.903
117.0, 21678.8675402245, 6131.5081872353785, 43331.74000164748, 23500.087678442917, 15836.300353562876, 22551.479643759685, 187500.0, -30172.932764641377, 0.184, 0.9560000000000001, -0.128, 192.0, 0.0, 0.0, 0.0, 0.0, 0.0, 0.0, 0.0, 0.0, 0.0, 1.7296911529088976E9, 0.0, 2024-10-23 19:15:52.908
118.0, 21656.04640913563, 5897.574829766135, 43286.053035980825, 23262.086303482807, 15838.312010563854, 22516.968550320693, 187500.0, -30237.104622972565, 0.184, 0.9560000000000001, -0.128, 192.0, 0.0, 0.0, 0.0, 0.0, 0.0, 0.0, 0.0, 0.0, 0.0, 1.729691152912819E9, 0.0, 2024-10-23 19:15:52.912
119.0, 21675.157150644918, 5414.68774255368, 43282.27559116788, 23124.24309542693, 15835.540394251395, 22471.43804686523, 187500.0, -30425.418070008527, 0.184, 0.9560000000000001, -0.128, 192.0, 0.0, 0.0, 0.0, 0.0, 0.0, 0.0, 0.0, 0.0, 0.0, 1.7296911529169545E9, 0.0, 2024-10-23 19:15:52.916
120.0, 21742.16768052193, 5181.559047884828, 43338.46787672852, 23233.40901534665, 15832.433501772108, 22492.247520953122, 187500.0, -30552.733606425954, 0.184, 0.9560000000000001, -0.128, 192.0, 0.0, 0.0, 0.0, 0.0, 0.0, 0.0, 0.0, 0.0, 0.0, 1.7296911529208183E9, 0.0, 2024-10-23 19:15:52.920
121.0, 21721.00057852275, 5768.918188681387, 43370.16265036615, 23516.292693173014, 15837.864975674747, 22553.60305948294, 187500.0, -30380.803988075735, 0.184, 0.9560000000000001, -0.128, 192.0, 0.0, 0.0, 0.0, 0.0, 0.0, 0.0, 0.0, 0.0, 0.0, 1.7296911529239576E9, 0.0, 2024-10-23 19:15:52.923
122.0, 21677.727601257277, 6135.68796344852, 43343.184094808596, 23494.946777218196, 15840.99421989849, 22548.529213491587, 187500.0, -30228.61096007955, 0.184, 0.9560000000000001, -0.128, 192.0, 0.0, 0.0, 0.0, 0.0, 0.0, 0.0, 0.0, 0.0, 0.0, 1.7296911529278295E9, 0.0, 2024-10-23 19:15:52.927
123.0, 21653.654772478912, 5901.039350156707, 43302.88389955567, 23267.785998318912, 15845.285754833909, 22512.252332240623, 187500.0, -30272.57684142314, 0.184, 0.9560000000000001, -0.128, 192.0, 0.0, 0.0, 0.0, 0.0, 0.0, 0.0, 0.0, 0.0, 0.0, 1.7296911529320233E9, 0.0, 2024-10-23 19:15:52.932
124.0, 21679.24751988024, 5420.745065301069, 43308.00244903594, 23141.409235168605, 15851.119560136744, 22475.863692267383, 187500.0, -30443.92531441752, 0.184, 0.9560000000000001, -0.128, 192.0, 0.0, 0.0, 0.0, 0.0, 0.0, 0.0, 0.0, 0.0, 0.0, 1.7296911529359784E9, 0.0, 2024-10-23 19:15:52.935
125.0, 21747.956782335852, 5196.959399814535, 43365.826411941816, 23260.521681370938, 15860.104961407776, 22535.095815073946, 187500.0, -30569.497414767437, 0.178, 0.9520000000000001, -0.124, 192.0, 5.0, 144.0, 29.0, 192.0, 252.0, 32.0, 0.0, 0.0, 0.0, 1.729691152941021E9, 0.0, 2024-10-23 19:15:52.941
126.0, 21727.907267559443, 5787.671302279389, 43401.142168181206, 23550.98260056765, 15859.434409074118, 22586.013088943135, 187500.0, -30375.618383362103, 0.178, 0.9520000000000001, -0.124, 192.0, 0.0, 0.0, 0.0, 0.0, 0.0, 0.0, 0.0, 0.0, 0.0, 1.729691152944952E9, 0.0, 2024-10-23 19:15:52.944
127.0, 21680.09688616954, 6151.602405500699, 43371.10142363327, 23524.585190365935, 15859.032077673923, 22566.745885222663, 187500.0, -30225.571122833626, 0.178, 0.9520000000000001, -0.124, 192.0, 0.0, 0.0, 0.0, 0.0, 0.0, 0.0, 0.0, 0.0, 0.0, 1.7296911529489143E9, 0.0, 2024-10-23 19:15:52.948
128.0, 21655.577022502068, 5911.231745628327, 43327.515521945425, 23292.730545131035, 15859.210891629566, 22524.165812035302, 187500.0, -30296.98494636833, 0.178, 0.9520000000000001, -0.124, 192.0, 0.0, 0.0, 0.0, 0.0, 0.0, 0.0, 0.0, 0.0, 0.0, 1.7296911529520159E9, 0.0, 2024-10-23 19:15:52.952
129.0, 21681.549749559137, 5430.021039250021, 43336.36681274972, 23174.24394777345, 15867.19046440011, 22503.69161411424, 187500.0, -30463.013704182355, 0.178, 0.9520000000000001, -0.124, 192.0, 0.0, 0.0, 0.0, 0.0, 0.0, 0.0, 0.0, 0.0, 0.0, 1.729691152955978E9, 0.0, 2024-10-23 19:15:52.955
130.0, 21747.040360813186, 5205.073083051811, 43392.96142971056, 23288.595472406803, 15870.342060368308, 22543.36596052241, 187500.0, -30586.8200167203, 0.178, 0.9520000000000001, -0.124, 192.0, 0.0, 0.0, 0.0, 0.0, 0.0, 0.0, 0.0, 0.0, 0.0, 1.729691152960042E9, 0.0, 2024-10-23 19:15:52.960
131.0, 21718.050148254653, 5789.727662769278, 43415.603746843786, 23559.65507741631, 15857.71332475106, 22577.452370816754, 187500.0, -30425.775697919813, 0.178, 0.9520000000000001, -0.124, 192.0, 0.0, 0.0, 0.0, 0.0, 0.0, 0.0, 0.0, 0.0, 0.0, 1.7296911529639373E9, 0.0, 2024-10-23 19:15:52.963
132.0, 21671.53616804316, 6149.680155477543, 43381.96437143855, 23525.166335721773, 15858.585042784816, 22560.599155497453, 187500.0, -30295.353269023093, 0.178, 0.9520000000000001, -0.124, 192.0, 0.0, 0.0, 0.0, 0.0, 0.0, 0.0, 0.0, 0.0, 0.0, 1.7296911529689147E9, 0.0, 2024-10-23 19:15:52.968
133.0, 21652.537185256147, 5912.572850295645, 43340.166609307125, 23300.888931857222, 15865.625842288238, 22549.088007102968, 187500.0, -30356.105310452618, 0.178, 0.9520000000000001, -0.124, 192.0, 0.0, 0.0, 0.0, 0.0, 0.0, 0.0, 0.0, 0.0, 0.0, 1.7296911529729E9, 0.0, 2024-10-23 19:15:52.972
134.0, 21677.19115939035, 5435.184292219197, 43338.266711028424, 23177.574357697293, 15858.428580573629, 22511.380614206864, 187500.0, -30527.274969491362, 0.178, 0.9520000000000001, -0.124, 192.0, 0.0, 0.0, 0.0, 0.0, 0.0, 0.0, 0.0, 0.0, 0.0, 1.7296911529769385E9, 0.0, 2024-10-23 19:15:52.976
135.0, 21744.469910200824, 5219.244089036476, 43386.83705172981, 23287.589643906314, 15856.729847995026, 22536.45927148572, 187500.0, -30666.97337233703, 0.182, 0.9520000000000001, -0.128, 192.0, 5.0, 176.0, 29.0, 192.0, 252.0, 0.0, 0.0, 0.0, 0.0, 1.729691152979941E9, 0.0, 2024-10-23 19:15:52.979
136.0, 21717.826630810097, 5804.390407131959, 43404.36081938277, 23557.308144248505, 15848.414999057652, 22591.802190757062, 187500.0, -30484.694896304, 0.182, 0.9520000000000001, -0.128, 192.0, 0.0, 0.0, 0.0, 0.0, 0.0, 0.0, 0.0, 0.0, 0.0, 1.7296911529839673E9, 0.0, 2024-10-23 19:15:52.983
137.0, 21670.373877331484, 6159.336109082235, 43358.003301382465, 23515.353919905894, 15829.214850570543, 22547.903364646838, 187500.0, -30322.443583302927, 0.182, 0.9520000000000001, -0.128, 192.0, 0.0, 0.0, 0.0, 0.0, 0.0, 0.0, 0.0, 0.0, 0.0, 1.729691152987911E9, 0.0, 2024-10-23 19:15:52.987
138.0, 21639.23789730524, 5904.906201947475, 43298.5700128758, 23269.641193108702, 15821.995237111478, 22487.93363427325, 187500.0, -30340.682606778457, 0.182, 0.9520000000000001, -0.128, 192.0, 0.0, 0.0, 0.0, 0.0, 0.0, 0.0, 0.0, 0.0, 0.0, 1.7296911529919524E9, 0.0, 2024-10-23 19:15:52.991
139.0, 21659.443874292836, 5420.655658323248, 43295.73134132998, 23151.109892262208, 15835.406283784663, 22513.526381674576, 187500.0, -30454.63180001161, 0.182, 0.9520000000000001, -0.128, 192.0, 0.0, 0.0, 0.0, 0.0, 0.0, 0.0, 0.0, 0.0, 0.0, 1.7296911529975998E9, 0.0, 2024-10-23 19:15:52.997
140.0, 21722.92282854591, 5198.658132393138, 43344.81577215383, 23263.785036061414, 15835.272173317931, 22525.663378913807, 187500.0, -30518.51308566488, 0.182, 0.9520000000000001, -0.128, 192.0, 0.0, 0.0, 0.0, 0.0, 0.0, 0.0, 0.0, 0.0, 0.0, 1.7296911530009072E9, 0.0, 2024-10-23 19:15:53.000
141.0, 21703.29799691415, 5786.956046456819, 43370.095595132785, 23537.593905638925, 15836.814443685347, 22574.05490565955, 187500.0, -30269.335838477116, 0.182, 0.9520000000000001, -0.128, 192.0, 0.0, 0.0, 0.0, 0.0, 0.0, 0.0, 0.0, 0.0, 0.0, 1.7296911530049229E9, 0.0, 2024-10-23 19:15:53.004
142.0, 21658.035714392154, 6140.091257106216, 43327.180245778596, 23493.248044639593, 15823.537507478895, 22546.718722190708, 187500.0, -30084.308097876085, 0.182, 0.9520000000000001, -0.128, 192.0, 0.0, 0.0, 0.0, 0.0, 0.0, 0.0, 0.0, 0.0, 0.0, 1.7296911530079768E9, 0.0, 2024-10-23 19:15:53.007
143.0, 21635.549859470113, 5894.065605886652, 43273.960742230505, 23255.64900107968, 15820.408263255153, 22504.272759470077, 187500.0, -30130.017415287188, 0.182, 0.9520000000000001, -0.128, 192.0, 0.0, 0.0, 0.0, 0.0, 0.0, 0.0, 0.0, 0.0, 0.0, 1.7296911530119371E9, 0.0, 2024-10-23 19:15:53.011
144.0, 21661.299069082626, 5406.842280249868, 43276.687655054055, 23133.67553158707, 15827.314952291841, 22479.5070266136, 187500.0, -30248.74988183378, 0.182, 0.9520000000000001, -0.128, 192.0, 0.0, 0.0, 0.0, 0.0, 0.0, 0.0, 0.0, 0.0, 0.0, 1.7296911530160348E9, 0.0, 2024-10-23 19:15:53.016
145.0, 21728.64487512647, 5198.747539370959, 43332.72347840351, 23251.13394869971, 15826.063254602344, 22514.375747963877, 187500.0, -30293.989812611322, 0.184, 0.9520000000000001, -0.132, 192.0, 5.0, 192.0, 29.0, 192.0, 251.0, 224.0, 0.0, 0.0, 0.0, 1.7296911530220234E9, 0.0, 2024-10-23 19:15:53.022
146.0, 21703.365052147514, 5788.43126159087, 43355.879885659204, 23523.378196165348, 15824.342170279286, 22577.385315583386, 187500.0, -30055.831975440025, 0.184, 0.9520000000000001, -0.132, 192.0, 0.0, 0.0, 0.0, 0.0, 0.0, 0.0, 0.0, 0.0, 0.0, 1.729691153025061E9, 0.0, 2024-10-23 19:15:53.025
147.0, 21665.657659251414, 6148.428457788045, 43326.174417278104, 23493.762134762066, 15837.46264427455, 22561.828501442495, 187500.0, -29865.9986097811, 0.184, 0.9520000000000001, -0.132, 192.0, 0.0, 0.0, 0.0, 0.0, 0.0, 0.0, 0.0, 0.0, 0.0, 1.7296911530289607E9, 0.0, 2024-10-23 19:15:53.028
148.0, 21650.391417788436, 5903.162765879962, 43283.6166958352, 23267.60718436327, 15839.407246042163, 22516.677977642772, 187500.0, -29874.268755229565, 0.184, 0.9520000000000001, -0.132, 192.0, 0.0, 0.0, 0.0, 0.0, 0.0, 0.0, 0.0, 0.0, 0.0, 1.7296911530329635E9, 0.0, 2024-10-23 19:15:53.032
