%OpenBCI Raw EXG Data
%Number of channels = 8
%Sample Rate = 250 Hz
%Board = OpenBCI_GUI$BoardCytonSerial
Sample Index, EXG Channel 0, EXG Channel 1, EXG Channel 2, EXG Channel 3, EXG Channel 4, EXG Channel 5, EXG Channel 6, EXG Channel 7, Accel Channel 0, Accel Channel 1, Accel Channel 2, Other, Other, Other, Other, Other, Other, Other, Analog Channel 0, Analog Channel 1, Analog Channel 2, Timestamp, Other, Timestamp (Formatted)
0.0, 0.0, 0.0, 0.0, 0.0, 0.0, 0.0, 0.0, 0.0, 0.21, 0.9440000000000001, -0.156, 192.0, 6.0, 144.0, 29.0, 128.0, 251.0, 32.0, 0.0, 0.0, 0.0, 1.7296931902538922E9, 0.0, 2024-10-23 19:49:50.253
1.0, 18480.62348134798, 34209.14372314736, 41953.866714700074, 13860.853178602836, 24599.30176726601, 24424.17584945868, 187500.0, 187500.0, 0.21, 0.9440000000000001, -0.156, 192.0, 0.0, 0.0, 0.0, 0.0, 0.0, 0.0, 0.0, 0.0, 0.0, 1.72969319026995E9, 0.0, 2024-10-23 19:49:50.269
2.0, 18389.808343626064, 34277.94239258079, 41953.084403644134, 13869.838579873871, 24609.449459248717, 24458.88810859777, 187500.0, 187500.0, 0.21, 0.9440000000000001, -0.156, 192.0, 0.0, 0.0, 0.0, 0.0, 0.0, 0.0, 0.0, 0.0, 0.0, 1.7296931902729266E9, 0.0, 2024-10-23 19:49:50.272
3.0, 18391.685890160312, 34318.77902970064, 41962.51683980427, 13873.41485898672, 24614.72447094017, 24459.469253953608, 187500.0, 187500.0, 0.21, 0.9440000000000001, -0.156, 192.0, 0.0, 0.0, 0.0, 0.0, 0.0, 0.0, 0.0, 0.0, 0.0, 1.7296931902769413E9, 0.0, 2024-10-23 19:49:50.276
4.0, 18439.920954694862, 34288.31360200806, 41971.43518584194, 13869.726821151593, 24615.506781996108, 24441.096120011345, 187500.0, 187500.0, 0.21, 0.9440000000000001, -0.156, 192.0, 0.0, 0.0, 0.0, 0.0, 0.0, 0.0, 0.0, 0.0, 0.0, 1.7296931902810128E9, 0.0, 2024-10-23 19:49:50.281
5.0, 18476.242539434737, 34227.71802278972, 41975.70436903291, 13866.977556583592, 24610.522342982575, 24435.552887386428, 187500.0, 187500.0, 0.21, 0.9440000000000001, -0.156, 192.0, 0.0, 0.0, 0.0, 0.0, 0.0, 0.0, 0.0, 0.0, 0.0, 1.729693190284928E9, 0.0, 2024-10-23 19:49:50.284
6.0, 18483.529208127165, 34178.94651638824, 41971.01050269729, 13860.272033246998, 24599.190008543734, 24411.368299885788, 187500.0, 187500.0, 0.21, 0.9440000000000001, -0.156, 192.0, 0.0, 0.0, 0.0, 0.0, 0.0, 0.0, 0.0, 0.0, 0.0, 1.7296931902889E9, 0.0, 2024-10-23 19:49:50.288
7.0, 18387.416706969347, 34246.851116043465, 41970.228191641356, 13864.541216437963, 24620.379462287365, 24452.830785850383, 187500.0, 187500.0, 0.21, 0.9440000000000001, -0.156, 192.0, 0.0, 0.0, 0.0, 0.0, 0.0, 0.0, 0.0, 0.0, 0.0, 1.7296931902929397E9, 0.0, 2024-10-23 19:49:50.292
8.0, 18392.15527679387, 34296.293174778606, 41984.153328437016, 13868.966861840114, 24630.393043803342, 24474.377867505296, 187500.0, 187500.0, 0.20800000000000002, 0.9380000000000001, -0.19, 192.0, 6.0, 128.0, 29.0, 80.0, 250.0, 16.0, 0.0, 0.0, 0.0, 1.7296931902979152E9, 0.0, 2024-10-23 19:49:50.297
9.0, 18436.299972093104, 34261.29034296159, 41986.433206371454, 13855.756980867027, 24626.950875157225, 24449.433320693177, 187500.0, 187500.0, 0.20800000000000002, 0.9380000000000001, -0.19, 192.0, 0.0, 0.0, 0.0, 0.0, 0.0, 0.0, 0.0, 0.0, 0.0, 1.7296931903010097E9, 0.0, 2024-10-23 19:49:50.301
10.0, 18467.771228286176, 34199.26425209812, 41982.454595858406, 13841.138939993256, 24618.881895408857, 24424.712291325606, 187500.0, 187500.0, 0.20800000000000002, 0.9380000000000001, -0.19, 192.0, 0.0, 0.0, 0.0, 0.0, 0.0, 0.0, 0.0, 0.0, 0.0, 1.729693190304934E9, 0.0, 2024-10-23 19:49:50.304
11.0, 18476.42135339038, 34160.52867895707, 41976.17375566647, 13830.052474743425, 24610.58939821594, 24410.74245104104, 187500.0, 187500.0, 0.20800000000000002, 0.9380000000000001, -0.19, 192.0, 0.0, 0.0, 0.0, 0.0, 0.0, 0.0, 0.0, 0.0, 0.0, 1.72969319030994E9, 0.0, 2024-10-23 19:49:50.309
12.0, 18378.364250464947, 34231.67428155831, 41964.5061450608, 13826.990285753047, 24615.77500292957, 24435.396425175244, 187500.0, 187500.0, 0.20800000000000002, 0.9380000000000001, -0.19, 192.0, 0.0, 0.0, 0.0, 0.0, 0.0, 0.0, 0.0, 0.0, 0.0, 1.7296931903129883E9, 0.0, 2024-10-23 19:49:50.312
13.0, 18383.14752377838, 34283.753846139174, 41970.854040486105, 13832.466463144598, 24627.62142749088, 24447.019332292002, 187500.0, 187500.0, 0.20800000000000002, 0.9380000000000001, -0.19, 192.0, 0.0, 0.0, 0.0, 0.0, 0.0, 0.0, 0.0, 0.0, 0.0, 1.7296931903169465E9, 0.0, 2024-10-23 19:49:50.316
14.0, 18427.873364433453, 34257.5352498931, 41970.6081712971, 13831.035951499458, 24621.49704951013, 24433.22830596308, 187500.0, 187500.0, 0.20800000000000002, 0.9380000000000001, -0.19, 192.0, 0.0, 0.0, 0.0, 0.0, 0.0, 0.0, 0.0, 0.0, 0.0, 1.7296931903209429E9, 0.0, 2024-10-23 19:49:50.320
15.0, 18461.93742298334, 34206.9756039352, 41965.48962181683, 13832.0641317444, 24612.757517428105, 24417.58208484436, 187500.0, 187500.0, 0.20800000000000002, 0.9380000000000001, -0.19, 192.0, 0.0, 0.0, 0.0, 0.0, 0.0, 0.0, 0.0, 0.0, 0.0, 1.7296931903249369E9, 0.0, 2024-10-23 19:49:50.324
16.0, 18473.739144055744, 34171.30221978453, 41958.71704324687, 13843.307059205421, 24608.555389470504, 24419.683148823162, 187500.0, 187500.0, 0.20800000000000002, 0.9380000000000001, -0.19, 192.0, 0.0, 0.0, 0.0, 0.0, 0.0, 0.0, 0.0, 0.0, 0.0, 1.7296931903290448E9, 0.0, 2024-10-23 19:49:50.329
17.0, 18374.273881229627, 34239.810316540046, 41941.39444129401, 13845.765751095505, 24610.678805193762, 24444.94062005766, 187500.0, 187500.0, 0.20800000000000002, 0.9380000000000001, -0.19, 192.0, 0.0, 0.0, 0.0, 0.0, 0.0, 0.0, 0.0, 0.0, 0.0, 1.7296931903330033E9, 0.0, 2024-10-23 19:49:50.333
18.0, 18377.64899464238, 34289.7441136532, 41946.22241809635, 13853.164178510211, 24621.92173265478, 24457.234079508078, 187500.0, 187500.0, 0.2, 0.9420000000000001, -0.198, 192.0, 6.0, 64.0, 29.0, 112.0, 249.0, 208.0, 0.0, 0.0, 0.0, 1.7296931903380177E9, 0.0, 2024-10-23 19:49:50.338
19.0, 18421.816041686063, 34260.552735394565, 41946.602397752096, 13852.381867454276, 24617.987825630647, 24444.13595725727, 187500.0, 187500.0, 0.2, 0.9420000000000001, -0.198, 192.0, 0.0, 0.0, 0.0, 0.0, 0.0, 0.0, 0.0, 0.0, 0.0, 1.7296931903410225E9, 0.0, 2024-10-23 19:49:50.341
20.0, 18454.56134731309, 34203.39932482235, 41945.57421750715, 13849.923175564192, 24615.149154084822, 24432.200125718133, 187500.0, 187500.0, 0.2, 0.9420000000000001, -0.198, 192.0, 0.0, 0.0, 0.0, 0.0, 0.0, 0.0, 0.0, 0.0, 0.0, 1.7296931903439867E9, 0.0, 2024-10-23 19:49:50.343
21.0, 18465.536053840646, 34164.149661558826, 41941.774420949754, 13853.79002735496, 24610.410584260295, 24424.265256436498, 187500.0, 187500.0, 0.2, 0.9420000000000001, -0.198, 192.0, 0.0, 0.0, 0.0, 0.0, 0.0, 0.0, 0.0, 0.0, 0.0, 1.7296931903490105E9, 0.0, 2024-10-23 19:49:50.349
22.0, 18374.095067273985, 34240.16794445133, 41938.77928719274, 13865.16706528271, 24621.54175299904, 24464.45369296714, 187500.0, 187500.0, 0.2, 0.9420000000000001, -0.198, 192.0, 0.0, 0.0, 0.0, 0.0, 0.0, 0.0, 0.0, 0.0, 0.0, 1.729693190353058E9, 0.0, 2024-10-23 19:49:50.353
23.0, 18376.129076019417, 34287.50893920767, 41944.76955470676, 13870.956167096636, 24624.603941989415, 24475.584861705884, 187500.0, 187500.0, 0.2, 0.9420000000000001, -0.198, 192.0, 0.0, 0.0, 0.0, 0.0, 0.0, 0.0, 0.0, 0.0, 0.0, 1.729693190357002E9, 0.0, 2024-10-23 19:49:50.357
24.0, 18429.773262712155, 34266.31948546404, 41955.38663332303, 13873.750135153548, 24625.475660023174, 24461.212690021122, 187500.0, 187500.0, 0.2, 0.9420000000000001, -0.198, 192.0, 0.0, 0.0, 0.0, 0.0, 0.0, 0.0, 0.0, 0.0, 0.0, 1.7296931903610053E9, 0.0, 2024-10-23 19:49:50.361
25.0, 18469.782885287153, 34208.29435685806, 41961.64512177052, 13874.778315398493, 24619.731261698158, 24443.241887479056, 187500.0, 187500.0, 0.2, 0.9420000000000001, -0.198, 192.0, 0.0, 0.0, 0.0, 0.0, 0.0, 0.0, 0.0, 0.0, 0.0, 1.729693190366028E9, 0.0, 2024-10-23 19:49:50.366
26.0, 18481.18227495936, 34161.44510047974, 41960.97456943686, 13877.885207877782, 24611.63993020534, 24433.183602474168, 187500.0, 187500.0, 0.2, 0.9420000000000001, -0.198, 192.0, 0.0, 0.0, 0.0, 0.0, 0.0, 0.0, 0.0, 0.0, 0.0, 1.7296931903690617E9, 0.0, 2024-10-23 19:49:50.369
27.0, 18387.34965173598, 34228.96972047922, 41957.44299381292, 13882.422612002209, 24618.39015703084, 24451.288515482967, 187500.0, 187500.0, 0.2, 0.9420000000000001, -0.198, 192.0, 0.0, 0.0, 0.0, 0.0, 0.0, 0.0, 0.0, 0.0, 0.0, 1.7296931903720396E9, 0.0, 2024-10-23 19:49:50.372
28.0, 18394.5916169395, 34280.64695365989, 41972.64218004253, 13891.743289440072, 24628.180221102266, 24465.146597045255, 187500.0, 187500.0, 0.202, 0.9380000000000001, -0.20400000000000001, 192.0, 6.0, 80.0, 29.0, 80.0, 249.0, 160.0, 0.0, 0.0, 0.0, 1.729693190377051E9, 0.0, 2024-10-23 19:49:50.377
29.0, 18443.631344274443, 34254.69657834728, 41978.65479930101, 13884.680138192194, 24621.96643614369, 24431.440166406654, 187500.0, 187500.0, 0.202, 0.9380000000000001, -0.20400000000000001, 192.0, 0.0, 0.0, 0.0, 0.0, 0.0, 0.0, 0.0, 0.0, 0.0, 1.7296931903810685E9, 0.0, 2024-10-23 19:49:50.381
30.0, 18481.830475548562, 34201.275909099095, 41985.58384008215, 13881.863818390826, 24618.97130238668, 24426.41102390421, 187500.0, 187500.0, 0.202, 0.9380000000000001, -0.20400000000000001, 192.0, 0.0, 0.0, 0.0, 0.0, 0.0, 0.0, 0.0, 0.0, 0.0, 1.7296931903851097E9, 0.0, 2024-10-23 19:49:50.385
31.0, 18495.710908855308, 34168.77647266108, 41990.724741306876, 13888.032899860491, 24621.094718109933, 24437.27397170949, 187500.0, 187500.0, 0.202, 0.9380000000000001, -0.20400000000000001, 192.0, 0.0, 0.0, 0.0, 0.0, 0.0, 0.0, 0.0, 0.0, 0.0, 1.7296931903891723E9, 0.0, 2024-10-23 19:49:50.389
32.0, 18398.480820474724, 34244.14655496437, 41984.86858425958, 13890.335129539388, 24625.498011767628, 24470.667477925716, 187500.0, 187500.0, 0.202, 0.9380000000000001, -0.20400000000000001, 192.0, 0.0, 0.0, 0.0, 0.0, 0.0, 0.0, 0.0, 0.0, 0.0, 1.7296931903951836E9, 0.0, 2024-10-23 19:49:50.395
33.0, 18404.605198455476, 34300.048267847094, 41995.798587298224, 13896.235990075587, 24632.427052548774, 24491.432248524696, 187500.0, 187500.0, 0.202, 0.9380000000000001, -0.20400000000000001, 192.0, 0.0, 0.0, 0.0, 0.0, 0.0, 0.0, 0.0, 0.0, 0.0, 1.729693190398148E9, 0.0, 2024-10-23 19:49:50.398
34.0, 18455.634231046944, 34283.6420874169, 42006.929756036974, 13889.664577205727, 24634.930447927767, 24468.40995173573, 187500.0, 187500.0, 0.202, 0.9380000000000001, -0.20400000000000001, 192.0, 0.0, 0.0, 0.0, 0.0, 0.0, 0.0, 0.0, 0.0, 0.0, 1.7296931904032543E9, 0.0, 2024-10-23 19:49:50.403
35.0, 18487.530170384667, 34229.32734839051, 42004.627526358076, 13876.275882277, 24627.2637995796, 24440.98436128907, 187500.0, 187500.0, 0.202, 0.9380000000000001, -0.20400000000000001, 192.0, 0.0, 0.0, 0.0, 0.0, 0.0, 0.0, 0.0, 0.0, 0.0, 1.7296931904071217E9, 0.0, 2024-10-23 19:49:50.407
36.0, 18498.795449590143, 34192.64813573934, 41999.106645477616, 13869.548007195952, 24620.133593098355, 24425.53930587045, 187500.0, 187500.0, 0.202, 0.9380000000000001, -0.20400000000000001, 192.0, 0.0, 0.0, 0.0, 0.0, 0.0, 0.0, 0.0, 0.0, 0.0, 1.72969319041011E9, 0.0, 2024-10-23 19:49:50.410
37.0, 18403.577018210533, 34266.63240988641, 41989.60715408411, 13863.98242282658, 24623.9110379113, 24448.807471848428, 187500.0, 187500.0, 0.202, 0.9380000000000001, -0.20400000000000001, 192.0, 0.0, 0.0, 0.0, 0.0, 0.0, 0.0, 0.0, 0.0, 0.0, 1.7296931904131727E9, 0.0, 2024-10-23 19:49:50.413
38.0, 18402.727651921232, 34314.71101220978, 41989.54009885074, 13857.433361701174, 24626.39208154584, 24459.536309186973, 187500.0, 187500.0, 0.198, 0.934, -0.21, 192.0, 6.0, 48.0, 29.0, 48.0, 249.0, 112.0, 0.0, 0.0, 0.0, 1.7296931904171395E9, 0.0, 2024-10-23 19:49:50.417
39.0, 18449.30868736609, 34291.28638402061, 41989.450691872924, 13848.35855345232, 24626.0121018901, 24453.680152139685, 187500.0, 187500.0, 0.198, 0.934, -0.21, 192.0, 0.0, 0.0, 0.0, 0.0, 0.0, 0.0, 0.0, 0.0, 0.0, 1.7296931904232595E9, 0.0, 2024-10-23 19:49:50.423
40.0, 18481.696365081832, 34229.88614200189, 41979.63827605704, 13838.009695769513, 24611.416412760784, 24426.701596582127, 187500.0, 187500.0, 0.198, 0.934, -0.21, 192.0, 0.0, 0.0, 0.0, 0.0, 0.0, 0.0, 0.0, 0.0, 0.0, 1.7296931904262345E9, 0.0, 2024-10-23 19:49:50.426
41.0, 18489.318309941093, 34186.05437112503, 41969.82586024116, 13832.578221866874, 24603.21332254569, 24409.580160329362, 187500.0, 187500.0, 0.198, 0.934, -0.21, 192.0, 0.0, 0.0, 0.0, 0.0, 0.0, 0.0, 0.0, 0.0, 0.0, 1.7296931904292288E9, 0.0, 2024-10-23 19:49:50.429
42.0, 18387.26024475816, 34251.85790680145, 41952.27974084375, 13833.06996024489, 24606.566084213984, 24433.541230385454, 187500.0, 187500.0, 0.198, 0.934, -0.21, 192.0, 0.0, 0.0, 0.0, 0.0, 0.0, 0.0, 0.0, 0.0, 0.0, 1.7296931904332516E9, 0.0, 2024-10-23 19:49:50.433
43.0, 18387.97550058073, 34301.389372514415, 41953.06205189968, 13839.440207414653, 24613.159848828298, 24428.534439627463, 187500.0, 187500.0, 0.198, 0.934, -0.21, 192.0, 0.0, 0.0, 0.0, 0.0, 0.0, 0.0, 0.0, 0.0, 0.0, 1.729693190437212E9, 0.0, 2024-10-23 19:49:50.437
44.0, 18436.903469193396, 34280.98222982672, 41962.315674104175, 13848.69382961915, 24628.314331568996, 24445.70057936914, 187500.0, 187500.0, 0.198, 0.934, -0.21, 192.0, 0.0, 0.0, 0.0, 0.0, 0.0, 0.0, 0.0, 0.0, 0.0, 1.7296931904411132E9, 0.0, 2024-10-23 19:49:50.441
45.0, 18471.213396932293, 34230.15436293535, 41962.807412482194, 13856.338126222865, 24620.02183437608, 24468.678172669195, 187500.0, 187500.0, 0.198, 0.934, -0.21, 192.0, 0.0, 0.0, 0.0, 0.0, 0.0, 0.0, 0.0, 0.0, 0.0, 1.7296931904452517E9, 0.0, 2024-10-23 19:49:50.445
46.0, 18481.04816449263, 34188.825987437485, 41954.134935633534, 13859.512073935519, 24606.72254642517, 24446.50524216953, 187500.0, 187500.0, 0.198, 0.934, -0.21, 192.0, 0.0, 0.0, 0.0, 0.0, 0.0, 0.0, 0.0, 0.0, 0.0, 1.729693190449325E9, 0.0, 2024-10-23 19:49:50.449
47.0, 18386.25441625767, 34261.98324703971, 41945.753031462795, 13862.730725137082, 24615.283264551552, 24462.665553410716, 187500.0, 187500.0, 0.198, 0.934, -0.21, 192.0, 0.0, 0.0, 0.0, 0.0, 0.0, 0.0, 0.0, 0.0, 0.0, 1.7296931904542162E9, 0.0, 2024-10-23 19:49:50.454
48.0, 18390.41184072636, 34314.12986685394, 41957.37593857956, 13869.391544984765, 24626.101508867923, 24468.767579647018, 187500.0, 187500.0, 0.20400000000000001, 0.9380000000000001, -0.20400000000000001, 192.0, 6.0, 96.0, 29.0, 80.0, 249.0, 160.0, 0.0, 0.0, 0.0, 1.7296931904571395E9, 0.0, 2024-10-23 19:49:50.457
49.0, 18436.881117448942, 34288.8947473639, 41966.227229383854, 13869.88328336278, 24626.861468179402, 24460.028047564992, 187500.0, 187500.0, 0.20400000000000001, 0.9380000000000001, -0.20400000000000001, 192.0, 0.0, 0.0, 0.0, 0.0, 0.0, 0.0, 0.0, 0.0, 0.0, 1.7296931904611948E9, 0.0, 2024-10-23 19:49:50.461
50.0, 18469.492312609233, 34232.50129610316, 41968.26123812929, 13866.88814960577, 24617.138459341346, 24441.65491362273, 187500.0, 187500.0, 0.20400000000000001, 0.9380000000000001, -0.20400000000000001, 192.0, 0.0, 0.0, 0.0, 0.0, 0.0, 0.0, 0.0, 0.0, 0.0, 1.729693190465292E9, 0.0, 2024-10-23 19:49:50.465
51.0, 18480.62348134798, 34195.464455540714, 41971.68105503095, 13870.55383569644, 24613.852752906412, 24432.31188444041, 187500.0, 187500.0, 0.20400000000000001, 0.9380000000000001, -0.20400000000000001, 192.0, 0.0, 0.0, 0.0, 0.0, 0.0, 0.0, 0.0, 0.0, 0.0, 1.7296931904691672E9, 0.0, 2024-10-23 19:49:50.469
52.0, 18383.59455866749, 34268.040569787096, 41965.69078751693, 13876.588806699374, 24618.233694819653, 24460.452730709643, 187500.0, 187500.0, 0.20400000000000001, 0.9380000000000001, -0.20400000000000001, 192.0, 0.0, 0.0, 0.0, 0.0, 0.0, 0.0, 0.0, 0.0, 0.0, 1.7296931904733062E9, 0.0, 2024-10-23 19:49:50.473
53.0, 18386.410878468858, 34320.79068670162, 41976.28551438874, 13885.887132392781, 24629.63308449186, 24480.301079785953, 187500.0, 187500.0, 0.20400000000000001, 0.9380000000000001, -0.20400000000000001, 192.0, 0.0, 0.0, 0.0, 0.0, 0.0, 0.0, 0.0, 0.0, 0.0, 1.729693190477252E9, 0.0, 2024-10-23 19:49:50.477
54.0, 18437.395207571415, 34297.88014863493, 41987.841366272136, 13887.407051015742, 24632.02472114858, 24463.313753999922, 187500.0, 187500.0, 0.20400000000000001, 0.9380000000000001, -0.20400000000000001, 192.0, 0.0, 0.0, 0.0, 0.0, 0.0, 0.0, 0.0, 0.0, 0.0, 1.729693190481213E9, 0.0, 2024-10-23 19:49:50.481
55.0, 18470.051106220617, 34235.00469148215, 41991.08236921816, 13883.36138526933, 24626.369729801387, 24443.577163645885, 187500.0, 187500.0, 0.20400000000000001, 0.9380000000000001, -0.20400000000000001, 192.0, 0.0, 0.0, 0.0, 0.0, 0.0, 0.0, 0.0, 0.0, 0.0, 1.7296931904842036E9, 0.0, 2024-10-23 19:49:50.484
56.0, 18485.51851338369, 34192.55872876153, 41994.904517520015, 13889.061080105434, 24622.63698847735, 24442.481928167574, 187500.0, 187500.0, 0.20400000000000001, 0.9380000000000001, -0.20400000000000001, 192.0, 0.0, 0.0, 0.0, 0.0, 0.0, 0.0, 0.0, 0.0, 0.0, 1.7296931904882712E9, 0.0, 2024-10-23 19:49:50.488
57.0, 18392.177628538328, 34261.58091563951, 41993.429302385965, 13895.744251697572, 24632.941142671247, 24474.579033205395, 187500.0, 187500.0, 0.20400000000000001, 0.9380000000000001, -0.20400000000000001, 192.0, 0.0, 0.0, 0.0, 0.0, 0.0, 0.0, 0.0, 0.0, 0.0, 1.729693190493643E9, 0.0, 2024-10-23 19:49:50.493
58.0, 18396.133887306918, 34307.15612258388, 42007.37679092608, 13906.227219847111, 24645.413416077306, 24485.643146710772, 187500.0, 187500.0, 0.194, 0.934, -0.212, 192.0, 6.0, 16.0, 29.0, 48.0, 249.0, 96.0, 0.0, 0.0, 0.0, 1.7296931904982197E9, 0.0, 2024-10-23 19:49:50.498
59.0, 18440.658562261888, 34265.82774708602, 42010.97542178338, 13902.874458178814, 24638.52907878507, 24464.78896913397, 187500.0, 187500.0, 0.194, 0.934, -0.212, 192.0, 0.0, 0.0, 0.0, 0.0, 0.0, 0.0, 0.0, 0.0, 0.0, 1.7296931905022144E9, 0.0, 2024-10-23 19:49:50.502
60.0, 18475.728449312264, 34195.06212414052, 42012.60709912862, 13896.615969731329, 24634.952799672225, 24451.93671607217, 187500.0, 187500.0, 0.194, 0.934, -0.212, 192.0, 0.0, 0.0, 0.0, 0.0, 0.0, 0.0, 0.0, 0.0, 0.0, 1.7296931905062122E9, 0.0, 2024-10-23 19:49:50.506
61.0, 18490.23473146376, 34143.09431828193, 42010.68484910546, 13895.967769142124, 24630.080119380968, 24446.72875961408, 187500.0, 187500.0, 0.194, 0.934, -0.212, 192.0, 0.0, 0.0, 0.0, 0.0, 0.0, 0.0, 0.0, 0.0, 0.0, 1.7296931905102267E9, 0.0, 2024-10-23 19:49:50.510
62.0, 18393.40697448337, 34203.15345563334, 41997.005581498815, 13900.572228499917, 24632.695273482237, 24477.17183556221, 187500.0, 187500.0, 0.194, 0.934, -0.212, 192.0, 0.0, 0.0, 0.0, 0.0, 0.0, 0.0, 0.0, 0.0, 0.0, 1.7296931905133495E9, 0.0, 2024-10-23 19:49:50.513
63.0, 18396.849143129486, 34245.308845676045, 41999.33016292217, 13906.27192333602, 24641.993599175647, 24483.095047842868, 187500.0, 187500.0, 0.194, 0.934, -0.212, 192.0, 0.0, 0.0, 0.0, 0.0, 0.0, 0.0, 0.0, 0.0, 0.0, 1.7296931905164506E9, 0.0, 2024-10-23 19:49:50.516
64.0, 18444.36895184147, 34209.523702803104, 41999.084293733154, 13900.907504666748, 24642.485337553662, 24461.346800487852, 187500.0, 187500.0, 0.194, 0.934, -0.212, 192.0, 0.0, 0.0, 0.0, 0.0, 0.0, 0.0, 0.0, 0.0, 0.0, 1.7296931905212653E9, 0.0, 2024-10-23 19:49:50.521
65.0, 18479.729411569766, 34147.13998402834, 41992.98226749686, 13895.31956855292, 24633.1646601158, 24459.491605698062, 187500.0, 187500.0, 0.194, 0.934, -0.212, 192.0, 0.0, 0.0, 0.0, 0.0, 0.0, 0.0, 0.0, 0.0, 0.0, 1.729693190525242E9, 0.0, 2024-10-23 19:49:50.525
66.0, 18494.012176276705, 34104.82813177444, 41987.81901452768, 13893.41967027422, 24623.843982677936, 24443.979495046082, 187500.0, 187500.0, 0.194, 0.934, -0.212, 192.0, 0.0, 0.0, 0.0, 0.0, 0.0, 0.0, 0.0, 0.0, 0.0, 1.7296931905292456E9, 0.0, 2024-10-23 19:49:50.529
67.0, 18396.178590795826, 34171.972772118184, 41972.955104464905, 13886.490629493073, 24623.128726855368, 24453.41193120622, 187500.0, 187500.0, 0.194, 0.934, -0.212, 192.0, 0.0, 0.0, 0.0, 0.0, 0.0, 0.0, 0.0, 0.0, 0.0, 1.7296931905334966E9, 0.0, 2024-10-23 19:49:50.533
68.0, 18399.97838735323, 34221.414830853326, 41975.77142426627, 13884.74719342556, 24628.135517613355, 24460.877413854294, 187500.0, 187500.0, 0.2, 0.9420000000000001, -0.20600000000000002, 192.0, 6.0, 64.0, 29.0, 112.0, 249.0, 144.0, 0.0, 0.0, 0.0, 1.7296931905372448E9, 0.0, 2024-10-23 19:49:50.537
69.0, 18450.493329822224, 34196.96202241922, 41981.5605260802, 13874.420687487209, 24625.83328793446, 24435.575239130885, 187500.0, 187500.0, 0.2, 0.9420000000000001, -0.20600000000000002, 192.0, 0.0, 0.0, 0.0, 0.0, 0.0, 0.0, 0.0, 0.0, 0.0, 1.729693190541302E9, 0.0, 2024-10-23 19:49:50.541
70.0, 18487.261949451204, 34142.133193270354, 41982.09696794712, 13866.150542038744, 24615.372671529374, 24434.278837952475, 187500.0, 187500.0, 0.2, 0.9420000000000001, -0.20600000000000002, 192.0, 0.0, 0.0, 0.0, 0.0, 0.0, 0.0, 0.0, 0.0, 0.0, 1.729693190544279E9, 0.0, 2024-10-23 19:49:50.544
71.0, 18500.002443790727, 34103.37526838485, 41975.21263065489, 13861.188454769666, 24602.63217718985, 24423.482945380565, 187500.0, 187500.0, 0.2, 0.9420000000000001, -0.20600000000000002, 192.0, 0.0, 0.0, 0.0, 0.0, 0.0, 0.0, 0.0, 0.0, 0.0, 1.7296931905492525E9, 0.0, 2024-10-23 19:49:50.549
72.0, 18407.242704301203, 34184.80267343553, 41967.2554096288, 13863.356573981831, 24614.076270350968, 24448.628657892783, 187500.0, 187500.0, 0.2, 0.9420000000000001, -0.20600000000000002, 192.0, 0.0, 0.0, 0.0, 0.0, 0.0, 0.0, 0.0, 0.0, 0.0, 1.729693190553455E9, 0.0, 2024-10-23 19:49:50.553
73.0, 18411.757756681178, 34245.28649393159, 41974.139746921035, 13867.446943217152, 24623.48635476665, 24451.51203292752, 187500.0, 187500.0, 0.2, 0.9420000000000001, -0.20600000000000002, 192.0, 0.0, 0.0, 0.0, 0.0, 0.0, 0.0, 0.0, 0.0, 0.0, 1.7296931905573761E9, 0.0, 2024-10-23 19:49:50.557
74.0, 18453.801388001608, 34221.37012736441, 41973.089214931635, 13857.768637868005, 24617.54079074154, 24435.530535641974, 187500.0, 187500.0, 0.2, 0.9420000000000001, -0.20600000000000002, 192.0, 0.0, 0.0, 0.0, 0.0, 0.0, 0.0, 0.0, 0.0, 0.0, 1.7296931905615191E9, 0.0, 2024-10-23 19:49:50.561
75.0, 18486.814914562096, 34166.943629615744, 41970.0046741968, 13850.996059298046, 24608.53303772605, 24423.68411108066, 187500.0, 187500.0, 0.2, 0.9420000000000001, -0.20600000000000002, 192.0, 0.0, 0.0, 0.0, 0.0, 0.0, 0.0, 0.0, 0.0, 0.0, 1.729693190567305E9, 0.0, 2024-10-23 19:49:50.567
76.0, 18501.74587985824, 34132.58899838793, 41971.971627708874, 13854.572338410895, 24607.594264458927, 24418.45380287812, 187500.0, 187500.0, 0.2, 0.9420000000000001, -0.20600000000000002, 192.0, 0.0, 0.0, 0.0, 0.0, 0.0, 0.0, 0.0, 0.0, 0.0, 1.729693190570502E9, 0.0, 2024-10-23 19:49:50.570
77.0, 18401.386547253915, 34203.89106320037, 41962.807412482194, 13860.853178602836, 24614.769174429082, 24450.483852682573, 187500.0, 187500.0, 0.2, 0.9420000000000001, -0.20600000000000002, 192.0, 0.0, 0.0, 0.0, 0.0, 0.0, 0.0, 0.0, 0.0, 0.0, 1.7296931905733244E9, 0.0, 2024-10-23 19:49:50.573
78.0, 18397.005605340673, 34246.985226510194, 41968.08242417365, 13865.323527493898, 24621.87702916587, 24456.78704461897, 187500.0, 187500.0, 0.198, 0.9380000000000001, -0.202, 192.0, 6.0, 48.0, 29.0, 80.0, 249.0, 176.0, 0.0, 0.0, 0.0, 1.7296931905773554E9, 0.0, 2024-10-23 19:49:50.577
79.0, 18443.094902407516, 34217.81619999602, 41980.018255712785, 13868.139847295268, 24626.77206120158, 24448.69571312615, 187500.0, 187500.0, 0.198, 0.9380000000000001, -0.202, 192.0, 0.0, 0.0, 0.0, 0.0, 0.0, 0.0, 0.0, 0.0, 0.0, 1.729693190581277E9, 0.0, 2024-10-23 19:49:50.581
80.0, 18481.517551126188, 34159.52285045658, 41990.009485484305, 13872.409030486231, 24627.2637995796, 24437.519840898498, 187500.0, 187500.0, 0.198, 0.9380000000000001, -0.202, 192.0, 0.0, 0.0, 0.0, 0.0, 0.0, 0.0, 0.0, 0.0, 0.0, 1.7296931905853312E9, 0.0, 2024-10-23 19:49:50.585
81.0, 18493.94512104334, 34111.37719289985, 41992.46817737439, 13874.085411320379, 24623.888686166847, 24427.528611126974, 187500.0, 187500.0, 0.198, 0.9380000000000001, -0.202, 192.0, 0.0, 0.0, 0.0, 0.0, 0.0, 0.0, 0.0, 0.0, 0.0, 1.7296931905894608E9, 0.0, 2024-10-23 19:49:50.589
82.0, 18393.339919250004, 34173.582097718965, 41987.841366272136, 13878.041670088967, 24634.036378149558, 24454.820091106903, 187500.0, 187500.0, 0.198, 0.9380000000000001, -0.202, 192.0, 0.0, 0.0, 0.0, 0.0, 0.0, 0.0, 0.0, 0.0, 0.0, 1.729693190595332E9, 0.0, 2024-10-23 19:49:50.595
83.0, 18389.629529670423, 34211.91533945982, 41997.87729953257, 13886.200056815154, 24643.222945120688, 24473.46144598263, 187500.0, 187500.0, 0.198, 0.9380000000000001, -0.202, 192.0, 0.0, 0.0, 0.0, 0.0, 0.0, 0.0, 0.0, 0.0, 0.0, 1.729693190598506E9, 0.0, 2024-10-23 19:49:50.598
84.0, 18434.914163936875, 34173.20211806323, 42007.421494414986, 13884.121344580812, 24647.514480056107, 24467.13590230178, 187500.0, 187500.0, 0.198, 0.9380000000000001, -0.202, 192.0, 0.0, 0.0, 0.0, 0.0, 0.0, 0.0, 0.0, 0.0, 0.0, 1.7296931906015031E9, 0.0, 2024-10-23 19:49:50.601
85.0, 18471.727487054766, 34104.82813177444, 42015.35636369662, 13886.915312637724, 24646.642762022348, 24466.420646479208, 187500.0, 187500.0, 0.198, 0.9380000000000001, -0.202, 192.0, 0.0, 0.0, 0.0, 0.0, 0.0, 0.0, 0.0, 0.0, 0.0, 1.729693190604431E9, 0.0, 2024-10-23 19:49:50.604
86.0, 18486.546693628632, 34052.927381149224, 42014.88697706306, 13889.441059761175, 24636.1150903839, 24453.210765506123, 187500.0, 187500.0, 0.198, 0.9380000000000001, -0.202, 192.0, 0.0, 0.0, 0.0, 0.0, 0.0, 0.0, 0.0, 0.0, 0.0, 1.7296931906095977E9, 0.0, 2024-10-23 19:49:50.609
87.0, 18385.673270901832, 34109.969032999164, 42000.984192011856, 13887.98819637158, 24636.718587484193, 24471.27097502601, 187500.0, 187500.0, 0.198, 0.9380000000000001, -0.202, 192.0, 0.0, 0.0, 0.0, 0.0, 0.0, 0.0, 0.0, 0.0, 0.0, 1.7296931906133404E9, 0.0, 2024-10-23 19:49:50.613
88.0, 18380.040631299096, 34144.81540260499, 41996.379732654066, 13881.930873624191, 24635.377482816875, 24465.101893556344, 187500.0, 187500.0, 0.202, 0.9380000000000001, -0.198, 192.0, 6.0, 80.0, 29.0, 80.0, 249.0, 208.0, 0.0, 0.0, 0.0, 1.729693190617382E9, 0.0, 2024-10-23 19:49:50.617
89.0, 18425.146451609904, 34109.29848066551, 41996.647953587526, 13869.056268817934, 24637.657360751316, 24451.042646293958, 187500.0, 187500.0, 0.202, 0.9380000000000001, -0.198, 192.0, 0.0, 0.0, 0.0, 0.0, 0.0, 0.0, 0.0, 0.0, 0.0, 1.7296931906235497E9, 0.0, 2024-10-23 19:49:50.623
90.0, 18454.13666416844, 34041.12566007682, 41988.26604941679, 13855.824036100394, 24623.754575700113, 24433.384768174266, 187500.0, 187500.0, 0.202, 0.9380000000000001, -0.198, 192.0, 0.0, 0.0, 0.0, 0.0, 0.0, 0.0, 0.0, 0.0, 0.0, 1.7296931906264515E9, 0.0, 2024-10-23 19:49:50.626
91.0, 18464.239652662236, 33994.835197309876, 41978.83361325665, 13846.615117384807, 24614.50095349562, 24415.324558654378, 187500.0, 187500.0, 0.202, 0.9380000000000001, -0.198, 192.0, 0.0, 0.0, 0.0, 0.0, 0.0, 0.0, 0.0, 0.0, 0.0, 1.7296931906295192E9, 0.0, 2024-10-23 19:49:50.629
92.0, 18369.06592477154, 34066.919573178246, 41966.227229383854, 13848.425608685686, 24619.798316931527, 24454.082483539878, 187500.0, 187500.0, 0.202, 0.9380000000000001, -0.198, 192.0, 0.0, 0.0, 0.0, 0.0, 0.0, 0.0, 0.0, 0.0, 0.0, 1.7296931906333294E9, 0.0, 2024-10-23 19:49:50.633
93.0, 18370.54113990559, 34119.08854473693, 41965.5566770502, 13846.816283084903, 24622.48052626616, 24452.339047472364, 187500.0, 187500.0, 0.202, 0.9380000000000001, -0.198, 192.0, 0.0, 0.0, 0.0, 0.0, 0.0, 0.0, 0.0, 0.0, 0.0, 1.7296931906373525E9, 0.0, 2024-10-23 19:49:50.637
94.0, 18420.050253874095, 34100.737762539124, 41966.87542997306, 13841.630678371273, 24622.078194865968, 24436.625771120285, 187500.0, 187500.0, 0.202, 0.9380000000000001, -0.198, 192.0, 0.0, 0.0, 0.0, 0.0, 0.0, 0.0, 0.0, 0.0, 0.0, 1.7296931906414428E9, 0.0, 2024-10-23 19:49:50.641
95.0, 18458.718771781776, 34051.183945081706, 41964.573200294166, 13834.411064912209, 24616.937293641247, 24414.229323176067, 187500.0, 187500.0, 0.202, 0.9380000000000001, -0.198, 192.0, 0.0, 0.0, 0.0, 0.0, 0.0, 0.0, 0.0, 0.0, 0.0, 1.729693190645446E9, 0.0, 2024-10-23 19:49:50.645
96.0, 18470.967527743283, 34013.61066265233, 41952.63736875503, 13826.02916074147, 24595.43491547524, 24383.24980536101, 187500.0, 187500.0, 0.202, 0.9380000000000001, -0.198, 192.0, 0.0, 0.0, 0.0, 0.0, 0.0, 0.0, 0.0, 0.0, 0.0, 1.7296931906495104E9, 0.0, 2024-10-23 19:49:50.649
97.0, 18374.385639951903, 34090.07598043394, 41937.97462439235, 13824.419835140687, 24600.933444611248, 24410.20600917411, 187500.0, 187500.0, 0.202, 0.9380000000000001, -0.198, 192.0, 0.0, 0.0, 0.0, 0.0, 0.0, 0.0, 0.0, 0.0, 0.0, 1.7296931906524687E9, 0.0, 2024-10-23 19:49:50.652
98.0, 18380.06298304355, 34148.4587369512, 41945.417755295966, 13829.851309043326, 24614.43389826225, 24419.996073245537, 187500.0, 187500.0, 0.202, 0.9380000000000001, -0.198, 192.0, 0.0, 0.0, 0.0, 0.0, 0.0, 0.0, 0.0, 0.0, 0.0, 1.729693190656459E9, 0.0, 2024-10-23 19:49:50.656
99.0, 18427.828660944542, 34123.603597116904, 41945.551865762696, 13820.038893227445, 24607.638967947838, 24394.470381077575, 187500.0, 187500.0, 0.2, 0.936, -0.20400000000000001, 192.0, 6.0, 64.0, 29.0, 64.0, 249.0, 160.0, 0.0, 0.0, 0.0, 1.729693190660524E9, 0.0, 2024-10-23 19:49:50.660
100.0, 18464.686687551344, 34067.88069818982, 41948.16701986397, 13820.217707183088, 24603.481543479153, 24406.339157383343, 187500.0, 187500.0, 0.2, 0.936, -0.20400000000000001, 192.0, 0.0, 0.0, 0.0, 0.0, 0.0, 0.0, 0.0, 0.0, 0.0, 1.729693190664562E9, 0.0, 2024-10-23 19:49:50.664
101.0, 18476.28724292365, 34023.423078468215, 41943.67431922845, 13818.340160648842, 24592.68565090724, 24385.3061658509, 187500.0, 187500.0, 0.2, 0.936, -0.20400000000000001, 192.0, 0.0, 0.0, 0.0, 0.0, 0.0, 0.0, 0.0, 0.0, 0.0, 1.7296931906697104E9, 0.0, 2024-10-23 19:49:50.669
102.0, 18374.653860885366, 34087.661992032765, 41932.52079874525, 13820.038893227445, 24599.212360288187, 24423.17002095819, 187500.0, 187500.0, 0.2, 0.936, -0.20400000000000001, 192.0, 0.0, 0.0, 0.0, 0.0, 0.0, 0.0, 0.0, 0.0, 0.0, 1.7296931906735847E9, 0.0, 2024-10-23 19:49:50.673
103.0, 18375.324413219027, 34133.684233866246, 41944.702499473395, 13829.203108454121, 24617.518438997085, 24442.727797356583, 187500.0, 187500.0, 0.2, 0.936, -0.20400000000000001, 192.0, 0.0, 0.0, 0.0, 0.0, 0.0, 0.0, 0.0, 0.0, 0.0, 1.7296931906774433E9, 0.0, 2024-10-23 19:49:50.677
104.0, 18420.58669574102, 34101.788294528524, 41954.64902575601, 13828.59961135383, 24616.445555263228, 24428.757957072015, 187500.0, 187500.0, 0.2, 0.936, -0.20400000000000001, 192.0, 0.0, 0.0, 0.0, 0.0, 0.0, 0.0, 0.0, 0.0, 0.0, 1.7296931906806457E9, 0.0, 2024-10-23 19:49:50.680
105.0, 18452.5049868232, 34034.26367452904, 41957.59945602411, 13829.3148671764, 24606.655491191807, 24420.130183712266, 187500.0, 187500.0, 0.2, 0.936, -0.20400000000000001, 192.0, 0.0, 0.0, 0.0, 0.0, 0.0, 0.0, 0.0, 0.0, 0.0, 1.7296931906847365E9, 0.0, 2024-10-23 19:49:50.684
106.0, 18462.049181705617, 33983.68167682668, 41955.543095534216, 13833.248774200532, 24600.77698240006, 24397.19729390112, 187500.0, 187500.0, 0.2, 0.936, -0.20400000000000001, 192.0, 0.0, 0.0, 0.0, 0.0, 0.0, 0.0, 0.0, 0.0, 0.0, 1.7296931906885953E9, 0.0, 2024-10-23 19:49:50.688
107.0, 18364.282651458103, 34046.22185781263, 41950.46924954287, 13843.485873161064, 24612.86927615038, 24432.11071874031, 187500.0, 187500.0, 0.2, 0.936, -0.20400000000000001, 192.0, 0.0, 0.0, 0.0, 0.0, 0.0, 0.0, 0.0, 0.0, 0.0, 1.7296931906924815E9, 0.0, 2024-10-23 19:49:50.692
108.0, 18365.266128214138, 34088.62311704434, 41963.16504039348, 13858.997983813046, 24625.609770489904, 24466.71121915713, 187500.0, 187500.0, 0.2, 0.936, -0.20400000000000001, 192.0, 0.0, 0.0, 0.0, 0.0, 0.0, 0.0, 0.0, 0.0, 0.0, 1.7296931906975756E9, 0.0, 2024-10-23 19:49:50.697
109.0, 18411.757756681178, 34054.35789279436, 41971.412834097486, 13862.238986759066, 24624.268665822587, 24449.36626545981, 187500.0, 187500.0, 0.20600000000000002, 0.936, -0.20600000000000002, 192.0, 6.0, 112.0, 29.0, 64.0, 249.0, 144.0, 0.0, 0.0, 0.0, 1.7296931907015612E9, 0.0, 2024-10-23 19:49:50.701
110.0, 18448.191100143325, 33991.63889785277, 41975.14557542153, 13864.205940271133, 24618.054880864012, 24430.523744883987, 187500.0, 187500.0, 0.20600000000000002, 0.936, -0.20600000000000002, 192.0, 0.0, 0.0, 0.0, 0.0, 0.0, 0.0, 0.0, 0.0, 0.0, 1.729693190705758E9, 0.0, 2024-10-23 19:49:50.705
111.0, 18462.853844506008, 33946.175449630675, 41974.85500274361, 13868.922158351203, 24613.07044185048, 24421.918323268692, 187500.0, 187500.0, 0.20600000000000002, 0.936, -0.20600000000000002, 192.0, 0.0, 0.0, 0.0, 0.0, 0.0, 0.0, 0.0, 0.0, 0.0, 1.729693190708684E9, 0.0, 2024-10-23 19:49:50.708
112.0, 18369.423552682823, 34013.96829056362, 41970.228191641356, 13874.420687487209, 24622.368767543885, 24453.07665503939, 187500.0, 187500.0, 0.20600000000000002, 0.936, -0.20600000000000002, 192.0, 0.0, 0.0, 0.0, 0.0, 0.0, 0.0, 0.0, 0.0, 0.0, 1.7296931907125945E9, 0.0, 2024-10-23 19:49:50.712
113.0, 18370.094105016484, 34055.07314861693, 41975.23498239934, 13872.677251419695, 24628.381386802364, 24459.245736509056, 187500.0, 187500.0, 0.20600000000000002, 0.936, -0.20600000000000002, 192.0, 0.0, 0.0, 0.0, 0.0, 0.0, 0.0, 0.0, 0.0, 0.0, 1.7296931907165198E9, 0.0, 2024-10-23 19:49:50.716
114.0, 18423.40301554239, 34031.42500298322, 41985.78500578225, 13865.45763796063, 24630.92948567027, 24444.337122957364, 187500.0, 187500.0, 0.20600000000000002, 0.936, -0.20600000000000002, 192.0, 0.0, 0.0, 0.0, 0.0, 0.0, 0.0, 0.0, 0.0, 0.0, 1.7296931907205443E9, 0.0, 2024-10-23 19:49:50.720
115.0, 18458.584661315046, 33967.364903374306, 41985.51678484878, 13855.041725044457, 24619.68655820925, 24419.079651722866, 187500.0, 187500.0, 0.20600000000000002, 0.936, -0.20600000000000002, 192.0, 0.0, 0.0, 0.0, 0.0, 0.0, 0.0, 0.0, 0.0, 0.0, 1.729693190725727E9, 0.0, 2024-10-23 19:49:50.725
116.0, 18473.5603301001, 33920.96268188509, 41982.186374924946, 13853.275937232487, 24609.96354937119, 24410.630692318762, 187500.0, 187500.0, 0.20600000000000002, 0.936, -0.20600000000000002, 192.0, 0.0, 0.0, 0.0, 0.0, 0.0, 0.0, 0.0, 0.0, 0.0, 1.7296931907295773E9, 0.0, 2024-10-23 19:49:50.729
117.0, 18374.430343440814, 33984.79926404944, 41967.88125847355, 13851.666611631706, 24612.601055216917, 24437.3186751984, 187500.0, 187500.0, 0.20600000000000002, 0.936, -0.20600000000000002, 192.0, 0.0, 0.0, 0.0, 0.0, 0.0, 0.0, 0.0, 0.0, 0.0, 1.7296931907335107E9, 0.0, 2024-10-23 19:49:50.733
118.0, 18373.82684634052, 34032.45318322816, 41971.63635154204, 13853.901786077236, 24620.044186120533, 24446.527593913986, 187500.0, 187500.0, 0.20600000000000002, 0.936, -0.20600000000000002, 192.0, 0.0, 0.0, 0.0, 0.0, 0.0, 0.0, 0.0, 0.0, 0.0, 1.7296931907367709E9, 0.0, 2024-10-23 19:49:50.736
119.0, 18417.949189895295, 34004.84877882586, 41970.27289513027, 13842.50239640503, 24610.924674382768, 24419.660797078704, 187500.0, 187500.0, 0.20400000000000001, 0.9380000000000001, -0.20600000000000002, 192.0, 6.0, 96.0, 29.0, 80.0, 249.0, 144.0, 0.0, 0.0, 0.0, 1.7296931907405477E9, 0.0, 2024-10-23 19:49:50.740
120.0, 18455.008382202195, 33948.835307220856, 41971.0552061862, 13835.483948646064, 24608.71185168169, 24402.49465733703, 187500.0, 187500.0, 0.20400000000000001, 0.9380000000000001, -0.20600000000000002, 192.0, 0.0, 0.0, 0.0, 0.0, 0.0, 0.0, 0.0, 0.0, 0.0, 1.7296931907445743E9, 0.0, 2024-10-23 19:49:50.744
121.0, 18472.912129510896, 33909.47388523506, 41967.50127881781, 13833.1146637338, 24602.498066723118, 24397.800791001417, 187500.0, 187500.0, 0.20400000000000001, 0.9380000000000001, -0.20600000000000002, 192.0, 0.0, 0.0, 0.0, 0.0, 0.0, 0.0, 0.0, 0.0, 0.0, 1.7296931907487645E9, 0.0, 2024-10-23 19:49:50.748
122.0, 18382.320509233537, 33980.53008085848, 41962.11450840408, 13836.109797490812, 24615.171505829276, 24440.760843844517, 187500.0, 187500.0, 0.20400000000000001, 0.9380000000000001, -0.20600000000000002, 192.0, 0.0, 0.0, 0.0, 0.0, 0.0, 0.0, 0.0, 0.0, 0.0, 1.7296931907535932E9, 0.0, 2024-10-23 19:49:50.753
123.0, 18386.67909940232, 34027.42404072572, 41968.14947940701, 13838.054399258424, 24621.027662876568, 24451.243811994056, 187500.0, 187500.0, 0.20400000000000001, 0.9380000000000001, -0.20600000000000002, 192.0, 0.0, 0.0, 0.0, 0.0, 0.0, 0.0, 0.0, 0.0, 0.0, 1.729693190757659E9, 0.0, 2024-10-23 19:49:50.757
124.0, 18435.942344181818, 34000.8254648239, 41973.648008543016, 13827.727893320072, 24622.97226464418, 24425.069919236892, 187500.0, 187500.0, 0.20400000000000001, 0.9380000000000001, -0.20600000000000002, 192.0, 0.0, 0.0, 0.0, 0.0, 0.0, 0.0, 0.0, 0.0, 0.0, 1.7296931907616107E9, 0.0, 2024-10-23 19:49:50.761
125.0, 18477.404830146414, 33948.47767930957, 41977.22428765587, 13823.749282807028, 24621.787622188047, 24411.59181733034, 187500.0, 187500.0, 0.20400000000000001, 0.9380000000000001, -0.20600000000000002, 192.0, 0.0, 0.0, 0.0, 0.0, 0.0, 0.0, 0.0, 0.0, 0.0, 1.72969319076455E9, 0.0, 2024-10-23 19:49:50.764
126.0, 18491.37467043098, 33907.61869044527, 41973.96093296539, 13829.247811943033, 24616.78083143006, 24421.963026757603, 187500.0, 187500.0, 0.20400000000000001, 0.9380000000000001, -0.20600000000000002, 192.0, 0.0, 0.0, 0.0, 0.0, 0.0, 0.0, 0.0, 0.0, 0.0, 1.729693190768745E9, 0.0, 2024-10-23 19:49:50.768
127.0, 18390.188323281804, 33972.37169413229, 41960.63929327003, 13832.332352677866, 24621.11706985439, 24443.2195357346, 187500.0, 187500.0, 0.20400000000000001, 0.9380000000000001, -0.20600000000000002, 192.0, 0.0, 0.0, 0.0, 0.0, 0.0, 0.0, 0.0, 0.0, 0.0, 1.729693190772621E9, 0.0, 2024-10-23 19:49:50.772
128.0, 18386.567340680045, 34017.38810746528, 41965.73549100584, 13836.445073657642, 24634.326950827475, 24446.12526251379, 187500.0, 187500.0, 0.20400000000000001, 0.9380000000000001, -0.20600000000000002, 192.0, 0.0, 0.0, 0.0, 0.0, 0.0, 0.0, 0.0, 0.0, 0.0, 1.729693190776611E9, 0.0, 2024-10-23 19:49:50.776
129.0, 18430.309704579082, 33988.01791525101, 41971.63635154204, 13834.83574805686, 24635.712758983704, 24426.053395992923, 187500.0, 187500.0, 0.198, 0.9400000000000001, -0.214, 192.0, 6.0, 48.0, 29.0, 96.0, 249.0, 80.0, 0.0, 0.0, 0.0, 1.7296931907808492E9, 0.0, 2024-10-23 19:49:50.780
130.0, 18462.764437528185, 33928.74108895553, 41975.480851588356, 13839.328448692377, 24638.193802618243, 24424.242904692044, 187500.0, 187500.0, 0.198, 0.9400000000000001, -0.214, 192.0, 0.0, 0.0, 0.0, 0.0, 0.0, 0.0, 0.0, 0.0, 0.0, 1.729693190785788E9, 0.0, 2024-10-23 19:49:50.785
131.0, 18472.241577177236, 33880.57307965435, 41975.57025856618, 13847.93387030767, 24634.706930483215, 24427.26039019351, 187500.0, 187500.0, 0.198, 0.9400000000000001, -0.214, 192.0, 0.0, 0.0, 0.0, 0.0, 0.0, 0.0, 0.0, 0.0, 0.0, 1.7296931907897336E9, 0.0, 2024-10-23 19:49:50.789
132.0, 18369.289442216093, 33943.515592040494, 41966.56250555068, 13852.873605832292, 24641.278343353075, 24454.283649239977, 187500.0, 187500.0, 0.198, 0.9400000000000001, -0.214, 192.0, 0.0, 0.0, 0.0, 0.0, 0.0, 0.0, 0.0, 0.0, 0.0, 1.7296931907927408E9, 0.0, 2024-10-23 19:49:50.792
133.0, 18363.4332851688, 33984.06165648242, 41969.89291547453, 13855.242890744556, 24646.240430622154, 24448.516899170507, 187500.0, 187500.0, 0.198, 0.9400000000000001, -0.214, 192.0, 0.0, 0.0, 0.0, 0.0, 0.0, 0.0, 0.0, 0.0, 0.0, 1.7296931907966235E9, 0.0, 2024-10-23 19:49:50.796
134.0, 18409.366120024457, 33957.26191488051, 41979.63827605704, 13862.618966414806, 24654.667038281805, 24456.943506830157, 187500.0, 187500.0, 0.198, 0.9400000000000001, -0.214, 192.0, 0.0, 0.0, 0.0, 0.0, 0.0, 0.0, 0.0, 0.0, 0.0, 1.729693190801675E9, 0.0, 2024-10-23 19:49:50.801
135.0, 18446.55942279809, 33900.33202175284, 41987.841366272136, 13870.151504296246, 24656.231660393678, 24450.349742215843, 187500.0, 187500.0, 0.198, 0.9400000000000001, -0.214, 192.0, 0.0, 0.0, 0.0, 0.0, 0.0, 0.0, 0.0, 0.0, 0.0, 1.7296931908067446E9, 0.0, 2024-10-23 19:49:50.806
136.0, 18459.568138071078, 33853.08043397432, 41984.890936004034, 13872.856065375337, 24648.58736378996, 24434.480003652574, 187500.0, 187500.0, 0.198, 0.9400000000000001, -0.214, 192.0, 0.0, 0.0, 0.0, 0.0, 0.0, 0.0, 0.0, 0.0, 0.0, 1.729693190809733E9, 0.0, 2024-10-23 19:49:50.809
137.0, 18363.612099124446, 33918.03460336144, 41975.70436903291, 13873.548969453452, 24650.487262068662, 24441.498451411542, 187500.0, 187500.0, 0.198, 0.9400000000000001, -0.214, 192.0, 0.0, 0.0, 0.0, 0.0, 0.0, 0.0, 0.0, 0.0, 0.0, 1.7296931908136315E9, 0.0, 2024-10-23 19:49:50.813
138.0, 18366.830750326008, 33964.43682485066, 41983.371017381076, 13883.137867824778, 24663.093645941455, 24471.4274372372, 187500.0, 187500.0, 0.198, 0.9400000000000001, -0.214, 192.0, 0.0, 0.0, 0.0, 0.0, 0.0, 0.0, 0.0, 0.0, 0.0, 1.729693190817629E9, 0.0, 2024-10-23 19:49:50.817
139.0, 18419.893791662907, 33939.91696118319, 41991.17177619598, 13882.981405613591, 24662.266631396607, 24471.740361659573, 187500.0, 187500.0, 0.188, 0.9380000000000001, -0.20800000000000002, 192.0, 5.0, 224.0, 29.0, 80.0, 249.0, 128.0, 0.0, 0.0, 0.0, 1.7296931908207161E9, 0.0, 2024-10-23 19:49:50.820
140.0, 18455.231899646747, 33875.67804761863, 41984.3097906482, 13871.760829897026, 24649.68259926827, 24437.78806183196, 187500.0, 187500.0, 0.188, 0.9380000000000001, -0.20800000000000002, 192.0, 0.0, 0.0, 0.0, 0.0, 0.0, 0.0, 0.0, 0.0, 0.0, 1.7296931908247004E9, 0.0, 2024-10-23 19:49:50.824
141.0, 18466.877158507963, 33826.481858072504, 41973.69271203193, 13862.708373392627, 24629.007235647114, 24410.02719521847, 187500.0, 187500.0, 0.188, 0.9380000000000001, -0.20800000000000002, 192.0, 0.0, 0.0, 0.0, 0.0, 0.0, 0.0, 0.0, 0.0, 0.0, 1.72969319082878E9, 0.0, 2024-10-23 19:49:50.828
142.0, 18372.4857416732, 33896.66633566217, 41964.282627616245, 13860.920233836203, 24633.34347407144, 24433.45182340763, 187500.0, 187500.0, 0.188, 0.9380000000000001, -0.20800000000000002, 192.0, 0.0, 0.0, 0.0, 0.0, 0.0, 0.0, 0.0, 0.0, 0.0, 1.729693190832747E9, 0.0, 2024-10-23 19:49:50.832
143.0, 18380.241796999195, 33951.94219970014, 41975.54790682172, 13865.614100171817, 24647.335666100465, 24447.30990496992, 187500.0, 187500.0, 0.188, 0.9380000000000001, -0.20800000000000002, 192.0, 0.0, 0.0, 0.0, 0.0, 0.0, 0.0, 0.0, 0.0, 0.0, 1.7296931908368034E9, 0.0, 2024-10-23 19:49:50.836
144.0, 18431.986085413228, 33931.57976050136, 41983.92981099246, 13866.441114716663, 24642.999427676135, 24440.470271166596, 187500.0, 187500.0, 0.188, 0.9380000000000001, -0.20800000000000002, 192.0, 0.0, 0.0, 0.0, 0.0, 0.0, 0.0, 0.0, 0.0, 0.0, 1.729693190841791E9, 0.0, 2024-10-23 19:49:50.841
145.0, 18468.732353297753, 33877.77911159743, 41984.82388077067, 13861.41197221422, 24633.812860705002, 24423.080613980368, 187500.0, 187500.0, 0.188, 0.9380000000000001, -0.20800000000000002, 192.0, 0.0, 0.0, 0.0, 0.0, 0.0, 0.0, 0.0, 0.0, 0.0, 1.7296931908457773E9, 0.0, 2024-10-23 19:49:50.845
146.0, 18483.350394171524, 33841.166954179644, 41981.69463654693, 13859.847350102347, 24625.92269491228, 24409.133125440258, 187500.0, 187500.0, 0.188, 0.9380000000000001, -0.20800000000000002, 192.0, 0.0, 0.0, 0.0, 0.0, 0.0, 0.0, 0.0, 0.0, 0.0, 1.7296931908487787E9, 0.0, 2024-10-23 19:49:50.848
147.0, 18387.4390587138, 33914.65948994869, 41970.16113640799, 13860.495550691552, 24627.084985623955, 24428.377977416276, 187500.0, 187500.0, 0.188, 0.9380000000000001, -0.20800000000000002, 192.0, 0.0, 0.0, 0.0, 0.0, 0.0, 0.0, 0.0, 0.0, 0.0, 1.7296931908527477E9, 0.0, 2024-10-23 19:49:50.852
148.0, 18389.92010234834, 33968.79541501944, 41974.139746921035, 13864.317698993409, 24636.226849106177, 24438.525669398987, 187500.0, 187500.0, 0.188, 0.9380000000000001, -0.20800000000000002, 192.0, 0.0, 0.0, 0.0, 0.0, 0.0, 0.0, 0.0, 0.0, 0.0, 1.7296931908568528E9, 0.0, 2024-10-23 19:49:50.856
149.0, 18441.865556462475, 33948.85765896531, 41982.16402318049, 13865.547044938452, 24645.145195143843, 24434.614114119307, 187500.0, 187500.0, 0.188, 0.936, -0.20600000000000002, 192.0, 5.0, 224.0, 29.0, 64.0, 249.0, 144.0, 0.0, 0.0, 0.0, 1.7296931908620844E9, 0.0, 2024-10-23 19:49:50.862
150.0, 18477.605995846512, 33889.22320475855, 41976.33021787766, 13856.248719245044, 24631.30946532601, 24406.20504691661, 187500.0, 187500.0, 0.188, 0.936, -0.20600000000000002, 192.0, 0.0, 0.0, 0.0, 0.0, 0.0, 0.0, 0.0, 0.0, 0.0, 1.7296931908647983E9, 0.0, 2024-10-23 19:49:50.864
151.0, 18490.65941460841, 33843.9385704921, 41967.657741029, 13852.672440132195, 24619.39598553133, 24398.896026479724, 187500.0, 187500.0, 0.188, 0.936, -0.20600000000000002, 192.0, 0.0, 0.0, 0.0, 0.0, 0.0, 0.0, 0.0, 0.0, 0.0, 1.729693190869805E9, 0.0, 2024-10-23 19:49:50.869
152.0, 18394.524561706134, 33913.69836493711, 41958.31471184668, 13854.907614577725, 24628.001407146625, 24434.45765190812, 187500.0, 187500.0, 0.188, 0.936, -0.20600000000000002, 192.0, 0.0, 0.0, 0.0, 0.0, 0.0, 0.0, 0.0, 0.0, 0.0, 1.7296931908737552E9, 0.0, 2024-10-23 19:49:50.873
153.0, 18393.965768094753, 33961.73226377157, 41963.34385434912, 13856.114608778313, 24642.239468364653, 24432.848326307336, 187500.0, 187500.0, 0.188, 0.936, -0.20600000000000002, 192.0, 0.0, 0.0, 0.0, 0.0, 0.0, 0.0, 0.0, 0.0, 0.0, 1.729693190876831E9, 0.0, 2024-10-23 19:49:50.876
154.0, 18440.03271341714, 33935.960702414595, 41969.78115675225, 13855.354649466832, 24643.0664829095, 24440.917306055704, 187500.0, 187500.0, 0.188, 0.936, -0.20600000000000002, 192.0, 0.0, 0.0, 0.0, 0.0, 0.0, 0.0, 0.0, 0.0, 0.0, 1.7296931908809583E9, 0.0, 2024-10-23 19:49:50.880
155.0, 18470.76636204319, 33878.51671916446, 41968.685921273944, 13851.443094187152, 24634.81868920549, 24425.516954125997, 187500.0, 187500.0, 0.188, 0.936, -0.20600000000000002, 192.0, 0.0, 0.0, 0.0, 0.0, 0.0, 0.0, 0.0, 0.0, 0.0, 1.7296931908848372E9, 0.0, 2024-10-23 19:49:50.884
156.0, 18483.484504638258, 33842.30689314686, 41967.92596196246, 13853.588861654862, 24630.63891299235, 24412.083555708356, 187500.0, 187500.0, 0.188, 0.936, -0.20600000000000002, 192.0, 0.0, 0.0, 0.0, 0.0, 0.0, 0.0, 0.0, 0.0, 0.0, 1.7296931908887627E9, 0.0, 2024-10-23 19:49:50.888
157.0, 18383.929834834318, 33913.13957132573, 41958.895857202515, 13860.137922780266, 24638.149099129332, 24443.51010841252, 187500.0, 187500.0, 0.188, 0.936, -0.20600000000000002, 192.0, 0.0, 0.0, 0.0, 0.0, 0.0, 0.0, 0.0, 0.0, 0.0, 1.7296931908928263E9, 0.0, 2024-10-23 19:49:50.892
158.0, 18381.806419111064, 33966.11320568481, 41965.24375262782, 13870.486780463074, 24647.693294011748, 24455.98238181858, 187500.0, 187500.0, 0.188, 0.936, -0.20600000000000002, 192.0, 0.0, 0.0, 0.0, 0.0, 0.0, 0.0, 0.0, 0.0, 0.0, 1.72969319089774E9, 0.0, 2024-10-23 19:49:50.897
159.0, 18430.063835390072, 33946.55542928641, 41974.765595765784, 13878.287539277977, 24651.537794058062, 24443.64421887925, 187500.0, 187500.0, 0.198, 0.9380000000000001, -0.2, 192.0, 6.0, 48.0, 29.0, 80.0, 249.0, 192.0, 0.0, 0.0, 0.0, 1.7296931909028118E9, 0.0, 2024-10-23 19:49:50.902
160.0, 18464.5078735957, 33892.64302166022, 41974.698540532416, 13882.13203932429, 24649.302619612532, 24430.724910584082, 187500.0, 187500.0, 0.198, 0.9380000000000001, -0.2, 192.0, 0.0, 0.0, 0.0, 0.0, 0.0, 0.0, 0.0, 0.0, 0.0, 1.7296931909068592E9, 0.0, 2024-10-23 19:49:50.906
161.0, 18478.433010391356, 33852.58869559631, 41969.64704628552, 13887.675271949205, 24643.334703842964, 24431.283704195466, 187500.0, 187500.0, 0.198, 0.9380000000000001, -0.2, 192.0, 0.0, 0.0, 0.0, 0.0, 0.0, 0.0, 0.0, 0.0, 0.0, 1.729693190909871E9, 0.0, 2024-10-23 19:49:50.909
162.0, 18381.135866777404, 33919.30865279539, 41953.91141818898, 13888.122306838311, 24643.200593376234, 24454.35070447334, 187500.0, 187500.0, 0.198, 0.9380000000000001, -0.2, 192.0, 0.0, 0.0, 0.0, 0.0, 0.0, 0.0, 0.0, 0.0, 0.0, 1.72969319091281E9, 0.0, 2024-10-23 19:49:50.912
163.0, 18383.25928250066, 33971.43292086517, 41959.521706047264, 13892.235027818087, 24653.035360936567, 24467.09119881287, 187500.0, 187500.0, 0.198, 0.9380000000000001, -0.2, 192.0, 0.0, 0.0, 0.0, 0.0, 0.0, 0.0, 0.0, 0.0, 0.0, 1.7296931909167557E9, 0.0, 2024-10-23 19:49:50.916
164.0, 18435.18238487034, 33950.355225843814, 41968.79767999622, 13891.877399906803, 24655.270535382097, 24456.183547518678, 187500.0, 187500.0, 0.198, 0.9380000000000001, -0.2, 192.0, 0.0, 0.0, 0.0, 0.0, 0.0, 0.0, 0.0, 0.0, 0.0, 1.7296931909208777E9, 0.0, 2024-10-23 19:49:50.920
165.0, 18468.441780619836, 33887.39036171322, 41964.64025552753, 13879.338071267375, 24639.870183452393, 24415.458669121108, 187500.0, 187500.0, 0.198, 0.9380000000000001, -0.2, 192.0, 0.0, 0.0, 0.0, 0.0, 0.0, 0.0, 0.0, 0.0, 0.0, 1.7296931909258106E9, 0.0, 2024-10-23 19:49:50.925
166.0, 18481.40579240391, 33840.85402975727, 41960.03579616974, 13874.30892876493, 24628.06846237999, 24404.416907360188, 187500.0, 187500.0, 0.198, 0.9380000000000001, -0.2, 192.0, 0.0, 0.0, 0.0, 0.0, 0.0, 0.0, 0.0, 0.0, 0.0, 1.7296931909299364E9, 0.0, 2024-10-23 19:49:50.929
167.0, 18386.097954046483, 33909.02685034595, 41953.19616236641, 13875.605329943339, 24631.82355544848, 24443.93479155717, 187500.0, 187500.0, 0.198, 0.9380000000000001, -0.2, 192.0, 0.0, 0.0, 0.0, 0.0, 0.0, 0.0, 0.0, 0.0, 0.0, 1.7296931909329083E9, 0.0, 2024-10-23 19:49:50.932
168.0, 18391.01533782665, 33957.708949769614, 41962.82976422665, 13879.896864878758, 24644.67580851028, 24438.659779865717, 187500.0, 187500.0, 0.198, 0.9380000000000001, -0.2, 192.0, 0.0, 0.0, 0.0, 0.0, 0.0, 0.0, 0.0, 0.0, 0.0, 1.7296931909367995E9, 0.0, 2024-10-23 19:49:50.936
169.0, 18437.64107676042, 33927.5564464994, 41969.62469454106, 13872.721954908606, 24645.68163701077, 24424.868753536794, 187500.0, 187500.0, 0.202, 0.9400000000000001, -0.20400000000000001, 192.0, 6.0, 80.0, 29.0, 96.0, 249.0, 160.0, 0.0, 0.0, 0.0, 1.7296931909408655E9, 0.0, 2024-10-23 19:49:50.940
170.0, 18472.688612066344, 33867.83258531482, 41970.854040486105, 13864.630623415784, 24636.29390433954, 24419.146706956235, 187500.0, 187500.0, 0.202, 0.9400000000000001, -0.20400000000000001, 192.0, 0.0, 0.0, 0.0, 0.0, 0.0, 0.0, 0.0, 0.0, 0.0, 1.7296931909448135E9, 0.0, 2024-10-23 19:49:50.944
171.0, 18483.350394171524, 33818.591692279784, 41962.338025848636, 13857.835693101371, 24618.613674475393, 24404.148686426724, 187500.0, 187500.0, 0.202, 0.9400000000000001, -0.20400000000000001, 192.0, 0.0, 0.0, 0.0, 0.0, 0.0, 0.0, 0.0, 0.0, 0.0, 1.7296931909488213E9, 0.0, 2024-10-23 19:49:50.948
172.0, 18390.233026770715, 33887.90445183569, 41955.09606064511, 13857.03103030098, 24627.01793039059, 24429.78613731696, 187500.0, 187500.0, 0.202, 0.9400000000000001, -0.20400000000000001, 192.0, 0.0, 0.0, 0.0, 0.0, 0.0, 0.0, 0.0, 0.0, 0.0, 1.7296931909538352E9, 0.0, 2024-10-23 19:49:50.953
173.0, 18395.239817528705, 33936.63125474826, 41966.71896776187, 13861.724896636593, 24640.02664566358, 24442.526631656485, 187500.0, 187500.0, 0.202, 0.9400000000000001, -0.20400000000000001, 192.0, 0.0, 0.0, 0.0, 0.0, 0.0, 0.0, 0.0, 0.0, 0.0, 1.7296931909578335E9, 0.0, 2024-10-23 19:49:50.957
174.0, 18443.273716363157, 33908.31159452338, 41972.84334574263, 13854.25941398852, 24636.69623573974, 24420.93484651266, 187500.0, 187500.0, 0.202, 0.9400000000000001, -0.20400000000000001, 192.0, 0.0, 0.0, 0.0, 0.0, 0.0, 0.0, 0.0, 0.0, 0.0, 1.7296931909608867E9, 0.0, 2024-10-23 19:49:50.960
175.0, 18483.193931960337, 33852.58869559631, 41975.90553473301, 13850.124341264289, 24632.136479870856, 24406.27210214998, 187500.0, 187500.0, 0.202, 0.9400000000000001, -0.20400000000000001, 192.0, 0.0, 0.0, 0.0, 0.0, 0.0, 0.0, 0.0, 0.0, 0.0, 1.729693190964811E9, 0.0, 2024-10-23 19:49:50.964
176.0, 18499.51070541271, 33808.667517741625, 41974.81029925469, 13852.180701754178, 24629.07429088048, 24400.237131147045, 187500.0, 187500.0, 0.202, 0.9400000000000001, -0.20400000000000001, 192.0, 0.0, 0.0, 0.0, 0.0, 0.0, 0.0, 0.0, 0.0, 0.0, 1.7296931909688373E9, 0.0, 2024-10-23 19:49:50.968
177.0, 18400.40307049788, 33872.146471994696, 41963.07563341566, 13854.97466981109, 24632.471756037685, 24429.49556463904, 187500.0, 187500.0, 0.202, 0.9400000000000001, -0.20400000000000001, 192.0, 0.0, 0.0, 0.0, 0.0, 0.0, 0.0, 0.0, 0.0, 0.0, 1.7296931909729638E9, 0.0, 2024-10-23 19:49:50.972
178.0, 18401.49830597619, 33922.48260050805, 41969.64704628552, 13861.970765825603, 24640.54073578605, 24438.100986254336, 187500.0, 187500.0, 0.202, 0.9400000000000001, -0.20400000000000001, 192.0, 0.0, 0.0, 0.0, 0.0, 0.0, 0.0, 0.0, 0.0, 0.0, 1.7296931909769063E9, 0.0, 2024-10-23 19:49:50.976
179.0, 18450.78390250014, 33901.27079501996, 41979.34770337912, 13860.897882091747, 24643.938200943256, 24418.342044155845, 187500.0, 187500.0, 0.2, 0.9380000000000001, -0.21, 192.0, 6.0, 64.0, 29.0, 80.0, 249.0, 112.0, 0.0, 0.0, 0.0, 1.7296931909808536E9, 0.0, 2024-10-23 19:49:50.980
180.0, 18484.915016283398, 33844.40795712566, 41979.83944175714, 13857.701582634638, 24635.82451770598, 24393.77747699946, 187500.0, 187500.0, 0.2, 0.9380000000000001, -0.21, 192.0, 0.0, 0.0, 0.0, 0.0, 0.0, 0.0, 0.0, 0.0, 0.0, 1.7296931909859002E9, 0.0, 2024-10-23 19:49:50.985
181.0, 18495.889722810953, 33802.520788016416, 41978.36422662309, 13864.921196093703, 24636.338607828453, 24408.50727659551, 187500.0, 187500.0, 0.2, 0.9380000000000001, -0.21, 192.0, 0.0, 0.0, 0.0, 0.0, 0.0, 0.0, 0.0, 0.0, 0.0, 1.7296931909889247E9, 0.0, 2024-10-23 19:49:50.988
182.0, 18398.480820474724, 33874.024018528944, 41972.530421320254, 13877.326414266397, 24646.77687248908, 24446.08055902488, 187500.0, 187500.0, 0.2, 0.9380000000000001, -0.21, 192.0, 0.0, 0.0, 0.0, 0.0, 0.0, 0.0, 0.0, 0.0, 0.0, 1.7296931909929419E9, 0.0, 2024-10-23 19:49:50.992
183.0, 18397.11736406295, 33925.03069937595, 41982.6110580696, 13890.513943495029, 24656.566936560506, 24465.50422495654, 187500.0, 187500.0, 0.2, 0.9380000000000001, -0.21, 192.0, 0.0, 0.0, 0.0, 0.0, 0.0, 0.0, 0.0, 0.0, 0.0, 1.7296931909969866E9, 0.0, 2024-10-23 19:49:50.996
184.0, 18443.899565207907, 33905.24940553301, 41991.35059015162, 13898.56057149894, 24658.600945305938, 24465.392466234265, 187500.0, 187500.0, 0.2, 0.9380000000000001, -0.21, 192.0, 0.0, 0.0, 0.0, 0.0, 0.0, 0.0, 0.0, 0.0, 0.0, 1.7296931910009272E9, 0.0, 2024-10-23 19:49:51.000
185.0, 18476.309594668102, 33850.42057638414, 41989.04836047273, 13897.442984276175, 24650.82253823549, 24437.676303109685, 187500.0, 187500.0, 0.2, 0.9380000000000001, -0.21, 192.0, 0.0, 0.0, 0.0, 0.0, 0.0, 0.0, 0.0, 0.0, 0.0, 1.7296931910049148E9, 0.0, 2024-10-23 19:49:51.004
186.0, 18488.670109351886, 33806.633508996194, 41981.53817433574, 13898.538219754484, 24637.07621539548, 24417.380919144263, 187500.0, 187500.0, 0.2, 0.9380000000000001, -0.21, 192.0, 0.0, 0.0, 0.0, 0.0, 0.0, 0.0, 0.0, 0.0, 0.0, 1.7296931910089252E9, 0.0, 2024-10-23 19:49:51.008
187.0, 18389.271901759137, 33872.86172781727, 41966.49545031732, 13904.684949479693, 24641.099529397434, 24448.60630614833, 187500.0, 187500.0, 0.2, 0.9380000000000001, -0.21, 192.0, 0.0, 0.0, 0.0, 0.0, 0.0, 0.0, 0.0, 0.0, 0.0, 1.7296931910139697E9, 0.0, 2024-10-23 19:49:51.013
188.0, 18389.763640137153, 33925.276568564965, 41972.798642253714, 13913.692702495182, 24655.941087715757, 24476.881262884293, 187500.0, 187500.0, 0.2, 0.9380000000000001, -0.21, 192.0, 0.0, 0.0, 0.0, 0.0, 0.0, 0.0, 0.0, 0.0, 0.0, 1.7296931910169256E9, 0.0, 2024-10-23 19:49:51.016
189.0, 18440.32328609506, 33901.71782990907, 41977.64897080052, 13911.144603627277, 24654.242355137154, 24468.54406220246, 187500.0, 187500.0, 0.2, 0.936, -0.212, 192.0, 6.0, 64.0, 29.0, 64.0, 249.0, 96.0, 0.0, 0.0, 0.0, 1.72969319101992E9, 0.0, 2024-10-23 19:49:51.019
190.0, 18468.911167253395, 33833.23208489801, 41966.026063683756, 13893.799649929959, 24633.83521244946, 24434.1670792302, 187500.0, 187500.0, 0.2, 0.936, -0.212, 192.0, 0.0, 0.0, 0.0, 0.0, 0.0, 0.0, 0.0, 0.0, 0.0, 1.7296931910248995E9, 0.0, 2024-10-23 19:49:51.024
191.0, 18479.930577269864, 33785.33229653029, 41958.96291243588, 13884.814248658926, 24619.418337275787, 24413.223494675578, 187500.0, 187500.0, 0.2, 0.936, -0.212, 192.0, 0.0, 0.0, 0.0, 0.0, 0.0, 0.0, 0.0, 0.0, 0.0, 1.7296931910289574E9, 0.0, 2024-10-23 19:49:51.028
192.0, 18386.410878468858, 33856.343788664795, 41951.72094723236, 13883.383737013786, 24627.129689112866, 24438.905649054726, 187500.0, 187500.0, 0.2, 0.936, -0.212, 192.0, 0.0, 0.0, 0.0, 0.0, 0.0, 0.0, 0.0, 0.0, 0.0, 1.7296931910349426E9, 0.0, 2024-10-23 19:49:51.034
193.0, 18388.44488721429, 33902.92482410966, 41957.53240079074, 13879.852161389848, 24631.30946532601, 24437.74335834305, 187500.0, 187500.0, 0.2, 0.936, -0.212, 192.0, 0.0, 0.0, 0.0, 0.0, 0.0, 0.0, 0.0, 0.0, 0.0, 1.7296931910379531E9, 0.0, 2024-10-23 19:49:51.037
194.0, 18439.764492483675, 33878.06968427535, 41966.62956078405, 13873.638376431272, 24634.05872989401, 24425.762823315006, 187500.0, 187500.0, 0.2, 0.936, -0.212, 192.0, 0.0, 0.0, 0.0, 0.0, 0.0, 0.0, 0.0, 0.0, 0.0, 1.729693191042046E9, 0.0, 2024-10-23 19:49:51.042
195.0, 18480.690536581344, 33824.02316618242, 41972.195145153426, 13868.497475206552, 24627.353206557418, 24412.30707315291, 187500.0, 187500.0, 0.2, 0.936, -0.212, 192.0, 0.0, 0.0, 0.0, 0.0, 0.0, 0.0, 0.0, 0.0, 0.0, 1.7296931910449483E9, 0.0, 2024-10-23 19:49:51.044
196.0, 18494.682728610365, 33778.313848771315, 41969.89291547453, 13863.088353048368, 24612.958683128203, 24396.459686334096, 187500.0, 187500.0, 0.2, 0.936, -0.212, 192.0, 0.0, 0.0, 0.0, 0.0, 0.0, 0.0, 0.0, 0.0, 0.0, 1.7296931910479434E9, 0.0, 2024-10-23 19:49:51.047
197.0, 18397.3408815075, 33841.50223034647, 41960.14755489201, 13861.389620469765, 24617.987825630647, 24419.102003467324, 187500.0, 187500.0, 0.2, 0.936, -0.212, 192.0, 0.0, 0.0, 0.0, 0.0, 0.0, 0.0, 0.0, 0.0, 0.0, 1.7296931910530517E9, 0.0, 2024-10-23 19:49:51.053
198.0, 18399.441945486302, 33890.67606814815, 41968.7082730184, 13864.965899582614, 24630.59420950344, 24422.87944828027, 187500.0, 187500.0, 0.2, 0.936, -0.212, 192.0, 0.0, 0.0, 0.0, 0.0, 0.0, 0.0, 0.0, 0.0, 0.0, 1.7296931910569823E9, 0.0, 2024-10-23 19:49:51.056
199.0, 18448.3028588656, 33864.94921028009, 41978.72185453437, 13866.441114716663, 24633.857564193913, 24420.01842498999, 187500.0, 187500.0, 0.2, 0.9440000000000001, -0.216, 192.0, 6.0, 64.0, 29.0, 128.0, 249.0, 64.0, 0.0, 0.0, 0.0, 1.729693191060989E9, 0.0, 2024-10-23 19:49:51.060
200.0, 18485.026775005674, 33809.67334624211, 41983.4604243589, 13870.017393829512, 24631.82355544848, 24422.32065466889, 187500.0, 187500.0, 0.2, 0.9440000000000001, -0.216, 192.0, 0.0, 0.0, 0.0, 0.0, 0.0, 0.0, 0.0, 0.0, 0.0, 1.7296931910650485E9, 0.0, 2024-10-23 19:49:51.065
201.0, 18499.935388557362, 33770.53544170087, 41985.71795054888, 13873.41485898672, 24631.667093237294, 24413.156439442213, 187500.0, 187500.0, 0.2, 0.9440000000000001, -0.216, 192.0, 0.0, 0.0, 0.0, 0.0, 0.0, 0.0, 0.0, 0.0, 0.0, 1.7296931910700104E9, 0.0, 2024-10-23 19:49:51.070
202.0, 18406.281579289625, 33844.18443968111, 41982.96868598088, 13879.226312545099, 24642.64179976485, 24437.966875787602, 187500.0, 187500.0, 0.2, 0.9440000000000001, -0.216, 192.0, 0.0, 0.0, 0.0, 0.0, 0.0, 0.0, 0.0, 0.0, 0.0, 1.729693191073096E9, 0.0, 2024-10-23 19:49:51.073
203.0, 18407.063890345562, 33894.38645772773, 41991.70821806291, 13886.423574259708, 24652.387160347364, 24441.990189789558, 187500.0, 187500.0, 0.2, 0.9440000000000001, -0.216, 192.0, 0.0, 0.0, 0.0, 0.0, 0.0, 0.0, 0.0, 0.0, 0.0, 1.7296931910761003E9, 0.0, 2024-10-23 19:49:51.076
204.0, 18451.856786234, 33868.27962020393, 41996.62560184307, 13884.836600403381, 24651.2695731246, 24436.134032742266, 187500.0, 187500.0, 0.2, 0.9440000000000001, -0.216, 192.0, 0.0, 0.0, 0.0, 0.0, 0.0, 0.0, 0.0, 0.0, 0.0, 1.7296931910810933E9, 0.0, 2024-10-23 19:49:51.081
205.0, 18484.020946505185, 33813.04845965486, 41996.73736056535, 13884.210751558632, 24647.939163200757, 24434.770576330495, 187500.0, 187500.0, 0.2, 0.9440000000000001, -0.216, 192.0, 0.0, 0.0, 0.0, 0.0, 0.0, 0.0, 0.0, 0.0, 0.0, 1.729693191085022E9, 0.0, 2024-10-23 19:49:51.085
206.0, 18492.179333231372, 33767.7191218995, 41990.36711339559, 13883.137867824778, 24637.657360751316, 24420.376052901276, 187500.0, 187500.0, 0.2, 0.9440000000000001, -0.216, 192.0, 0.0, 0.0, 0.0, 0.0, 0.0, 0.0, 0.0, 0.0, 0.0, 1.7296931910890477E9, 0.0, 2024-10-23 19:49:51.089
207.0, 18396.245646029194, 33839.82584951232, 41986.8131860272, 13888.278769049499, 24656.522233071595, 24454.12718702879, 187500.0, 187500.0, 0.2, 0.9440000000000001, -0.216, 192.0, 0.0, 0.0, 0.0, 0.0, 0.0, 0.0, 0.0, 0.0, 0.0, 1.7296931910930393E9, 0.0, 2024-10-23 19:49:51.093
208.0, 18396.223294284737, 33893.2018152716, 41999.732494322365, 13898.158240098744, 24675.722381558702, 24474.84725413886, 187500.0, 187500.0, 0.2, 0.9440000000000001, -0.216, 192.0, 0.0, 0.0, 0.0, 0.0, 0.0, 0.0, 0.0, 0.0, 0.0, 1.7296931910970488E9, 0.0, 2024-10-23 19:49:51.097
209.0, 18436.03175115964, 33862.80344281238, 41999.75484606682, 13894.760774941538, 24668.636878566373, 24459.245736509056, 187500.0, 187500.0, 0.198, 0.9420000000000001, -0.212, 192.0, 6.0, 48.0, 29.0, 112.0, 249.0, 96.0, 0.0, 0.0, 0.0, 1.729693191101064E9, 0.0, 2024-10-23 19:49:51.101
210.0, 18466.810103274598, 33802.0290496384, 41993.47400587488, 13883.964882369624, 24656.097549926944, 24430.635503606263, 187500.0, 187500.0, 0.198, 0.9420000000000001, -0.212, 192.0, 0.0, 0.0, 0.0, 0.0, 0.0, 0.0, 0.0, 0.0, 0.0, 1.7296931911041243E9, 0.0, 2024-10-23 19:49:51.104
211.0, 18476.823684790575, 33756.520897927396, 41982.8569272586, 13878.55576021144, 24643.893497454348, 24405.959177727604, 187500.0, 187500.0, 0.198, 0.9420000000000001, -0.212, 192.0, 0.0, 0.0, 0.0, 0.0, 0.0, 0.0, 0.0, 0.0, 0.0, 1.7296931911090484E9, 0.0, 2024-10-23 19:49:51.109
212.0, 18377.045497542083, 33827.398279595174, 41966.942485206426, 13879.047498589456, 24647.425073078284, 24441.61021013382, 187500.0, 187500.0, 0.198, 0.9420000000000001, -0.212, 192.0, 0.0, 0.0, 0.0, 0.0, 0.0, 0.0, 0.0, 0.0, 0.0, 1.7296931911130466E9, 0.0, 2024-10-23 19:49:51.113
213.0, 18379.191265009795, 33882.18240525513, 41970.854040486105, 13884.70248993665, 24651.2695731246, 24449.254506737532, 187500.0, 187500.0, 0.198, 0.9420000000000001, -0.212, 192.0, 0.0, 0.0, 0.0, 0.0, 0.0, 0.0, 0.0, 0.0, 0.0, 1.729693191117062E9, 0.0, 2024-10-23 19:49:51.117
214.0, 18429.88502143443, 33862.6916840901, 41977.73837777834, 13888.010548116035, 24652.92360221429, 24443.823032834895, 187500.0, 187500.0, 0.198, 0.9420000000000001, -0.212, 192.0, 0.0, 0.0, 0.0, 0.0, 0.0, 0.0, 0.0, 0.0, 0.0, 1.729693191121048E9, 0.0, 2024-10-23 19:49:51.121
215.0, 18466.43012361886, 33809.159256119645, 41977.78308126725, 13888.837562660881, 24646.151023644332, 24443.666570623707, 187500.0, 187500.0, 0.198, 0.9420000000000001, -0.212, 192.0, 0.0, 0.0, 0.0, 0.0, 0.0, 0.0, 0.0, 0.0, 0.0, 1.7296931911261487E9, 0.0, 2024-10-23 19:49:51.126
216.0, 18482.18810345985, 33768.881412611176, 41973.46919458738, 13885.328338781399, 24633.38817756035, 24414.74341329854, 187500.0, 187500.0, 0.198, 0.9420000000000001, -0.212, 192.0, 0.0, 0.0, 0.0, 0.0, 0.0, 0.0, 0.0, 0.0, 0.0, 1.7296931911291523E9, 0.0, 2024-10-23 19:49:51.129
217.0, 18385.360346479458, 33838.730614034015, 41960.46047931439, 13880.992100357069, 24632.091776381945, 24415.995110988035, 187500.0, 187500.0, 0.198, 0.9420000000000001, -0.212, 192.0, 0.0, 0.0, 0.0, 0.0, 0.0, 0.0, 0.0, 0.0, 0.0, 1.7296931911321583E9, 0.0, 2024-10-23 19:49:51.132
218.0, 18392.982291338718, 33899.43795197463, 41972.86569748708, 13893.531428996495, 24647.60388703393, 24460.56448943192, 187500.0, 187500.0, 0.198, 0.9420000000000001, -0.212, 192.0, 0.0, 0.0, 0.0, 0.0, 0.0, 0.0, 0.0, 0.0, 0.0, 1.7296931911370668E9, 0.0, 2024-10-23 19:49:51.137
219.0, 18447.207623387294, 33880.08134127633, 41983.013389469794, 13892.212676073632, 24650.040227179557, 24444.761806102015, 187500.0, 187500.0, 0.194, 0.9440000000000001, -0.214, 192.0, 6.0, 16.0, 29.0, 128.0, 249.0, 80.0, 0.0, 0.0, 0.0, 1.7296931911410825E9, 0.0, 2024-10-23 19:49:51.141
220.0, 18484.199760460826, 33821.36330859224, 41983.12514819207, 13884.188399814178, 24638.283209596066, 24420.197238945635, 187500.0, 187500.0, 0.194, 0.9440000000000001, -0.214, 192.0, 0.0, 0.0, 0.0, 0.0, 0.0, 0.0, 0.0, 0.0, 0.0, 1.72969319114509E9, 0.0, 2024-10-23 19:49:51.145
221.0, 18504.405737448425, 33781.42074125061, 41984.08627320365, 13884.188399814178, 24635.69040723925, 24410.630692318762, 187500.0, 187500.0, 0.194, 0.9440000000000001, -0.214, 192.0, 0.0, 0.0, 0.0, 0.0, 0.0, 0.0, 0.0, 0.0, 0.0, 1.7296931911490805E9, 0.0, 2024-10-23 19:49:51.149
222.0, 18411.645997958898, 33848.721843805535, 41976.03964519974, 13886.512981237529, 24641.59126777545, 24432.758919329517, 187500.0, 187500.0, 0.194, 0.9440000000000001, -0.214, 192.0, 0.0, 0.0, 0.0, 0.0, 0.0, 0.0, 0.0, 0.0, 0.0, 1.7296931911531074E9, 0.0, 2024-10-23 19:49:51.153
223.0, 18412.83064041503, 33895.1017135503, 41982.43224411395, 13890.335129539388, 24646.888631211357, 24440.045588021945, 187500.0, 187500.0, 0.194, 0.9440000000000001, -0.214, 192.0, 0.0, 0.0, 0.0, 0.0, 0.0, 0.0, 0.0, 0.0, 0.0, 1.7296931911571033E9, 0.0, 2024-10-23 19:49:51.157
224.0, 18456.75181826971, 33869.17368998214, 41988.824843028175, 13887.496457993562, 24643.714683498703, 24425.1146227258, 187500.0, 187500.0, 0.194, 0.9440000000000001, -0.214, 192.0, 0.0, 0.0, 0.0, 0.0, 0.0, 0.0, 0.0, 0.0, 0.0, 1.729693191160094E9, 0.0, 2024-10-23 19:49:51.160
225.0, 18491.84405706454, 33813.339032332784, 41991.73056980736, 13884.680138192194, 24639.870183452393, 24407.613206817296, 187500.0, 187500.0, 0.194, 0.9440000000000001, -0.214, 192.0, 0.0, 0.0, 0.0, 0.0, 0.0, 0.0, 0.0, 0.0, 0.0, 1.7296931911650746E9, 0.0, 2024-10-23 19:49:51.165
226.0, 18504.875124081984, 33770.75895914542, 41989.62950582856, 13880.36625151232, 24632.471756037685, 24387.16136064069, 187500.0, 187500.0, 0.194, 0.9440000000000001, -0.214, 192.0, 0.0, 0.0, 0.0, 0.0, 0.0, 0.0, 0.0, 0.0, 0.0, 1.729693191169116E9, 0.0, 2024-10-23 19:49:51.169
227.0, 18404.336977522013, 33839.3341111343, 41979.54886907922, 13883.517847480518, 24639.289038096555, 24420.711329068105, 187500.0, 187500.0, 0.194, 0.9440000000000001, -0.214, 192.0, 0.0, 0.0, 0.0, 0.0, 0.0, 0.0, 0.0, 0.0, 0.0, 1.7296931911733408E9, 0.0, 2024-10-23 19:49:51.173
228.0, 18402.839410643508, 33894.36410598327, 41991.954087251914, 13896.347748797865, 24658.82446275049, 24454.462463195618, 187500.0, 187500.0, 0.194, 0.9440000000000001, -0.214, 192.0, 0.0, 0.0, 0.0, 0.0, 0.0, 0.0, 0.0, 0.0, 0.0, 1.7296931911772473E9, 0.0, 2024-10-23 19:49:51.177
229.0, 18442.73727449623, 33866.625591114236, 41995.373904153574, 13891.899751651259, 24652.722436514192, 24435.776404830984, 187500.0, 187500.0, 0.194, 0.9440000000000001, -0.214, 192.0, 0.0, 0.0, 0.0, 0.0, 0.0, 0.0, 0.0, 0.0, 0.0, 1.729693191181205E9, 0.0, 2024-10-23 19:49:51.181
230.0, 18478.030678991163, 33811.86381719873, 41998.50314837732, 13888.569341727418, 24650.576669046484, 24418.945541256136, 187500.0, 187500.0, 0.198, 0.9460000000000001, -0.216, 192.0, 6.0, 48.0, 29.0, 144.0, 249.0, 64.0, 0.0, 0.0, 0.0, 1.7296931911852615E9, 0.0, 2024-10-23 19:49:51.185
231.0, 18489.02773726317, 33766.847403865744, 41994.25631693081, 13887.339995782375, 24642.328875342475, 24406.67443355017, 187500.0, 187500.0, 0.198, 0.9460000000000001, -0.216, 192.0, 0.0, 0.0, 0.0, 0.0, 0.0, 0.0, 0.0, 0.0, 0.0, 1.7296931911881886E9, 0.0, 2024-10-23 19:49:51.188
232.0, 18389.7412883927, 33836.51779133294, 41985.606191826606, 13891.743289440072, 24651.35898010242, 24442.66074212322, 187500.0, 187500.0, 0.198, 0.9460000000000001, -0.216, 192.0, 0.0, 0.0, 0.0, 0.0, 0.0, 0.0, 0.0, 0.0, 0.0, 1.7296931911921372E9, 0.0, 2024-10-23 19:49:51.192
233.0, 18387.997852325185, 33887.90445183569, 41994.2116134419, 13898.918199410225, 24663.138349430366, 24453.70250388414, 187500.0, 187500.0, 0.198, 0.9460000000000001, -0.216, 192.0, 0.0, 0.0, 0.0, 0.0, 0.0, 0.0, 0.0, 0.0, 0.0, 1.729693191197176E9, 0.0, 2024-10-23 19:49:51.197
234.0, 18429.21446910077, 33859.60714335527, 41997.005581498815, 13895.27486506401, 24659.78558776207, 24430.590800117352, 187500.0, 187500.0, 0.198, 0.9460000000000001, -0.216, 192.0, 0.0, 0.0, 0.0, 0.0, 0.0, 0.0, 0.0, 0.0, 0.0, 1.729693191201172E9, 0.0, 2024-10-23 19:49:51.201
235.0, 18462.429161361357, 33800.620889737715, 41997.11734022109, 13893.196152829667, 24656.65634353833, 24418.766727300495, 187500.0, 187500.0, 0.198, 0.9460000000000001, -0.216, 192.0, 0.0, 0.0, 0.0, 0.0, 0.0, 0.0, 0.0, 0.0, 0.0, 1.7296931912051883E9, 0.0, 2024-10-23 19:49:51.205
236.0, 18471.660431821398, 33749.457746679516, 41987.6625523165, 13890.513943495029, 24643.379407331875, 24416.68801506615, 187500.0, 187500.0, 0.198, 0.9460000000000001, -0.216, 192.0, 0.0, 0.0, 0.0, 0.0, 0.0, 0.0, 0.0, 0.0, 0.0, 1.7296931912091606E9, 0.0, 2024-10-23 19:49:51.209
237.0, 18367.72482010422, 33808.89103518618, 41967.12129916207, 13885.104821336845, 24638.439671807253, 24424.80169830343, 187500.0, 187500.0, 0.198, 0.9460000000000001, -0.216, 192.0, 0.0, 0.0, 0.0, 0.0, 0.0, 0.0, 0.0, 0.0, 0.0, 1.7296931912136188E9, 0.0, 2024-10-23 19:49:51.213
238.0, 18369.177683493817, 33863.2951811904, 41975.458499843895, 13893.799649929959, 24654.935259215268, 24445.633524135774, 187500.0, 187500.0, 0.198, 0.9460000000000001, -0.216, 192.0, 0.0, 0.0, 0.0, 0.0, 0.0, 0.0, 0.0, 0.0, 0.0, 1.7296931912161903E9, 0.0, 2024-10-23 19:49:51.216
239.0, 18417.45745151728, 33838.238875655996, 41979.88414524605, 13889.84339116137, 24650.39785509084, 24425.36049191481, 187500.0, 187500.0, 0.198, 0.9460000000000001, -0.216, 192.0, 0.0, 0.0, 0.0, 0.0, 0.0, 0.0, 0.0, 0.0, 0.0, 1.7296931912201748E9, 0.0, 2024-10-23 19:49:51.220
240.0, 18449.778073999652, 33775.2740115254, 41975.52555507726, 13883.875475391804, 24643.49116605415, 24429.562619872406, 187500.0, 187500.0, 0.198, 0.9420000000000001, -0.212, 192.0, 6.0, 48.0, 29.0, 112.0, 249.0, 96.0, 0.0, 0.0, 0.0, 1.7296931912252097E9, 0.0, 2024-10-23 19:49:51.225
241.0, 18470.14051319844, 33733.83387730526, 41974.98911321034, 13888.681100449694, 24637.567953773494, 24427.39450066024, 187500.0, 187500.0, 0.198, 0.9420000000000001, -0.212, 192.0, 0.0, 0.0, 0.0, 0.0, 0.0, 0.0, 0.0, 0.0, 0.0, 1.7296931912293012E9, 0.0, 2024-10-23 19:49:51.229
242.0, 18374.586805652, 33794.51886350141, 41960.66164501449, 13884.32251028091, 24641.21128811971, 24439.35268394383, 187500.0, 187500.0, 0.198, 0.9420000000000001, -0.212, 192.0, 0.0, 0.0, 0.0, 0.0, 0.0, 0.0, 0.0, 0.0, 0.0, 1.7296931912337956E9, 0.0, 2024-10-23 19:49:51.233
243.0, 18377.291366731093, 33840.09407044579, 41963.366206093575, 13883.875475391804, 24645.88280271087, 24440.090291510856, 187500.0, 187500.0, 0.198, 0.9420000000000001, -0.212, 192.0, 0.0, 0.0, 0.0, 0.0, 0.0, 0.0, 0.0, 0.0, 0.0, 1.7296931912373605E9, 0.0, 2024-10-23 19:49:51.237
244.0, 18428.45450978929, 33812.66847999913, 41967.94831370692, 13879.136905567279, 24647.58153528947, 24431.37311117329, 187500.0, 187500.0, 0.198, 0.9420000000000001, -0.212, 192.0, 0.0, 0.0, 0.0, 0.0, 0.0, 0.0, 0.0, 0.0, 0.0, 1.729693191240234E9, 0.0, 2024-10-23 19:49:51.240
245.0, 18467.190082930338, 33751.15647925812, 41967.32246486217, 13871.514960708018, 24634.662226994304, 24410.58598882985, 187500.0, 187500.0, 0.198, 0.9420000000000001, -0.212, 192.0, 0.0, 0.0, 0.0, 0.0, 0.0, 0.0, 0.0, 0.0, 0.0, 1.7296931912442625E9, 0.0, 2024-10-23 19:49:51.244
246.0, 18478.410658646902, 33694.33834485273, 41959.052319413706, 13861.16610302521, 24620.290055309542, 24386.87078796277, 187500.0, 187500.0, 0.198, 0.9420000000000001, -0.212, 192.0, 0.0, 0.0, 0.0, 0.0, 0.0, 0.0, 0.0, 0.0, 0.0, 1.729693191248344E9, 0.0, 2024-10-23 19:49:51.248
247.0, 18384.175704023328, 33753.30224672583, 41951.072746643156, 13856.941623323159, 24626.570895501485, 24408.574331828873, 187500.0, 187500.0, 0.198, 0.9420000000000001, -0.212, 192.0, 0.0, 0.0, 0.0, 0.0, 0.0, 0.0, 0.0, 0.0, 0.0, 1.7296931912538152E9, 0.0, 2024-10-23 19:49:51.253
248.0, 18383.21457901175, 33792.574261733804, 41958.404118824496, 13856.494588434052, 24633.321122326986, 24421.426584890676, 187500.0, 187500.0, 0.198, 0.9420000000000001, -0.212, 192.0, 0.0, 0.0, 0.0, 0.0, 0.0, 0.0, 0.0, 0.0, 0.0, 1.7296931912572904E9, 0.0, 2024-10-23 19:49:51.257
249.0, 18432.142547624415, 33757.75024387243, 41966.942485206426, 13848.447960430141, 24634.617523505392, 24394.448029333118, 187500.0, 187500.0, 0.198, 0.9420000000000001, -0.212, 192.0, 0.0, 0.0, 0.0, 0.0, 0.0, 0.0, 0.0, 0.0, 0.0, 1.7296931912623365E9, 0.0, 2024-10-23 19:49:51.262
250.0, 18467.771228286176, 33689.86799596167, 41967.36716835108, 13842.345934193843, 24625.654473978815, 24387.004898429503, 187500.0, 187500.0, 0.198, 0.9400000000000001, -0.212, 192.0, 6.0, 48.0, 29.0, 96.0, 249.0, 96.0, 0.0, 0.0, 0.0, 1.729693191266284E9, 0.0, 2024-10-23 19:49:51.266
251.0, 18484.93736802785, 33641.588227938206, 41968.887086974035, 13845.564585395407, 24628.515497269094, 24394.1574566552, 187500.0, 187500.0, 0.198, 0.9400000000000001, -0.212, 192.0, 0.0, 0.0, 0.0, 0.0, 0.0, 0.0, 0.0, 0.0, 0.0, 1.729693191269297E9, 0.0, 2024-10-23 19:49:51.269
252.0, 18386.54498893559, 33700.038039688836, 41959.20878162489, 13852.918309321203, 24634.528116527574, 24428.132108227266, 187500.0, 187500.0, 0.198, 0.9400000000000001, -0.212, 192.0, 0.0, 0.0, 0.0, 0.0, 0.0, 0.0, 0.0, 0.0, 0.0, 1.7296931912723248E9, 0.0, 2024-10-23 19:49:51.272
253.0, 18377.894863831385, 33742.43929892055, 41959.76757523627, 13857.656879145728, 24637.903229940326, 24428.69090183865, 187500.0, 187500.0, 0.198, 0.9400000000000001, -0.212, 192.0, 0.0, 0.0, 0.0, 0.0, 0.0, 0.0, 0.0, 0.0, 0.0, 1.729693191276517E9, 0.0, 2024-10-23 19:49:51.276
254.0, 18423.559477753577, 33719.84168527623, 41967.23305788435, 13859.176797768689, 24640.630142763872, 24419.97372150108, 187500.0, 187500.0, 0.198, 0.9400000000000001, -0.212, 192.0, 0.0, 0.0, 0.0, 0.0, 0.0, 0.0, 0.0, 0.0, 0.0, 1.7296931912813084E9, 0.0, 2024-10-23 19:49:51.281
255.0, 18451.99089670073, 33656.45213800098, 41965.3555113501, 13857.209844256622, 24634.706930483215, 24398.06901193488, 187500.0, 187500.0, 0.198, 0.9400000000000001, -0.212, 192.0, 0.0, 0.0, 0.0, 0.0, 0.0, 0.0, 0.0, 0.0, 0.0, 1.72969319128532E9, 0.0, 2024-10-23 19:49:51.285
0.0, 18463.99378347323, 33614.36380319164, 41962.405081082, 13863.289518748465, 24630.370692058885, 24399.96891021358, 187500.0, 187500.0, 0.198, 0.9400000000000001, -0.212, 192.0, 0.0, 0.0, 0.0, 0.0, 0.0, 0.0, 0.0, 0.0, 0.0, 1.729693191289338E9, 0.0, 2024-10-23 19:49:51.289
1.0, 18367.009564281652, 33683.0507139028, 41954.53726703373, 13869.838579873871, 24640.384273574862, 24432.80362281843, 187500.0, 187500.0, 0.198, 0.9400000000000001, -0.212, 192.0, 0.0, 0.0, 0.0, 0.0, 0.0, 0.0, 0.0, 0.0, 0.0, 1.7296931912935128E9, 0.0, 2024-10-23 19:49:51.293
2.0, 18359.745247333678, 33720.73575505445, 41957.979435679845, 13870.93381535218, 24649.21321263471, 24439.084463010367, 187500.0, 187500.0, 0.198, 0.9400000000000001, -0.212, 192.0, 0.0, 0.0, 0.0, 0.0, 0.0, 0.0, 0.0, 0.0, 0.0, 1.7296931912963033E9, 0.0, 2024-10-23 19:49:51.296
3.0, 18403.152335065883, 33671.83013818623, 41963.29915086021, 13867.245777517055, 24647.693294011748, 24416.911532510705, 187500.0, 187500.0, 0.198, 0.9400000000000001, -0.212, 192.0, 0.0, 0.0, 0.0, 0.0, 0.0, 0.0, 0.0, 0.0, 0.0, 1.7296931913003983E9, 0.0, 2024-10-23 19:49:51.300
4.0, 18436.277620348646, 33582.95960223193, 41959.253485113804, 13858.707411135127, 24636.964456673202, 24389.575349041865, 187500.0, 187500.0, 0.194, 0.9380000000000001, -0.20800000000000002, 192.0, 6.0, 16.0, 29.0, 80.0, 249.0, 128.0, 0.0, 0.0, 0.0, 1.7296931913043656E9, 0.0, 2024-10-23 19:49:51.304
5.0, 18454.159015912894, 33512.55160719772, 41956.07953740115, 13861.277861747487, 24631.68944498175, 24393.218683388077, 187500.0, 187500.0, 0.194, 0.9380000000000001, -0.20800000000000002, 192.0, 0.0, 0.0, 0.0, 0.0, 0.0, 0.0, 0.0, 0.0, 0.0, 1.729693191310348E9, 0.0, 2024-10-23 19:49:51.310
6.0, 18359.231157211205, 33536.62443597608, 41945.753031462795, 13863.803608870938, 24638.752596229628, 24424.891105281247, 187500.0, 187500.0, 0.194, 0.9380000000000001, -0.20800000000000002, 192.0, 0.0, 0.0, 0.0, 0.0, 0.0, 0.0, 0.0, 0.0, 0.0, 1.729693191313336E9, 0.0, 2024-10-23 19:49:51.313
7.0, 18362.270994457125, 33553.276485595285, 41957.085365901636, 13877.214655544121, 24656.477529582684, 24447.019332292002, 187500.0, 187500.0, 0.194, 0.9380000000000001, -0.20800000000000002, 192.0, 0.0, 0.0, 0.0, 0.0, 0.0, 0.0, 0.0, 0.0, 0.0, 1.72969319131733E9, 0.0, 2024-10-23 19:49:51.317
8.0, 18411.06485260306, 33497.12890352355, 41962.82976422665, 13881.394431757264, 24650.39785509084, 24454.93184982918, 187500.0, 187500.0, 0.194, 0.9380000000000001, -0.20800000000000002, 192.0, 0.0, 0.0, 0.0, 0.0, 0.0, 0.0, 0.0, 0.0, 0.0, 1.7296931913213723E9, 0.0, 2024-10-23 19:49:51.321
9.0, 18448.191100143325, 33407.721925702324, 41963.29915086021, 13878.265187533521, 24642.150061386834, 24437.27397170949, 187500.0, 187500.0, 0.194, 0.9380000000000001, -0.20800000000000002, 192.0, 0.0, 0.0, 0.0, 0.0, 0.0, 0.0, 0.0, 0.0, 0.0, 1.7296931913243752E9, 0.0, 2024-10-23 19:49:51.324
10.0, 18465.536053840646, 33339.772622558194, 41957.77826997975, 13879.047498589456, 24632.315293826498, 24417.470326122086, 187500.0, 187500.0, 0.194, 0.9380000000000001, -0.20800000000000002, 192.0, 0.0, 0.0, 0.0, 0.0, 0.0, 0.0, 0.0, 0.0, 0.0, 1.7296931913283613E9, 0.0, 2024-10-23 19:49:51.328
11.0, 18372.753962606665, 33396.478998241306, 41947.96585416387, 13883.003757358047, 24634.43870954975, 24438.525669398987, 187500.0, 187500.0, 0.194, 0.9380000000000001, -0.20800000000000002, 192.0, 0.0, 0.0, 0.0, 0.0, 0.0, 0.0, 0.0, 0.0, 0.0, 1.729693191332479E9, 0.0, 2024-10-23 19:49:51.332
12.0, 18379.660651643357, 33443.28355113072, 41959.43229906944, 13889.284597549988, 24646.441596322253, 24447.622829392294, 187500.0, 187500.0, 0.194, 0.9380000000000001, -0.20800000000000002, 192.0, 0.0, 0.0, 0.0, 0.0, 0.0, 0.0, 0.0, 0.0, 0.0, 1.7296931913365066E9, 0.0, 2024-10-23 19:49:51.336
13.0, 18428.856841189485, 33404.61503322304, 41965.31080786119, 13883.204923058143, 24642.418282320297, 24427.88623903826, 187500.0, 187500.0, 0.194, 0.9380000000000001, -0.20800000000000002, 192.0, 0.0, 0.0, 0.0, 0.0, 0.0, 0.0, 0.0, 0.0, 0.0, 1.7296931913413565E9, 0.0, 2024-10-23 19:49:51.341
14.0, 18465.245481162725, 33332.66476782141, 41964.68495901644, 13876.588806699374, 24631.73414847066, 24407.2108754171, 187500.0, 187500.0, 0.198, 0.9400000000000001, -0.214, 192.0, 6.0, 48.0, 29.0, 96.0, 249.0, 80.0, 0.0, 0.0, 0.0, 1.729693191345363E9, 0.0, 2024-10-23 19:49:51.345
15.0, 18482.746897071233, 33274.17025258187, 41961.689825259426, 13874.152466553745, 24622.30171231052, 24392.68224152115, 187500.0, 187500.0, 0.198, 0.9400000000000001, -0.214, 192.0, 0.0, 0.0, 0.0, 0.0, 0.0, 0.0, 0.0, 0.0, 0.0, 1.7296931913494146E9, 0.0, 2024-10-23 19:49:51.349
16.0, 18386.00854706866, 33331.658939320914, 41952.615017010576, 13874.532446209485, 24629.07429088048, 24425.74047157055, 187500.0, 187500.0, 0.198, 0.9400000000000001, -0.214, 192.0, 0.0, 0.0, 0.0, 0.0, 0.0, 0.0, 0.0, 0.0, 0.0, 1.729693191352393E9, 0.0, 2024-10-23 19:49:51.352
17.0, 18386.746154635686, 33375.31189624213, 41962.58389503764, 13875.471219476607, 24640.697197997237, 24437.78806183196, 187500.0, 187500.0, 0.198, 0.9400000000000001, -0.214, 192.0, 0.0, 0.0, 0.0, 0.0, 0.0, 0.0, 0.0, 0.0, 0.0, 1.729693191356377E9, 0.0, 2024-10-23 19:49:51.356
18.0, 18432.299009835602, 33339.772622558194, 41971.748110264314, 13868.944510095658, 24645.234602121665, 24423.058262235914, 187500.0, 187500.0, 0.198, 0.9400000000000001, -0.214, 192.0, 0.0, 0.0, 0.0, 0.0, 0.0, 0.0, 0.0, 0.0, 0.0, 1.7296931913603885E9, 0.0, 2024-10-23 19:49:51.360
19.0, 18466.117199196484, 33267.62119145646, 41974.206802154404, 13861.16610302521, 24639.289038096555, 24405.176866671667, 187500.0, 187500.0, 0.198, 0.9400000000000001, -0.214, 192.0, 0.0, 0.0, 0.0, 0.0, 0.0, 0.0, 0.0, 0.0, 0.0, 1.729693191364417E9, 0.0, 2024-10-23 19:49:51.364
20.0, 18474.253234178213, 33202.53291160261, 41969.937618963435, 13854.482931433075, 24626.459136779205, 24388.524817052465, 187500.0, 187500.0, 0.198, 0.9400000000000001, -0.214, 192.0, 0.0, 0.0, 0.0, 0.0, 0.0, 0.0, 0.0, 0.0, 0.0, 1.7296931913694973E9, 0.0, 2024-10-23 19:49:51.369
21.0, 18376.754924864166, 33260.26746753067, 41962.8521159711, 13851.286631975965, 24630.77302345908, 24403.187561415143, 187500.0, 187500.0, 0.198, 0.9400000000000001, -0.214, 192.0, 0.0, 0.0, 0.0, 0.0, 0.0, 0.0, 0.0, 0.0, 0.0, 1.72969319137344E9, 0.0, 2024-10-23 19:49:51.373
22.0, 18376.263186486147, 33305.08271516356, 41973.89387773203, 13851.68896337616, 24639.758424730117, 24398.91837822418, 187500.0, 187500.0, 0.198, 0.9400000000000001, -0.214, 192.0, 0.0, 0.0, 0.0, 0.0, 0.0, 0.0, 0.0, 0.0, 0.0, 1.7296931913774507E9, 0.0, 2024-10-23 19:49:51.377
23.0, 18428.946248167307, 33280.495796262716, 41993.362247152596, 13860.048515802446, 24652.29775336954, 24431.30605593992, 187500.0, 187500.0, 0.198, 0.9400000000000001, -0.214, 192.0, 0.0, 0.0, 0.0, 0.0, 0.0, 0.0, 0.0, 0.0, 0.0, 1.7296931913804443E9, 0.0, 2024-10-23 19:49:51.380
24.0, 18461.333925883046, 33211.630071595915, 41993.47400587488, 13857.388658212265, 24644.45229106573, 24408.48492485105, 187500.0, 187500.0, 0.192, 0.9380000000000001, -0.214, 192.0, 6.0, 0.0, 29.0, 80.0, 249.0, 80.0, 0.0, 0.0, 0.0, 1.7296931913844173E9, 0.0, 2024-10-23 19:49:51.384
25.0, 18476.778981301664, 33159.50580352614, 41992.870508774584, 13858.774466368493, 24644.69816025474, 24402.137029425747, 187500.0, 187500.0, 0.192, 0.9380000000000001, -0.214, 192.0, 0.0, 0.0, 0.0, 0.0, 0.0, 0.0, 0.0, 0.0, 0.0, 1.7296931913884387E9, 0.0, 2024-10-23 19:49:51.388
26.0, 18383.996890067683, 33230.62905438293, 41991.30588666271, 13873.817190386915, 24661.64078255186, 24454.55187017344, 187500.0, 187500.0, 0.192, 0.9380000000000001, -0.214, 192.0, 0.0, 0.0, 0.0, 0.0, 0.0, 0.0, 0.0, 0.0, 0.0, 1.729693191392438E9, 0.0, 2024-10-23 19:49:51.392
27.0, 18383.371041222937, 33281.479273018755, 41999.01723849979, 13883.584902713885, 24672.25786116813, 24460.98917257657, 187500.0, 187500.0, 0.192, 0.9380000000000001, -0.214, 192.0, 0.0, 0.0, 0.0, 0.0, 0.0, 0.0, 0.0, 0.0, 0.0, 1.729693191397432E9, 0.0, 2024-10-23 19:49:51.397
28.0, 18426.17463185485, 33247.86224935797, 41999.576032111174, 13875.873550876804, 24665.820558765005, 24436.290494953453, 187500.0, 187500.0, 0.192, 0.9380000000000001, -0.214, 192.0, 0.0, 0.0, 0.0, 0.0, 0.0, 0.0, 0.0, 0.0, 0.0, 1.7296931914014063E9, 0.0, 2024-10-23 19:49:51.401
29.0, 18457.869405492474, 33182.17047240382, 41990.47887211786, 13865.256472260533, 24653.50474757013, 24417.000939488524, 187500.0, 187500.0, 0.192, 0.9380000000000001, -0.214, 192.0, 0.0, 0.0, 0.0, 0.0, 0.0, 0.0, 0.0, 0.0, 0.0, 1.7296931914055996E9, 0.0, 2024-10-23 19:49:51.405
30.0, 18475.41552488989, 33134.62831194739, 41984.46625285938, 13867.290481005964, 24648.743826001148, 24404.863942249292, 187500.0, 187500.0, 0.192, 0.9380000000000001, -0.214, 192.0, 0.0, 0.0, 0.0, 0.0, 0.0, 0.0, 0.0, 0.0, 0.0, 1.7296931914085135E9, 0.0, 2024-10-23 19:49:51.408
31.0, 18375.525578919125, 33192.49697834218, 41963.29915086021, 13865.100010049346, 24643.982904432167, 24428.0650529939, 187500.0, 187500.0, 0.192, 0.9380000000000001, -0.214, 192.0, 0.0, 0.0, 0.0, 0.0, 0.0, 0.0, 0.0, 0.0, 0.0, 1.7296931914134376E9, 0.0, 2024-10-23 19:49:51.413
32.0, 18375.994965552683, 33239.70386263178, 41964.34968284961, 13864.205940271133, 24646.799224233535, 24435.910515297714, 187500.0, 187500.0, 0.192, 0.9380000000000001, -0.214, 192.0, 0.0, 0.0, 0.0, 0.0, 0.0, 0.0, 0.0, 0.0, 0.0, 1.7296931914195611E9, 0.0, 2024-10-23 19:49:51.419
33.0, 18423.89475392041, 33207.517350616145, 41966.383691595045, 13857.053382045435, 24640.9654189307, 24410.11660219629, 187500.0, 187500.0, 0.192, 0.9380000000000001, -0.214, 192.0, 0.0, 0.0, 0.0, 0.0, 0.0, 0.0, 0.0, 0.0, 0.0, 1.7296931914235492E9, 0.0, 2024-10-23 19:49:51.423
34.0, 18459.299917137614, 33138.428108504784, 41961.44395607042, 13851.957184309626, 24627.956703657714, 24396.057354933902, 187500.0, 187500.0, 0.194, 0.9380000000000001, -0.214, 192.0, 6.0, 16.0, 29.0, 80.0, 249.0, 80.0, 0.0, 0.0, 0.0, 1.7296931914276032E9, 0.0, 2024-10-23 19:49:51.427
35.0, 18480.064687736594, 33087.957869524704, 41960.14755489201, 13855.198187255644, 24622.63698847735, 24386.1555321402, 187500.0, 187500.0, 0.194, 0.9380000000000001, -0.214, 192.0, 0.0, 0.0, 0.0, 0.0, 0.0, 0.0, 0.0, 0.0, 0.0, 1.7296931914325724E9, 0.0, 2024-10-23 19:49:51.432
36.0, 18383.39339296739, 33148.48639350967, 41948.16701986397, 13855.108780277824, 24628.82842169147, 24404.88629399375, 187500.0, 187500.0, 0.194, 0.9380000000000001, -0.214, 192.0, 0.0, 0.0, 0.0, 0.0, 0.0, 0.0, 0.0, 0.0, 0.0, 1.7296931914354773E9, 0.0, 2024-10-23 19:49:51.435
37.0, 18384.77920112362, 33194.82155976553, 41953.933769933436, 13859.288556490965, 24637.366788073396, 24420.241942434543, 187500.0, 187500.0, 0.194, 0.9380000000000001, -0.214, 192.0, 0.0, 0.0, 0.0, 0.0, 0.0, 0.0, 0.0, 0.0, 0.0, 1.7296931914385765E9, 0.0, 2024-10-23 19:49:51.438
38.0, 18442.826681474053, 33172.51451879913, 41969.26706662978, 13867.26812926151, 24647.44742482274, 24438.3692071878, 187500.0, 187500.0, 0.194, 0.9380000000000001, -0.214, 192.0, 0.0, 0.0, 0.0, 0.0, 0.0, 0.0, 0.0, 0.0, 0.0, 1.7296931914425173E9, 0.0, 2024-10-23 19:49:51.442
39.0, 18480.37761215897, 33107.046259289535, 41973.06686318718, 13863.2224635151, 24640.9654189307, 24417.425622633174, 187500.0, 187500.0, 0.194, 0.9380000000000001, -0.214, 192.0, 0.0, 0.0, 0.0, 0.0, 0.0, 0.0, 0.0, 0.0, 0.0, 1.7296931914454968E9, 0.0, 2024-10-23 19:49:51.445
40.0, 18492.156981486914, 33049.646979528305, 41967.83655498464, 13859.668536146706, 24626.503840268117, 24395.386802600242, 187500.0, 187500.0, 0.194, 0.9380000000000001, -0.214, 192.0, 0.0, 0.0, 0.0, 0.0, 0.0, 0.0, 0.0, 0.0, 0.0, 1.7296931914485836E9, 0.0, 2024-10-23 19:49:51.448
41.0, 18392.82582912753, 33115.60697741592, 41957.80062172421, 13865.122361793801, 24629.700139725228, 24420.800736045927, 187500.0, 187500.0, 0.194, 0.9380000000000001, -0.214, 192.0, 0.0, 0.0, 0.0, 0.0, 0.0, 0.0, 0.0, 0.0, 0.0, 1.7296931914525452E9, 0.0, 2024-10-23 19:49:51.452
42.0, 18391.484724460213, 33163.93144892829, 41966.62956078405, 13872.74430665306, 24640.853660208424, 24434.54705888594, 187500.0, 187500.0, 0.194, 0.9380000000000001, -0.214, 192.0, 0.0, 0.0, 0.0, 0.0, 0.0, 0.0, 0.0, 0.0, 0.0, 1.729693191457475E9, 0.0, 2024-10-23 19:49:51.457
43.0, 18433.282486591637, 33129.777983400585, 41970.45170908591, 13866.88814960577, 24638.68554099626, 24413.201142931124, 187500.0, 187500.0, 0.194, 0.9380000000000001, -0.214, 192.0, 0.0, 0.0, 0.0, 0.0, 0.0, 0.0, 0.0, 0.0, 0.0, 1.7296931914616065E9, 0.0, 2024-10-23 19:49:51.461
44.0, 18471.12398995447, 33073.78686354004, 41980.577049324165, 13869.235082773577, 24642.2171166202, 24410.92126499668, 187500.0, 187500.0, 0.198, 0.934, -0.21, 192.0, 6.0, 48.0, 29.0, 48.0, 249.0, 112.0, 0.0, 0.0, 0.0, 1.7296931914645677E9, 0.0, 2024-10-23 19:49:51.464
45.0, 18481.27168193718, 33020.075621613934, 41974.65383704351, 13868.475123462096, 24625.877991423367, 24386.513160051487, 187500.0, 187500.0, 0.198, 0.934, -0.21, 192.0, 0.0, 0.0, 0.0, 0.0, 0.0, 0.0, 0.0, 0.0, 0.0, 1.7296931914685817E9, 0.0, 2024-10-23 19:49:51.468
46.0, 18382.767544122642, 33087.890814291335, 41969.06590092968, 13876.36528925482, 24640.183107874767, 24426.07574773738, 187500.0, 187500.0, 0.198, 0.934, -0.21, 192.0, 0.0, 0.0, 0.0, 0.0, 0.0, 0.0, 0.0, 0.0, 0.0, 1.7296931914725282E9, 0.0, 2024-10-23 19:49:51.472
47.0, 18377.44782894228, 33135.41062300332, 41979.28064814576, 13883.428440502697, 24653.437692336764, 24450.08152128238, 187500.0, 187500.0, 0.198, 0.934, -0.21, 192.0, 0.0, 0.0, 0.0, 0.0, 0.0, 0.0, 0.0, 0.0, 0.0, 1.7296931914786124E9, 0.0, 2024-10-23 19:49:51.478
48.0, 18415.69166370531, 33099.40196268582, 41982.92398249197, 13873.951300853647, 24650.755483002125, 24422.968855258092, 187500.0, 187500.0, 0.198, 0.934, -0.21, 192.0, 0.0, 0.0, 0.0, 0.0, 0.0, 0.0, 0.0, 0.0, 0.0, 1.7296931914825933E9, 0.0, 2024-10-23 19:49:51.482
49.0, 18446.84999547601, 33031.38560430832, 41983.371017381076, 13865.41293447172, 24644.899325954837, 24405.89212249424, 187500.0, 187500.0, 0.198, 0.934, -0.21, 192.0, 0.0, 0.0, 0.0, 0.0, 0.0, 0.0, 0.0, 0.0, 0.0, 1.7296931914867404E9, 0.0, 2024-10-23 19:49:51.486
50.0, 18462.451513105814, 32978.993115305086, 41984.35449413711, 13864.876492604792, 24638.68554099626, 24396.68320377865, 187500.0, 187500.0, 0.198, 0.934, -0.21, 192.0, 0.0, 0.0, 0.0, 0.0, 0.0, 0.0, 0.0, 0.0, 0.0, 1.729693191490793E9, 0.0, 2024-10-23 19:49:51.490
51.0, 18360.840482811986, 33040.59452302391, 41974.87735448806, 13867.31283275042, 24642.06065440901, 24416.464497621597, 187500.0, 187500.0, 0.198, 0.934, -0.21, 192.0, 0.0, 0.0, 0.0, 0.0, 0.0, 0.0, 0.0, 0.0, 0.0, 1.7296931914948733E9, 0.0, 2024-10-23 19:49:51.494
52.0, 18357.957107777253, 33090.64007885934, 41985.82970927116, 13875.605329943339, 24659.472663339697, 24446.84051833636, 187500.0, 187500.0, 0.198, 0.934, -0.21, 192.0, 0.0, 0.0, 0.0, 0.0, 0.0, 0.0, 0.0, 0.0, 0.0, 1.7296931914987836E9, 0.0, 2024-10-23 19:49:51.498
53.0, 18407.555628723578, 33064.57794482445, 41996.20091869842, 13872.051402574945, 24658.757407517125, 24432.937733285158, 187500.0, 187500.0, 0.198, 0.934, -0.21, 192.0, 0.0, 0.0, 0.0, 0.0, 0.0, 0.0, 0.0, 0.0, 0.0, 1.7296931915037692E9, 0.0, 2024-10-23 19:49:51.503
54.0, 18444.21248963028, 33003.71414467265, 41997.87729953257, 13862.574262925895, 24654.711741770716, 24409.423698118175, 187500.0, 187500.0, 0.2, 0.934, -0.214, 192.0, 6.0, 64.0, 29.0, 48.0, 249.0, 80.0, 0.0, 0.0, 0.0, 1.7296931915066707E9, 0.0, 2024-10-23 19:49:51.506
55.0, 18460.015172960186, 32951.96985625861, 41991.194127940435, 13858.1709692682, 24642.68650325376, 24400.237131147045, 187500.0, 187500.0, 0.2, 0.934, -0.214, 192.0, 0.0, 0.0, 0.0, 0.0, 0.0, 0.0, 0.0, 0.0, 0.0, 1.7296931915107276E9, 0.0, 2024-10-23 19:49:51.510
56.0, 18359.655840355856, 33011.693717443195, 41971.81516549768, 13851.174873253689, 24638.394968318342, 24417.58208484436, 187500.0, 187500.0, 0.2, 0.934, -0.214, 192.0, 0.0, 0.0, 0.0, 0.0, 0.0, 0.0, 0.0, 0.0, 0.0, 1.7296931915137572E9, 0.0, 2024-10-23 19:49:51.513
57.0, 18365.10966600295, 33069.54003209353, 41982.29813364722, 13857.925100079192, 24657.863337738912, 24441.990189789558, 187500.0, 187500.0, 0.2, 0.934, -0.214, 192.0, 0.0, 0.0, 0.0, 0.0, 0.0, 0.0, 0.0, 0.0, 0.0, 1.729693191517681E9, 0.0, 2024-10-23 19:49:51.517
58.0, 18410.371948524946, 33042.13679339133, 41979.01242721229, 13848.537367407962, 24646.77687248908, 24420.44310813464, 187500.0, 187500.0, 0.2, 0.934, -0.214, 192.0, 0.0, 0.0, 0.0, 0.0, 0.0, 0.0, 0.0, 0.0, 0.0, 1.729693191521005E9, 0.0, 2024-10-23 19:49:51.521
59.0, 18446.64882977591, 32980.311868227946, 41968.99884569631, 13834.187547467656, 24631.845907192936, 24390.58117754235, 187500.0, 187500.0, 0.2, 0.934, -0.214, 192.0, 0.0, 0.0, 0.0, 0.0, 0.0, 0.0, 0.0, 0.0, 0.0, 1.7296931915248141E9, 0.0, 2024-10-23 19:49:51.524
60.0, 18466.65364106341, 32932.970873471604, 41961.555714792696, 13831.281820688466, 24623.016968133088, 24375.113770379277, 187500.0, 187500.0, 0.2, 0.934, -0.214, 192.0, 0.0, 0.0, 0.0, 0.0, 0.0, 0.0, 0.0, 0.0, 0.0, 1.7296931915286515E9, 0.0, 2024-10-23 19:49:51.528
61.0, 18373.648032384877, 33003.11064757236, 41949.888104187026, 13835.707466090616, 24630.750671714624, 24409.244884162534, 187500.0, 187500.0, 0.2, 0.934, -0.214, 192.0, 0.0, 0.0, 0.0, 0.0, 0.0, 0.0, 0.0, 0.0, 0.0, 1.7296931915326717E9, 0.0, 2024-10-23 19:49:51.532
62.0, 18375.6373376414, 33061.962790723184, 41954.31374958918, 13839.551966136929, 24637.12091888439, 24408.73079404006, 187500.0, 187500.0, 0.2, 0.934, -0.214, 192.0, 0.0, 0.0, 0.0, 0.0, 0.0, 0.0, 0.0, 0.0, 0.0, 1.7296931915367217E9, 0.0, 2024-10-23 19:49:51.536
63.0, 18425.906410921387, 33044.79665098151, 41958.85115371361, 13837.249736458032, 24635.0645583945, 24386.379049584753, 187500.0, 187500.0, 0.2, 0.934, -0.214, 192.0, 0.0, 0.0, 0.0, 0.0, 0.0, 0.0, 0.0, 0.0, 0.0, 1.7296931915417671E9, 0.0, 2024-10-23 19:49:51.541
64.0, 18466.18425442985, 32993.14176954529, 41962.740357248826, 13842.815320827403, 24633.946971171736, 24395.78913400044, 187500.0, 187500.0, 0.196, 0.9380000000000001, -0.218, 192.0, 6.0, 32.0, 29.0, 80.0, 249.0, 48.0, 0.0, 0.0, 0.0, 1.7296931915459352E9, 0.0, 2024-10-23 19:49:51.545
65.0, 18491.017042519696, 32960.307056940444, 41968.194182895924, 13856.941623323159, 24629.49897402513, 24406.62973006126, 187500.0, 187500.0, 0.196, 0.9380000000000001, -0.218, 192.0, 0.0, 0.0, 0.0, 0.0, 0.0, 0.0, 0.0, 0.0, 0.0, 1.7296931915486393E9, 0.0, 2024-10-23 19:49:51.548
66.0, 18393.965768094753, 33034.559552020975, 41954.984301922836, 13857.813341356916, 24627.64377923534, 24417.470326122086, 187500.0, 187500.0, 0.196, 0.9380000000000001, -0.218, 192.0, 0.0, 0.0, 0.0, 0.0, 0.0, 0.0, 0.0, 0.0, 0.0, 1.7296931915527775E9, 0.0, 2024-10-23 19:49:51.552
67.0, 18390.456544215267, 33095.088076005944, 41959.00761592479, 13864.138885037766, 24633.656398493815, 24424.712291325606, 187500.0, 187500.0, 0.196, 0.9380000000000001, -0.218, 192.0, 0.0, 0.0, 0.0, 0.0, 0.0, 0.0, 0.0, 0.0, 0.0, 1.729693191556904E9, 0.0, 2024-10-23 19:49:51.556
68.0, 18438.624553516456, 33076.580831596955, 41968.55181080721, 13868.609233928828, 24636.517421784094, 24422.275951179978, 187500.0, 187500.0, 0.196, 0.9380000000000001, -0.218, 192.0, 0.0, 0.0, 0.0, 0.0, 0.0, 0.0, 0.0, 0.0, 0.0, 1.7296931915608387E9, 0.0, 2024-10-23 19:49:51.560
69.0, 18469.067629464582, 33008.74328717509, 41967.434223584445, 13861.41197221422, 24626.526192012574, 24379.517064036976, 187500.0, 187500.0, 0.196, 0.9380000000000001, -0.218, 192.0, 0.0, 0.0, 0.0, 0.0, 0.0, 0.0, 0.0, 0.0, 0.0, 1.7296931915649047E9, 0.0, 2024-10-23 19:49:51.564
70.0, 18481.137571470448, 32954.4285481487, 41965.98136019485, 13863.580091426384, 24622.838154177447, 24384.367392583776, 187500.0, 187500.0, 0.196, 0.9380000000000001, -0.218, 192.0, 0.0, 0.0, 0.0, 0.0, 0.0, 0.0, 0.0, 0.0, 0.0, 1.7296931915686939E9, 0.0, 2024-10-23 19:49:51.568
71.0, 18377.984270809207, 33020.58971173641, 41955.58779902313, 13867.782219383982, 24626.727357712673, 24422.722986069082, 187500.0, 187500.0, 0.196, 0.9380000000000001, -0.218, 192.0, 0.0, 0.0, 0.0, 0.0, 0.0, 0.0, 0.0, 0.0, 0.0, 1.7296931915736637E9, 0.0, 2024-10-23 19:49:51.573
72.0, 18373.200997495773, 33075.798520541015, 41966.227229383854, 13879.427478245198, 24642.328875342475, 24431.820146062393, 187500.0, 187500.0, 0.196, 0.9380000000000001, -0.218, 192.0, 0.0, 0.0, 0.0, 0.0, 0.0, 0.0, 0.0, 0.0, 0.0, 1.7296931915767987E9, 0.0, 2024-10-23 19:49:51.576
73.0, 18420.296123063104, 33054.20673539719, 41980.5099940908, 13888.278769049499, 24653.325933614487, 24429.182640216666, 187500.0, 187500.0, 0.196, 0.9380000000000001, -0.218, 192.0, 0.0, 0.0, 0.0, 0.0, 0.0, 0.0, 0.0, 0.0, 0.0, 1.7296931915808332E9, 0.0, 2024-10-23 19:49:51.580
74.0, 18456.863576991986, 32995.73457190211, 41990.858851773606, 13895.140754597278, 24656.83515749397, 24418.96789300059, 187500.0, 187500.0, 0.196, 0.936, -0.218, 192.0, 6.0, 32.0, 29.0, 64.0, 249.0, 48.0, 0.0, 0.0, 0.0, 1.7296931915856955E9, 0.0, 2024-10-23 19:49:51.585
75.0, 18471.682783565855, 32943.543248598966, 41993.25048843032, 13899.99108314408, 24652.9683057032, 24408.619035317784, 187500.0, 187500.0, 0.196, 0.936, -0.218, 192.0, 0.0, 0.0, 0.0, 0.0, 0.0, 0.0, 0.0, 0.0, 0.0, 1.7296931915897105E9, 0.0, 2024-10-23 19:49:51.589
76.0, 18371.25639572816, 33006.2398917961, 41983.54983133672, 13899.901676166259, 24653.996485948144, 24432.22247746259, 187500.0, 187500.0, 0.196, 0.936, -0.218, 192.0, 0.0, 0.0, 0.0, 0.0, 0.0, 0.0, 0.0, 0.0, 0.0, 1.7296931915929265E9, 0.0, 2024-10-23 19:49:51.592
77.0, 18362.762732835145, 33050.60810453989, 41986.32144764918, 13897.375929042808, 24657.282192383074, 24435.64229436425, 187500.0, 187500.0, 0.196, 0.936, -0.218, 192.0, 0.0, 0.0, 0.0, 0.0, 0.0, 0.0, 0.0, 0.0, 0.0, 1.729693191596722E9, 0.0, 2024-10-23 19:49:51.596
78.0, 18414.059986360073, 33027.988139151115, 41999.01723849979, 13897.42063253172, 24665.93231748728, 24434.748224586037, 187500.0, 187500.0, 0.196, 0.936, -0.218, 192.0, 0.0, 0.0, 0.0, 0.0, 0.0, 0.0, 0.0, 0.0, 0.0, 1.7296931916017044E9, 0.0, 2024-10-23 19:49:51.601
79.0, 18450.113350166484, 32962.8775075528, 42004.35930542461, 13892.123269095811, 24663.987715719668, 24423.907628525216, 187500.0, 187500.0, 0.196, 0.936, -0.218, 192.0, 0.0, 0.0, 0.0, 0.0, 0.0, 0.0, 0.0, 0.0, 0.0, 1.729693191604699E9, 0.0, 2024-10-23 19:49:51.604
80.0, 18463.189120672836, 32906.75227722553, 41999.106645477616, 13888.234065560588, 24648.721474256694, 24415.950407499124, 187500.0, 187500.0, 0.196, 0.936, -0.218, 192.0, 0.0, 0.0, 0.0, 0.0, 0.0, 0.0, 0.0, 0.0, 0.0, 1.7296931916087136E9, 0.0, 2024-10-23 19:49:51.608
81.0, 18371.658727128357, 32981.1835862617, 41992.043494229736, 13889.374004527808, 24652.1189394139, 24429.629675105774, 187500.0, 187500.0, 0.196, 0.936, -0.218, 192.0, 0.0, 0.0, 0.0, 0.0, 0.0, 0.0, 0.0, 0.0, 0.0, 1.7296931916128547E9, 0.0, 2024-10-23 19:49:51.612
82.0, 18369.58001489401, 33033.77724096504, 41994.30102041972, 13889.999853372557, 24660.053808695535, 24438.50331765453, 187500.0, 187500.0, 0.196, 0.936, -0.218, 192.0, 0.0, 0.0, 0.0, 0.0, 0.0, 0.0, 0.0, 0.0, 0.0, 1.7296931916167996E9, 0.0, 2024-10-23 19:49:51.616
83.0, 18413.769413682152, 33005.77050516254, 41993.563412852694, 13882.735536424583, 24656.186956904767, 24428.601494860828, 187500.0, 187500.0, 0.196, 0.936, -0.218, 192.0, 0.0, 0.0, 0.0, 0.0, 0.0, 0.0, 0.0, 0.0, 0.0, 1.7296931916208422E9, 0.0, 2024-10-23 19:49:51.620
84.0, 18449.80042574411, 32945.778423044496, 41986.656723816006, 13869.682117662684, 24641.01012241961, 24395.498561322518, 187500.0, 187500.0, 0.194, 0.934, -0.218, 192.0, 6.0, 16.0, 29.0, 48.0, 249.0, 48.0, 0.0, 0.0, 0.0, 1.729693191624735E9, 0.0, 2024-10-23 19:49:51.624
85.0, 18466.206606174303, 32895.285832319954, 41975.54790682172, 13859.154446024233, 24626.2132675902, 24379.002973914503, 187500.0, 187500.0, 0.194, 0.934, -0.218, 192.0, 0.0, 0.0, 0.0, 0.0, 0.0, 0.0, 0.0, 0.0, 0.0, 1.729693191629781E9, 0.0, 2024-10-23 19:49:51.629
86.0, 18373.82684634052, 32967.10198725486, 41961.44395607042, 13853.924137821692, 24628.73901471365, 24394.760953755493, 187500.0, 187500.0, 0.194, 0.934, -0.218, 192.0, 0.0, 0.0, 0.0, 0.0, 0.0, 0.0, 0.0, 0.0, 0.0, 1.7296931916328428E9, 0.0, 2024-10-23 19:49:51.632
87.0, 18377.20195975327, 33024.65772922728, 41966.04841542822, 13857.679230890184, 24641.54656428654, 24422.11948896879, 187500.0, 187500.0, 0.194, 0.934, -0.218, 192.0, 0.0, 0.0, 0.0, 0.0, 0.0, 0.0, 0.0, 0.0, 0.0, 1.729693191636787E9, 0.0, 2024-10-23 19:49:51.636
88.0, 18420.31847480756, 32995.57810969092, 41960.59458978112, 13844.379942939275, 24633.723453727183, 24390.089439164334, 187500.0, 187500.0, 0.194, 0.934, -0.218, 192.0, 0.0, 0.0, 0.0, 0.0, 0.0, 0.0, 0.0, 0.0, 0.0, 1.7296931916407924E9, 0.0, 2024-10-23 19:49:51.640
89.0, 18459.83635900454, 32936.86007700683, 41961.555714792696, 13840.40133242623, 24626.794412946037, 24377.86303494728, 187500.0, 187500.0, 0.194, 0.934, -0.218, 192.0, 0.0, 0.0, 0.0, 0.0, 0.0, 0.0, 0.0, 0.0, 0.0, 1.729693191644853E9, 0.0, 2024-10-23 19:49:51.644
90.0, 18483.23863544925, 32895.084666619856, 41963.67913051595, 13848.582070896873, 24619.57479948697, 24380.16526462618, 187500.0, 187500.0, 0.194, 0.934, -0.218, 192.0, 0.0, 0.0, 0.0, 0.0, 0.0, 0.0, 0.0, 0.0, 0.0, 1.7296931916487732E9, 0.0, 2024-10-23 19:49:51.648
91.0, 18380.599424910477, 32960.84349880737, 41949.82104895366, 13848.559719152418, 24622.05584312151, 24397.01847994548, 187500.0, 187500.0, 0.194, 0.934, -0.218, 192.0, 0.0, 0.0, 0.0, 0.0, 0.0, 0.0, 0.0, 0.0, 0.0, 1.7296931916528268E9, 0.0, 2024-10-23 19:49:51.652
92.0, 18373.44686668478, 33011.4925517431, 41952.72677573285, 13850.705486620127, 24633.857564193913, 24414.408137131708, 187500.0, 187500.0, 0.194, 0.934, -0.218, 192.0, 0.0, 0.0, 0.0, 0.0, 0.0, 0.0, 0.0, 0.0, 0.0, 1.7296931916588485E9, 0.0, 2024-10-23 19:49:51.658
93.0, 18412.093032848006, 32980.40127520577, 41954.04552865571, 13845.274012717487, 24625.095680367434, 24398.180770657156, 187500.0, 187500.0, 0.194, 0.934, -0.218, 192.0, 0.0, 0.0, 0.0, 0.0, 0.0, 0.0, 0.0, 0.0, 0.0, 1.7296931916621697E9, 0.0, 2024-10-23 19:49:51.662
94.0, 18446.06768442007, 32921.81735298841, 41961.84628747062, 13845.318716206399, 24627.956703657714, 24391.58700604284, 187500.0, 187500.0, 0.196, 0.936, -0.212, 192.0, 6.0, 32.0, 29.0, 64.0, 249.0, 96.0, 0.0, 0.0, 0.0, 1.7296931916658225E9, 0.0, 2024-10-23 19:49:51.665
95.0, 18464.597280573522, 32874.386951254244, 41965.48962181683, 13854.751152366538, 24625.050976878523, 24387.608395529795, 187500.0, 187500.0, 0.196, 0.936, -0.212, 192.0, 0.0, 0.0, 0.0, 0.0, 0.0, 0.0, 0.0, 0.0, 0.0, 1.7296931916718173E9, 0.0, 2024-10-23 19:49:51.671
96.0, 18371.21169223925, 32947.6783213232, 41963.96970319387, 13867.93868159517, 24637.72441598468, 24424.622884347784, 187500.0, 187500.0, 0.196, 0.936, -0.212, 192.0, 0.0, 0.0, 0.0, 0.0, 0.0, 0.0, 0.0, 0.0, 0.0, 1.7296931916748357E9, 0.0, 2024-10-23 19:49:51.674
97.0, 18371.412857939347, 32999.22144403713, 41975.57025856618, 13881.729707924094, 24651.135462657865, 24441.721968856094, 187500.0, 187500.0, 0.196, 0.936, -0.212, 192.0, 0.0, 0.0, 0.0, 0.0, 0.0, 0.0, 0.0, 0.0, 0.0, 1.729693191677846E9, 0.0, 2024-10-23 19:49:51.677
98.0, 18414.484669504724, 32966.8337663214, 41981.85109875812, 13880.612120701328, 24653.392988847852, 24429.78613731696, 187500.0, 187500.0, 0.196, 0.936, -0.212, 192.0, 0.0, 0.0, 0.0, 0.0, 0.0, 0.0, 0.0, 0.0, 0.0, 1.7296931916808274E9, 0.0, 2024-10-23 19:49:51.680
99.0, 18449.241632132725, 32900.7173062226, 41984.04156971473, 13879.382774756286, 24649.97317194619, 24415.771593543483, 187500.0, 187500.0, 0.196, 0.936, -0.212, 192.0, 0.0, 0.0, 0.0, 0.0, 0.0, 0.0, 0.0, 0.0, 0.0, 1.729693191685866E9, 0.0, 2024-10-23 19:49:51.685
100.0, 18471.61572833249, 32854.29273298892, 41989.517747106285, 13887.004719615546, 24652.767140003103, 24411.97179698608, 187500.0, 187500.0, 0.196, 0.936, -0.212, 192.0, 0.0, 0.0, 0.0, 0.0, 0.0, 0.0, 0.0, 0.0, 0.0, 1.7296931916888683E9, 0.0, 2024-10-23 19:49:51.688
101.0, 18370.80936083905, 32911.40144007224, 41979.68297954595, 13889.955149883646, 24656.49988132714, 24438.1680414877, 187500.0, 187500.0, 0.196, 0.936, -0.212, 192.0, 0.0, 0.0, 0.0, 0.0, 0.0, 0.0, 0.0, 0.0, 0.0, 1.7296931916919308E9, 0.0, 2024-10-23 19:49:51.691
102.0, 18365.959032292252, 32956.97664701661, 41989.674209317476, 13894.693719708172, 24672.548433846052, 24455.40123646274, 187500.0, 187500.0, 0.196, 0.936, -0.212, 192.0, 0.0, 0.0, 0.0, 0.0, 0.0, 0.0, 0.0, 0.0, 0.0, 1.7296931916969252E9, 0.0, 2024-10-23 19:49:51.696
103.0, 18415.199925327295, 32926.93590246867, 42002.48175889037, 13895.028995875002, 24678.248128682153, 24457.70346614164, 187500.0, 187500.0, 0.196, 0.936, -0.212, 192.0, 0.0, 0.0, 0.0, 0.0, 0.0, 0.0, 0.0, 0.0, 0.0, 1.7296931917009244E9, 0.0, 2024-10-23 19:49:51.700
104.0, 18448.191100143325, 32855.05269230041, 42000.38069491157, 13886.423574259708, 24665.150006431344, 24424.153497714222, 187500.0, 187500.0, 0.196, 0.936, -0.212, 192.0, 0.0, 0.0, 0.0, 0.0, 0.0, 0.0, 0.0, 0.0, 0.0, 1.729693191704873E9, 0.0, 2024-10-23 19:49:51.704
105.0, 18466.36306838549, 32798.905110228676, 41997.67613383247, 13888.569341727418, 24659.338552872963, 24419.996073245537, 187500.0, 187500.0, 0.196, 0.936, -0.216, 192.0, 6.0, 32.0, 29.0, 64.0, 249.0, 64.0, 0.0, 0.0, 0.0, 1.7296931917088552E9, 0.0, 2024-10-23 19:49:51.708
106.0, 18369.624718382922, 32863.635762171245, 41986.164985437994, 13896.638321475784, 24667.273422154598, 24464.677210411694, 187500.0, 187500.0, 0.196, 0.936, -0.216, 192.0, 0.0, 0.0, 0.0, 0.0, 0.0, 0.0, 0.0, 0.0, 0.0, 1.7296931917128932E9, 0.0, 2024-10-23 19:49:51.712
107.0, 18365.24377646968, 32916.09530640785, 41989.20482268391, 13902.583885500895, 24676.772913548102, 24462.84436736636, 187500.0, 187500.0, 0.196, 0.936, -0.216, 192.0, 0.0, 0.0, 0.0, 0.0, 0.0, 0.0, 0.0, 0.0, 0.0, 1.7296931917169127E9, 0.0, 2024-10-23 19:49:51.716
108.0, 18407.46622174576, 32888.13327409426, 41989.227174428364, 13903.500307023563, 24673.12957920189, 24445.07473052439, 187500.0, 187500.0, 0.196, 0.936, -0.216, 192.0, 0.0, 0.0, 0.0, 0.0, 0.0, 0.0, 0.0, 0.0, 0.0, 1.729693191721949E9, 0.0, 2024-10-23 19:49:51.721
109.0, 18441.37381808446, 32824.85548554129, 41986.723779049375, 13905.176687857711, 24666.222890165198, 24449.41096894872, 187500.0, 187500.0, 0.196, 0.936, -0.216, 192.0, 0.0, 0.0, 0.0, 0.0, 0.0, 0.0, 0.0, 0.0, 0.0, 1.7296931917249594E9, 0.0, 2024-10-23 19:49:51.724
110.0, 18464.619632317976, 32779.86142395275, 41989.13776745055, 13907.993007659079, 24665.93231748728, 24437.676303109685, 187500.0, 187500.0, 0.196, 0.936, -0.216, 192.0, 0.0, 0.0, 0.0, 0.0, 0.0, 0.0, 0.0, 0.0, 0.0, 1.7296931917292094E9, 0.0, 2024-10-23 19:49:51.729
111.0, 18373.49157017369, 32853.130442277245, 41983.19220342543, 13905.064929135435, 24674.425980380296, 24456.563527174418, 187500.0, 187500.0, 0.196, 0.936, -0.216, 192.0, 0.0, 0.0, 0.0, 0.0, 0.0, 0.0, 0.0, 0.0, 0.0, 1.729693191732916E9, 0.0, 2024-10-23 19:49:51.732
112.0, 18374.944433563287, 32912.89900695074, 41988.668380816984, 13899.298179065965, 24682.49496012866, 24454.59657366235, 187500.0, 187500.0, 0.196, 0.936, -0.216, 192.0, 0.0, 0.0, 0.0, 0.0, 0.0, 0.0, 0.0, 0.0, 0.0, 1.7296931917389011E9, 0.0, 2024-10-23 19:49:51.738
113.0, 18416.719843950254, 32886.635707215755, 41988.48956686134, 13882.355556768842, 24676.236471681175, 24428.914419283203, 187500.0, 187500.0, 0.196, 0.936, -0.216, 192.0, 0.0, 0.0, 0.0, 0.0, 0.0, 0.0, 0.0, 0.0, 0.0, 1.7296931917429135E9, 0.0, 2024-10-23 19:49:51.742
114.0, 18454.829568246554, 32829.19172396562, 41987.774311038775, 13869.70446940714, 24669.620355322404, 24407.367337628286, 187500.0, 187500.0, 0.196, 0.936, -0.216, 192.0, 0.0, 0.0, 0.0, 0.0, 0.0, 0.0, 0.0, 0.0, 0.0, 1.7296931917459462E9, 0.0, 2024-10-23 19:49:51.745
115.0, 18477.427181890867, 32784.287069354905, 41986.70142730492, 13864.36240248232, 24666.44640760975, 24403.38872711524, 187500.0, 187500.0, 0.198, 0.936, -0.216, 192.0, 6.0, 48.0, 29.0, 64.0, 249.0, 64.0, 0.0, 0.0, 0.0, 1.7296931917489457E9, 0.0, 2024-10-23 19:49:51.748
116.0, 18372.530445162112, 32843.0498055279, 41963.2544473713, 13848.157387752222, 24659.629125550884, 24407.59085507284, 187500.0, 187500.0, 0.198, 0.936, -0.216, 192.0, 0.0, 0.0, 0.0, 0.0, 0.0, 0.0, 0.0, 0.0, 0.0, 1.729693191752994E9, 0.0, 2024-10-23 19:49:51.752
117.0, 18368.060096271052, 32899.55501551092, 41964.59555203862, 13847.486835418564, 24668.30160239954, 24410.876561507772, 187500.0, 187500.0, 0.198, 0.936, -0.216, 192.0, 0.0, 0.0, 0.0, 0.0, 0.0, 0.0, 0.0, 0.0, 0.0, 1.7296931917569418E9, 0.0, 2024-10-23 19:49:51.756
118.0, 18421.03373063013, 32884.06525660339, 41974.34091262113, 13850.929004064681, 24675.275346669598, 24415.793945287936, 187500.0, 187500.0, 0.198, 0.936, -0.216, 192.0, 0.0, 0.0, 0.0, 0.0, 0.0, 0.0, 0.0, 0.0, 0.0, 1.7296931917609525E9, 0.0, 2024-10-23 19:49:51.760
119.0, 18456.595356058522, 32823.00029075149, 41971.07755793066, 13844.849329572837, 24669.285079155576, 24403.478134093064, 187500.0, 187500.0, 0.198, 0.936, -0.216, 192.0, 0.0, 0.0, 0.0, 0.0, 0.0, 0.0, 0.0, 0.0, 0.0, 1.7296931917671623E9, 0.0, 2024-10-23 19:49:51.767
120.0, 18470.028754476163, 32769.91489767014, 41962.36037759309, 13842.97178303859, 24656.566936560506, 24384.769723983973, 187500.0, 187500.0, 0.198, 0.936, -0.216, 192.0, 0.0, 0.0, 0.0, 0.0, 0.0, 0.0, 0.0, 0.0, 0.0, 1.729693191770056E9, 0.0, 2024-10-23 19:49:51.770
121.0, 18377.090201030995, 32844.45796542859, 41956.99595892381, 13852.82890234338, 24667.653401810338, 24415.793945287936, 187500.0, 187500.0, 0.198, 0.936, -0.216, 192.0, 0.0, 0.0, 0.0, 0.0, 0.0, 0.0, 0.0, 0.0, 0.0, 1.729693191773085E9, 0.0, 2024-10-23 19:49:51.773
122.0, 18372.597500395477, 32901.63372774526, 41968.35064510711, 13861.926062336692, 24679.477474627194, 24430.099061739336, 187500.0, 187500.0, 0.198, 0.936, -0.216, 192.0, 0.0, 0.0, 0.0, 0.0, 0.0, 0.0, 0.0, 0.0, 0.0, 1.7296931917761557E9, 0.0, 2024-10-23 19:49:51.776
123.0, 18417.949189895295, 32877.69500943363, 41980.152366179515, 13861.434323958674, 24683.12080897341, 24419.303169167422, 187500.0, 187500.0, 0.198, 0.936, -0.216, 192.0, 0.0, 0.0, 0.0, 0.0, 0.0, 0.0, 0.0, 0.0, 0.0, 1.7296931917799652E9, 0.0, 2024-10-23 19:49:51.779
124.0, 18455.813045002586, 32822.28503492892, 41985.82970927116, 13867.513998450519, 24681.109151972432, 24405.176866671667, 187500.0, 187500.0, 0.198, 0.936, -0.216, 192.0, 0.0, 0.0, 0.0, 0.0, 0.0, 0.0, 0.0, 0.0, 0.0, 1.7296931917850764E9, 0.0, 2024-10-23 19:49:51.785
125.0, 18479.438838891845, 32780.86725245324, 41993.54106110824, 13881.059155590434, 24682.673774084305, 24410.094250451835, 187500.0, 187500.0, 0.192, 0.9440000000000001, -0.214, 192.0, 6.0, 0.0, 29.0, 128.0, 249.0, 80.0, 0.0, 0.0, 0.0, 1.7296931917890844E9, 0.0, 2024-10-23 19:49:51.789
126.0, 18382.253454000172, 32846.62608464075, 41986.0085232268, 13887.854085904848, 24685.534797374585, 24423.72881456957, 187500.0, 187500.0, 0.192, 0.9440000000000001, -0.214, 192.0, 0.0, 0.0, 0.0, 0.0, 0.0, 0.0, 0.0, 0.0, 0.0, 1.729693191792986E9, 0.0, 2024-10-23 19:49:51.792
127.0, 18372.977480051217, 32895.2634805755, 41991.954087251914, 13893.1290975963, 24697.783553336092, 24443.331294456875, 187500.0, 187500.0, 0.192, 0.9440000000000001, -0.214, 192.0, 0.0, 0.0, 0.0, 0.0, 0.0, 0.0, 0.0, 0.0, 0.0, 1.7296931917970548E9, 0.0, 2024-10-23 19:49:51.797
128.0, 18419.469108518257, 32873.58228845386, 41999.0619419887, 13901.376891300308, 24699.057602770044, 24458.195204519656, 187500.0, 187500.0, 0.192, 0.9440000000000001, -0.214, 192.0, 0.0, 0.0, 0.0, 0.0, 0.0, 0.0, 0.0, 0.0, 0.0, 1.7296931918010464E9, 0.0, 2024-10-23 19:49:51.801
129.0, 18455.410713602392, 32813.12081970225, 41998.614907099596, 13904.193211101678, 24692.016803266622, 24433.22830596308, 187500.0, 187500.0, 0.192, 0.9440000000000001, -0.214, 192.0, 0.0, 0.0, 0.0, 0.0, 0.0, 0.0, 0.0, 0.0, 0.0, 1.7296931918040552E9, 0.0, 2024-10-23 19:49:51.804
130.0, 18465.737219540744, 32755.00628411845, 41985.963819737895, 13898.515868010028, 24675.49886411415, 24404.662776549194, 187500.0, 187500.0, 0.192, 0.9440000000000001, -0.214, 192.0, 0.0, 0.0, 0.0, 0.0, 0.0, 0.0, 0.0, 0.0, 0.0, 1.7296931918081093E9, 0.0, 2024-10-23 19:49:51.808
131.0, 18367.031916026106, 32819.15579070518, 41970.87639223056, 13904.282618079498, 24678.15872170433, 24443.532460156974, 187500.0, 187500.0, 0.192, 0.9440000000000001, -0.214, 192.0, 0.0, 0.0, 0.0, 0.0, 0.0, 0.0, 0.0, 0.0, 0.0, 1.7296931918132231E9, 0.0, 2024-10-23 19:49:51.813
132.0, 18364.103837502462, 32871.88355587525, 41972.93275272045, 13913.335074583898, 24680.326840916496, 24454.97655331809, 187500.0, 187500.0, 0.192, 0.9440000000000001, -0.214, 192.0, 0.0, 0.0, 0.0, 0.0, 0.0, 0.0, 0.0, 0.0, 0.0, 1.7296931918170776E9, 0.0, 2024-10-23 19:49:51.817
133.0, 18405.96865486725, 32836.52309614696, 41971.613999797584, 13906.383682058298, 24676.1247129589, 24433.541230385454, 187500.0, 187500.0, 0.192, 0.9440000000000001, -0.214, 192.0, 0.0, 0.0, 0.0, 0.0, 0.0, 0.0, 0.0, 0.0, 0.0, 1.7296931918220353E9, 0.0, 2024-10-23 19:49:51.822
134.0, 18447.98993444323, 32773.75939771645, 41973.02215969827, 13906.204868102655, 24670.380314633887, 24414.721061554083, 187500.0, 187500.0, 0.192, 0.9440000000000001, -0.214, 192.0, 0.0, 0.0, 0.0, 0.0, 0.0, 0.0, 0.0, 0.0, 0.0, 1.7296931918270147E9, 0.0, 2024-10-23 19:49:51.827
135.0, 18468.21826317528, 32715.04136503236, 41966.83072648415, 13905.824888446914, 24659.986753462166, 24397.554921812407, 187500.0, 187500.0, 0.198, 0.936, -0.212, 192.0, 6.0, 48.0, 29.0, 64.0, 249.0, 96.0, 0.0, 0.0, 0.0, 1.7296931918308737E9, 0.0, 2024-10-23 19:49:51.830
136.0, 18374.54210216309, 32776.933345429105, 41956.05718565669, 13908.32828382591, 24666.51346284312, 24427.68507333816, 187500.0, 187500.0, 0.198, 0.936, -0.212, 192.0, 0.0, 0.0, 0.0, 0.0, 0.0, 0.0, 0.0, 0.0, 0.0, 1.7296931918340316E9, 0.0, 2024-10-23 19:49:51.834
137.0, 18381.001756310674, 32831.762174577976, 41971.12226141957, 13918.1854031307, 24687.144122975365, 24457.569355674907, 187500.0, 187500.0, 0.198, 0.936, -0.212, 192.0, 0.0, 0.0, 0.0, 0.0, 0.0, 0.0, 0.0, 0.0, 0.0, 1.729693191837086E9, 0.0, 2024-10-23 19:49:51.837
138.0, 18434.020094158663, 32803.62132830874, 41983.03574121425, 13915.570249029428, 24686.473570641705, 24448.628657892783, 187500.0, 187500.0, 0.198, 0.936, -0.212, 192.0, 0.0, 0.0, 0.0, 0.0, 0.0, 0.0, 0.0, 0.0, 0.0, 1.7296931918411949E9, 0.0, 2024-10-23 19:49:51.841
139.0, 18467.123027696973, 32727.066603549316, 41978.16306092299, 13899.342882554876, 24672.59313733496, 24415.369262143286, 187500.0, 187500.0, 0.198, 0.936, -0.212, 192.0, 0.0, 0.0, 0.0, 0.0, 0.0, 0.0, 0.0, 0.0, 0.0, 1.729693191845117E9, 0.0, 2024-10-23 19:49:51.845
140.0, 18482.85865579351, 32663.252373129413, 41971.92692421996, 13882.981405613591, 24663.339515130465, 24397.130238667756, 187500.0, 187500.0, 0.198, 0.936, -0.212, 192.0, 0.0, 0.0, 0.0, 0.0, 0.0, 0.0, 0.0, 0.0, 0.0, 1.729693191849088E9, 0.0, 2024-10-23 19:49:51.849
141.0, 18390.858875615464, 32726.70897563803, 41963.67913051595, 13877.482876477585, 24669.061561711023, 24419.280817422965, 187500.0, 187500.0, 0.198, 0.936, -0.212, 192.0, 0.0, 0.0, 0.0, 0.0, 0.0, 0.0, 0.0, 0.0, 0.0, 1.7296931918531258E9, 0.0, 2024-10-23 19:49:51.853
142.0, 18390.478895959724, 32779.10146464127, 41971.85986898659, 13877.572283455407, 24682.182035706286, 24431.015483262003, 187500.0, 187500.0, 0.198, 0.936, -0.212, 192.0, 0.0, 0.0, 0.0, 0.0, 0.0, 0.0, 0.0, 0.0, 0.0, 1.7296931918571284E9, 0.0, 2024-10-23 19:49:51.857
143.0, 18430.98025691274, 32744.031577590893, 41970.11643291908, 13860.517902436008, 24674.716553058213, 24402.74052652604, 187500.0, 187500.0, 0.198, 0.936, -0.212, 192.0, 0.0, 0.0, 0.0, 0.0, 0.0, 0.0, 0.0, 0.0, 0.0, 1.72969319186009E9, 0.0, 2024-10-23 19:49:51.860
144.0, 18461.624498560966, 32677.24456515844, 41964.7520142498, 13843.798797583438, 24663.87595699739, 24377.393648313722, 187500.0, 187500.0, 0.198, 0.936, -0.212, 192.0, 0.0, 0.0, 0.0, 0.0, 0.0, 0.0, 0.0, 0.0, 0.0, 1.7296931918640838E9, 0.0, 2024-10-23 19:49:51.864
145.0, 18473.247405677725, 32620.985224364427, 41956.92890369045, 13836.109797490812, 24649.369674845897, 24353.946668380104, 187500.0, 187500.0, 0.20600000000000002, 0.936, -0.212, 192.0, 6.0, 112.0, 29.0, 64.0, 249.0, 96.0, 0.0, 0.0, 0.0, 1.7296931918691864E9, 0.0, 2024-10-23 19:49:51.869
146.0, 18375.883206830407, 32690.85677753172, 41951.18450536543, 13838.613192869807, 24661.663134296316, 24391.25172987601, 187500.0, 187500.0, 0.20600000000000002, 0.936, -0.212, 192.0, 0.0, 0.0, 0.0, 0.0, 0.0, 0.0, 0.0, 0.0, 0.0, 1.7296931918731763E9, 0.0, 2024-10-23 19:49:51.873
147.0, 18375.883206830407, 32754.939228885083, 41967.61303754008, 13852.337163965365, 24682.226739195197, 24424.488773881054, 187500.0, 187500.0, 0.20600000000000002, 0.936, -0.212, 192.0, 0.0, 0.0, 0.0, 0.0, 0.0, 0.0, 0.0, 0.0, 0.0, 1.7296931918772671E9, 0.0, 2024-10-23 19:49:51.877
148.0, 18418.820907929054, 32735.157935042138, 41977.82778475616, 13852.985364554568, 24687.769971820115, 24422.87944828027, 187500.0, 187500.0, 0.20600000000000002, 0.936, -0.212, 192.0, 0.0, 0.0, 0.0, 0.0, 0.0, 0.0, 0.0, 0.0, 0.0, 1.7296931918811302E9, 0.0, 2024-10-23 19:49:51.881
149.0, 18449.711018766287, 32676.082274446762, 41978.900668490016, 13849.811416841916, 24681.489131628172, 24402.092325936836, 187500.0, 187500.0, 0.20600000000000002, 0.936, -0.212, 192.0, 0.0, 0.0, 0.0, 0.0, 0.0, 0.0, 0.0, 0.0, 0.0, 1.7296931918851984E9, 0.0, 2024-10-23 19:49:51.885
150.0, 18468.866463764487, 32632.719890203465, 41979.168889423476, 13854.952318066637, 24674.850663524947, 24391.139971153734, 187500.0, 187500.0, 0.20600000000000002, 0.936, -0.212, 192.0, 0.0, 0.0, 0.0, 0.0, 0.0, 0.0, 0.0, 0.0, 0.0, 1.7296931918891592E9, 0.0, 2024-10-23 19:49:51.889
151.0, 18370.094105016484, 32708.492303906954, 41967.94831370692, 13860.719068136104, 24678.672811826804, 24416.397442388232, 187500.0, 187500.0, 0.20600000000000002, 0.936, -0.212, 192.0, 0.0, 0.0, 0.0, 0.0, 0.0, 0.0, 0.0, 0.0, 0.0, 1.7296931918922296E9, 0.0, 2024-10-23 19:49:51.892
152.0, 18360.929889789808, 32769.98195290351, 41968.93179046295, 13864.921196093703, 24684.730134574194, 24422.231247691067, 187500.0, 187500.0, 0.20600000000000002, 0.936, -0.212, 192.0, 0.0, 0.0, 0.0, 0.0, 0.0, 0.0, 0.0, 0.0, 0.0, 1.7296931918962889E9, 0.0, 2024-10-23 19:49:51.896
153.0, 18402.995872854695, 32748.90425788215, 41969.84821198562, 13862.1719315257, 24678.628108337893, 24402.807581759404, 187500.0, 187500.0, 0.20600000000000002, 0.936, -0.212, 192.0, 0.0, 0.0, 0.0, 0.0, 0.0, 0.0, 0.0, 0.0, 0.0, 1.7296931919012384E9, 0.0, 2024-10-23 19:49:51.901
154.0, 18434.55653602559, 32693.85191128873, 41963.992054938324, 13858.394486712754, 24667.251070410144, 24378.73475298104, 187500.0, 187500.0, 0.20600000000000002, 0.936, -0.212, 192.0, 0.0, 0.0, 0.0, 0.0, 0.0, 0.0, 0.0, 0.0, 0.0, 1.7296931919052405E9, 0.0, 2024-10-23 19:49:51.905
155.0, 18454.181367657347, 32656.993884681928, 41960.90751420349, 13860.942585580658, 24661.73018952968, 24368.475302276052, 187500.0, 187500.0, 0.2, 0.9420000000000001, -0.21, 192.0, 6.0, 64.0, 29.0, 112.0, 249.0, 112.0, 0.0, 0.0, 0.0, 1.7296931919092183E9, 0.0, 2024-10-23 19:49:51.909
156.0, 18361.19811072327, 32737.214295532027, 41950.31278733168, 13870.240911274066, 24665.26176515362, 24391.25172987601, 187500.0, 187500.0, 0.2, 0.9420000000000001, -0.21, 192.0, 0.0, 0.0, 0.0, 0.0, 0.0, 0.0, 0.0, 0.0, 0.0, 1.7296931919121728E9, 0.0, 2024-10-23 19:49:51.912
157.0, 18361.622793867922, 32804.67186029814, 41956.660682756985, 13880.947396868158, 24673.50955885763, 24398.426639846166, 187500.0, 187500.0, 0.2, 0.9420000000000001, -0.21, 192.0, 0.0, 0.0, 0.0, 0.0, 0.0, 0.0, 0.0, 0.0, 0.0, 1.7296931919161513E9, 0.0, 2024-10-23 19:49:51.916
158.0, 18404.06875658855, 32783.54946178788, 41959.655816513994, 13882.46731549112, 24674.381276891385, 24400.147724169223, 187500.0, 187500.0, 0.2, 0.9420000000000001, -0.21, 192.0, 0.0, 0.0, 0.0, 0.0, 0.0, 0.0, 0.0, 0.0, 0.0, 1.7296931919201493E9, 0.0, 2024-10-23 19:49:51.920
159.0, 18436.344675582015, 32723.982062814484, 41958.605284524594, 13883.473143991607, 24668.36865763291, 24384.63561351724, 187500.0, 187500.0, 0.2, 0.9420000000000001, -0.21, 192.0, 0.0, 0.0, 0.0, 0.0, 0.0, 0.0, 0.0, 0.0, 0.0, 1.729693191926185E9, 0.0, 2024-10-23 19:49:51.926
160.0, 18454.963678713284, 32674.048265701327, 41955.58779902313, 13886.602388215351, 24660.634954051373, 24381.171093126668, 187500.0, 187500.0, 0.2, 0.9420000000000001, -0.21, 192.0, 0.0, 0.0, 0.0, 0.0, 0.0, 0.0, 0.0, 0.0, 0.0, 1.7296931919291909E9, 0.0, 2024-10-23 19:49:51.929
161.0, 18364.573224136024, 32743.04810083486, 41949.48577278683, 13894.425498774708, 24669.866224511414, 24430.32257918389, 187500.0, 187500.0, 0.2, 0.9420000000000001, -0.21, 192.0, 0.0, 0.0, 0.0, 0.0, 0.0, 0.0, 0.0, 0.0, 0.0, 1.7296931919342687E9, 0.0, 2024-10-23 19:49:51.934
162.0, 18360.460503156246, 32793.31717411485, 41951.11745013207, 13894.917237152726, 24671.542605345563, 24432.22247746259, 187500.0, 187500.0, 0.2, 0.9420000000000001, -0.21, 192.0, 0.0, 0.0, 0.0, 0.0, 0.0, 0.0, 0.0, 0.0, 0.0, 1.7296931919382868E9, 0.0, 2024-10-23 19:49:51.938
163.0, 18412.227143314736, 32770.853670937264, 41959.879333958546, 13895.207809830645, 24675.051829225045, 24416.442145877143, 187500.0, 187500.0, 0.2, 0.9420000000000001, -0.21, 192.0, 0.0, 0.0, 0.0, 0.0, 0.0, 0.0, 0.0, 0.0, 0.0, 1.7296931919411733E9, 0.0, 2024-10-23 19:49:51.941
164.0, 18452.46028333429, 32710.52631265239, 41963.097985160115, 13892.145620840267, 24671.02851522309, 24395.677375278163, 187500.0, 187500.0, 0.2, 0.9420000000000001, -0.21, 192.0, 0.0, 0.0, 0.0, 0.0, 0.0, 0.0, 0.0, 0.0, 0.0, 1.7296931919452991E9, 0.0, 2024-10-23 19:49:51.945
165.0, 18467.36889688598, 32647.583800266246, 41953.82201121116, 13885.216580059121, 24658.757407517125, 24376.49957853551, 187500.0, 187500.0, 0.196, 0.9440000000000001, -0.212, 192.0, 6.0, 32.0, 29.0, 128.0, 249.0, 96.0, 0.0, 0.0, 0.0, 1.7296931919483764E9, 0.0, 2024-10-23 19:49:51.948
166.0, 18367.54600614858, 32705.36305968321, 41940.45566802689, 13879.338071267375, 24658.08685518347, 24389.15066589721, 187500.0, 187500.0, 0.196, 0.9440000000000001, -0.212, 192.0, 0.0, 0.0, 0.0, 0.0, 0.0, 0.0, 0.0, 0.0, 0.0, 1.7296931919522913E9, 0.0, 2024-10-23 19:49:51.952
167.0, 18364.327354947014, 32753.329903284302, 41950.022214653756, 13880.098030578856, 24669.419189622306, 24421.69480582414, 187500.0, 187500.0, 0.196, 0.9440000000000001, -0.212, 192.0, 0.0, 0.0, 0.0, 0.0, 0.0, 0.0, 0.0, 0.0, 0.0, 1.7296931919572902E9, 0.0, 2024-10-23 19:49:51.957
