%OpenBCI Raw EXG Data
%Number of channels = 8
%Sample Rate = 250 Hz
%Board = OpenBCI_GUI$BoardCytonSerial
Sample Index, EXG Channel 0, EXG Channel 1, EXG Channel 2, EXG Channel 3, EXG Channel 4, EXG Channel 5, EXG Channel 6, EXG Channel 7, Accel Channel 0, Accel Channel 1, Accel Channel 2, Other, Other, Other, Other, Other, Other, Other, Analog Channel 0, Analog Channel 1, Analog Channel 2, Timestamp, Other, Timestamp (Formatted)
0.0, 0.0, 0.0, 0.0, 0.0, 0.0, 0.0, 0.0, 0.0, -0.168, 0.738, 0.63, 192.0, 250.0, 192.0, 23.0, 16.0, 19.0, 176.0, 0.0, 0.0, 0.0, 1.7297051549250274E9, 0.0, 2024-10-23 23:09:14.925
1.0, -43816.99637377219, -51573.319920697206, -46725.91945241922, -19583.123276606, -11541.747932642453, -11230.276373657749, -187500.02235174447, -187500.02235174447, -0.168, 0.738, 0.63, 192.0, 0.0, 0.0, 0.0, 0.0, 0.0, 0.0, 0.0, 0.0, 0.0, 1.7297051549380026E9, 0.0, 2024-10-23 23:09:14.938
2.0, -44653.55511350097, -53145.04988730549, -25292.027031424885, -19657.12990249752, -12881.131515637819, -12667.873521789734, -187500.02235174447, -187500.02235174447, -0.168, 0.738, 0.63, 192.0, 0.0, 0.0, 0.0, 0.0, 0.0, 0.0, 0.0, 0.0, 0.0, 1.7297051549420607E9, 0.0, 2024-10-23 23:09:14.942
3.0, -46282.88552557058, -54670.15411498, 1021.6758873076305, -21173.069914945354, -14419.04329288522, -14148.31896404254, -187500.02235174447, -187500.02235174447, -0.168, 0.738, 0.63, 192.0, 0.0, 0.0, 0.0, 0.0, 0.0, 0.0, 0.0, 0.0, 0.0, 1.729705154946088E9, 0.0, 2024-10-23 23:09:14.946
4.0, -46557.54376143739, -54095.2672475895, -2839.185635946469, -22147.71773191902, -14102.296722209065, -13691.09167946478, -187500.02235174447, -187500.02235174447, -0.168, 0.738, 0.63, 192.0, 0.0, 0.0, 0.0, 0.0, 0.0, 0.0, 0.0, 0.0, 0.0, 1.7297051549500933E9, 0.0, 2024-10-23 23:09:14.950
5.0, -45090.554069346676, -52243.536978189586, -31150.061625249582, -21188.80554304189, -12400.725472059903, -11970.901426184348, -187500.02235174447, -187500.02235174447, -0.168, 0.738, 0.63, 192.0, 0.0, 0.0, 0.0, 0.0, 0.0, 0.0, 0.0, 0.0, 0.0, 1.729705154954393E9, 0.0, 2024-10-23 23:09:14.954
6.0, -43813.64361210389, -51554.03036523228, -46917.004515767636, -19604.804468727645, -11561.663336952131, -11268.22963574286, -187500.02235174447, -187500.02235174447, -0.168, 0.738, 0.63, 192.0, 0.0, 0.0, 0.0, 0.0, 0.0, 0.0, 0.0, 0.0, 0.0, 1.7297051549583707E9, 0.0, 2024-10-23 23:09:14.958
7.0, -44646.24609306408, -53136.28800347901, -25548.62505777181, -19662.002582788777, -12903.527963582035, -12704.84330711881, -187500.02235174447, -187500.02235174447, -0.168, 0.738, 0.63, 192.0, 0.0, 0.0, 0.0, 0.0, 0.0, 0.0, 0.0, 0.0, 0.0, 1.729705154963083E9, 0.0, 2024-10-23 23:09:14.963
8.0, -46291.06626404122, -54685.755632609806, 844.02422237685, -21199.646139102715, -14459.678764304968, -14195.704662287792, -187500.02235174447, -187500.02235174447, -0.17200000000000001, 0.732, 0.63, 192.0, 250.0, 160.0, 22.0, 224.0, 19.0, 176.0, 0.0, 0.0, 0.0, 1.7297051549670825E9, 0.0, 2024-10-23 23:09:14.967
9.0, -46573.681720934124, -54123.22927990309, -2936.7733522383396, -22189.604901028266, -14142.820434906536, -13737.695066654094, -187500.02235174447, -187500.02235174447, -0.17200000000000001, 0.732, 0.63, 192.0, 0.0, 0.0, 0.0, 0.0, 0.0, 0.0, 0.0, 0.0, 0.0, 1.7297051549710689E9, 0.0, 2024-10-23 23:09:14.971
10.0, -45108.01078176627, -52273.95770239326, -31132.023767474147, -21219.04745328992, -12436.51061493285, -12008.56411559154, -187500.02235174447, -187500.02235174447, -0.17200000000000001, 0.732, 0.63, 192.0, 0.0, 0.0, 0.0, 0.0, 0.0, 0.0, 0.0, 0.0, 0.0, 1.7297051549750855E9, 0.0, 2024-10-23 23:09:14.975
11.0, -43845.67366190835, -51592.11773778412, -46838.34872702941, -19636.901573765466, -11601.404738593666, -11305.445290260946, -187500.02235174447, -187500.02235174447, -0.17200000000000001, 0.732, 0.63, 192.0, 0.0, 0.0, 0.0, 0.0, 0.0, 0.0, 0.0, 0.0, 0.0, 1.7297051549801116E9, 0.0, 2024-10-23 23:09:14.980
12.0, -44661.06529963795, -53157.67862292274, -25543.14888038026, -19684.577844688636, -12921.029379490541, -12719.416644503672, -187500.02235174447, -187500.02235174447, -0.17200000000000001, 0.732, 0.63, 192.0, 0.0, 0.0, 0.0, 0.0, 0.0, 0.0, 0.0, 0.0, 0.0, 1.7297051549831185E9, 0.0, 2024-10-23 23:09:14.983
13.0, -46293.88258384259, -54693.82461235817, 677.4143192069912, -21201.724851337058, -14460.505778849814, -14193.402432608895, -187500.02235174447, -187500.02235174447, -0.17200000000000001, 0.732, 0.63, 192.0, 0.0, 0.0, 0.0, 0.0, 0.0, 0.0, 0.0, 0.0, 0.0, 1.7297051549860885E9, 0.0, 2024-10-23 23:09:14.986
14.0, -46584.857593161774, -54140.82010278942, -3034.8304551637716, -22185.425124815123, -14154.108065856466, -13741.785435889416, -187500.02235174447, -187500.02235174447, -0.17200000000000001, 0.732, 0.63, 192.0, 0.0, 0.0, 0.0, 0.0, 0.0, 0.0, 0.0, 0.0, 0.0, 1.7297051549891164E9, 0.0, 2024-10-23 23:09:14.989
15.0, -45124.01463079627, -52298.20934512727, -31055.42433922581, -21213.52657240946, -12451.307469762263, -12011.626304581918, -187500.02235174447, -187500.02235174447, -0.17200000000000001, 0.732, 0.63, 192.0, 0.0, 0.0, 0.0, 0.0, 0.0, 0.0, 0.0, 0.0, 0.0, 1.729705154993348E9, 0.0, 2024-10-23 23:09:14.993
16.0, -43861.43164174934, -51613.35189501666, -46826.41289549028, -19638.60030634407, -11602.924657216628, -11297.577476212678, -187500.02235174447, -187500.02235174447, -0.17200000000000001, 0.732, 0.63, 192.0, 0.0, 0.0, 0.0, 0.0, 0.0, 0.0, 0.0, 0.0, 0.0, 1.7297051549980955E9, 0.0, 2024-10-23 23:09:14.998
17.0, -44667.92728518573, -53166.66402419377, -25672.163149376294, -19677.782914374224, -12909.451175862692, -12702.071690806353, -187500.02235174447, -187500.02235174447, -0.17200000000000001, 0.732, 0.63, 192.0, 0.0, 0.0, 0.0, 0.0, 0.0, 0.0, 0.0, 0.0, 0.0, 1.7297051550021653E9, 0.0, 2024-10-23 23:09:15.002
18.0, -46298.64350541157, -54701.9606473399, 690.7136071578989, -21184.08932496182, -14445.060723431197, -14174.157580632876, -187500.02235174447, -187500.02235174447, -0.176, 0.726, 0.636, 192.0, 250.0, 128.0, 22.0, 176.0, 19.0, 224.0, 0.0, 0.0, 0.0, 1.7297051550061548E9, 0.0, 2024-10-23 23:09:15.006
19.0, -46606.15880562768, -54167.35162345787, -2720.073189744138, -22178.116104378238, -14152.386981533407, -13732.665924151652, -187500.02235174447, -187500.02235174447, -0.176, 0.726, 0.636, 192.0, 0.0, 0.0, 0.0, 0.0, 0.0, 0.0, 0.0, 0.0, 0.0, 1.7297051550091171E9, 0.0, 2024-10-23 23:09:15.009
20.0, -45144.46647697288, -52311.35217086699, -30805.66594668221, -21211.403156686207, -12433.627239898115, -11992.537914817085, -187500.02235174447, -187500.02235174447, -0.176, 0.726, 0.636, 192.0, 0.0, 0.0, 0.0, 0.0, 0.0, 0.0, 0.0, 0.0, 0.0, 1.7297051550131257E9, 0.0, 2024-10-23 23:09:15.013
21.0, -43858.34710101451, -51591.78246161729, -47011.61945004696, -19616.27091363322, -11563.071496852815, -11254.080981502651, -187500.02235174447, -187500.02235174447, -0.176, 0.726, 0.636, 192.0, 0.0, 0.0, 0.0, 0.0, 0.0, 0.0, 0.0, 0.0, 0.0, 1.7297051550171351E9, 0.0, 2024-10-23 23:09:15.017
22.0, -44655.41030829076, -53147.955614084676, -25947.357827110034, -19639.203803444365, -12865.664108474746, -12651.377934381717, -187500.02235174447, -187500.02235174447, -0.176, 0.726, 0.636, 192.0, 0.0, 0.0, 0.0, 0.0, 0.0, 0.0, 0.0, 0.0, 0.0, 1.729705155021138E9, 0.0, 2024-10-23 23:09:15.021
23.0, -46308.90295611655, -54713.65060969003, 652.0897927391283, -21164.486845074516, -14422.32899932015, -14145.145016329887, -187500.02235174447, -187500.02235174447, -0.176, 0.726, 0.636, 192.0, 0.0, 0.0, 0.0, 0.0, 0.0, 0.0, 0.0, 0.0, 0.0, 1.729705155026132E9, 0.0, 2024-10-23 23:09:15.026
24.0, -46626.99063146003, -54187.4905452121, -2480.082509527506, -22180.753610223965, -14144.22859480722, -13728.352037471777, -187500.02235174447, -187500.02235174447, -0.176, 0.726, 0.636, 192.0, 0.0, 0.0, 0.0, 0.0, 0.0, 0.0, 0.0, 0.0, 0.0, 1.729705155030326E9, 0.0, 2024-10-23 23:09:15.030
25.0, -45153.74245092183, -52317.02951395864, -30575.688847981557, -21215.53822941044, -12429.179242751508, -11983.239589123677, -187500.02235174447, -187500.02235174447, -0.176, 0.726, 0.636, 192.0, 0.0, 0.0, 0.0, 0.0, 0.0, 0.0, 0.0, 0.0, 0.0, 1.7297051550342278E9, 0.0, 2024-10-23 23:09:15.034
26.0, -43864.002092361705, -51593.034159306786, -46952.70025166276, -19628.094986450076, -11559.182293317592, -11245.028524998252, -187500.02235174447, -187500.02235174447, -0.176, 0.726, 0.636, 192.0, 0.0, 0.0, 0.0, 0.0, 0.0, 0.0, 0.0, 0.0, 0.0, 1.7297051550381737E9, 0.0, 2024-10-23 23:09:15.038
27.0, -44640.14406682779, -53131.79530284349, -25998.09628702358, -19638.82382378862, -12854.220015313627, -12646.348791879273, -187500.02235174447, -187500.02235174447, -0.176, 0.726, 0.636, 192.0, 0.0, 0.0, 0.0, 0.0, 0.0, 0.0, 0.0, 0.0, 0.0, 1.7297051550422611E9, 0.0, 2024-10-23 23:09:15.042
28.0, -46282.14791800355, -54684.23571398684, 492.92302047288666, -21159.368295594253, -14417.411615539982, -14152.834016422514, -187500.02235174447, -187500.02235174447, -0.176, 0.726, 0.636, 192.0, 250.0, 128.0, 22.0, 176.0, 19.0, 224.0, 0.0, 0.0, 0.0, 1.7297051550472617E9, 0.0, 2024-10-23 23:09:15.047
29.0, -46611.47852080805, -54171.553751415464, -2617.769255372197, -22186.14038063769, -14165.105124128477, -13758.526892486441, -187500.02235174447, -187500.02235174447, -0.176, 0.726, 0.636, 192.0, 0.0, 0.0, 0.0, 0.0, 0.0, 0.0, 0.0, 0.0, 0.0, 1.7297051550512605E9, 0.0, 2024-10-23 23:09:15.051
30.0, -45147.77453515226, -52312.335647623026, -30544.53051621086, -21234.73837789755, -12467.37837402563, -12039.253060728677, -187500.02235174447, -187500.02235174447, -0.176, 0.726, 0.636, 192.0, 0.0, 0.0, 0.0, 0.0, 0.0, 0.0, 0.0, 0.0, 0.0, 1.7297051550551941E9, 0.0, 2024-10-23 23:09:15.055
31.0, -43861.610455704984, -51581.90299056804, -46856.36423306039, -19655.9899635303, -11597.157907147159, -11305.42293851649, -187500.02235174447, -187500.02235174447, -0.176, 0.726, 0.636, 192.0, 0.0, 0.0, 0.0, 0.0, 0.0, 0.0, 0.0, 0.0, 0.0, 1.7297051550591853E9, 0.0, 2024-10-23 23:09:15.059
32.0, -44631.82921789041, -53117.42313115873, -26046.91249691397, -19663.65661187847, -12883.45609706117, -12695.70144363659, -187500.02235174447, -187500.02235174447, -0.176, 0.726, 0.636, 192.0, 0.0, 0.0, 0.0, 0.0, 0.0, 0.0, 0.0, 0.0, 0.0, 1.7297051550631907E9, 0.0, 2024-10-23 23:09:15.063
33.0, -46277.275237712296, -54680.078289518155, 355.4374403282929, -21186.19038894062, -14447.832339743656, -14199.392700122919, -187500.02235174447, -187500.02235174447, -0.176, 0.726, 0.636, 192.0, 0.0, 0.0, 0.0, 0.0, 0.0, 0.0, 0.0, 0.0, 0.0, 1.7297051550672493E9, 0.0, 2024-10-23 23:09:15.067
34.0, -46612.193776630615, -54170.61497814834, -2520.9638501362624, -22203.82061050184, -14187.792144750614, -13794.200276637112, -187500.02235174447, -187500.02235174447, -0.176, 0.726, 0.636, 192.0, 0.0, 0.0, 0.0, 0.0, 0.0, 0.0, 0.0, 0.0, 0.0, 1.729705155070465E9, 0.0, 2024-10-23 23:09:15.070
35.0, -45164.739509193845, -52323.46681636177, -30283.75271365079, -21261.806340432926, -12490.08774639222, -12071.931311122336, -187500.02235174447, -187500.02235174447, -0.176, 0.726, 0.636, 192.0, 0.0, 0.0, 0.0, 0.0, 0.0, 0.0, 0.0, 0.0, 0.0, 1.7297051550732448E9, 0.0, 2024-10-23 23:09:15.073
36.0, -43867.846592408016, -51586.1274702701, -46744.24788287257, -19682.208559776373, -11593.827497223318, -11310.787357185765, -187500.02235174447, -187500.02235174447, -0.176, 0.726, 0.636, 192.0, 0.0, 0.0, 0.0, 0.0, 0.0, 0.0, 0.0, 0.0, 0.0, 1.7297051550802288E9, 0.0, 2024-10-23 23:09:15.080
37.0, -44619.02166831752, -53112.97513401212, -26126.88703857506, -19669.0433822922, -12856.276375803516, -12676.344832938294, -187500.02235174447, -187500.02235174447, -0.176, 0.726, 0.636, 192.0, 0.0, 0.0, 0.0, 0.0, 0.0, 0.0, 0.0, 0.0, 0.0, 1.7297051550832798E9, 0.0, 2024-10-23 23:09:15.083
38.0, -46259.97498750389, -54680.72649010736, 360.84656248647724, -21170.253595143986, -14412.985970137832, -14171.318909087053, -187500.02235174447, -187500.02235174447, -0.17400000000000002, 0.728, 0.626, 192.0, 250.0, 144.0, 22.0, 192.0, 19.0, 144.0, 0.0, 0.0, 0.0, 1.7297051550892797E9, 0.0, 2024-10-23 23:09:15.089
39.0, -46624.3531256143, -54204.276705298034, -2164.900560963221, -22210.034395460414, -14179.14201964641, -13790.400480079708, -187500.02235174447, -187500.02235174447, -0.17400000000000002, 0.728, 0.626, 192.0, 0.0, 0.0, 0.0, 0.0, 0.0, 0.0, 0.0, 0.0, 0.0, 1.7297051550923767E9, 0.0, 2024-10-23 23:09:15.092
40.0, -45180.22926810137, -52348.85839806299, -29935.803107715026, -21272.73634347157, -12477.481362519427, -12055.905110347881, -187500.02235174447, -187500.02235174447, -0.17400000000000002, 0.728, 0.626, 192.0, 0.0, 0.0, 0.0, 0.0, 0.0, 0.0, 0.0, 0.0, 0.0, 1.7297051550952666E9, 0.0, 2024-10-23 23:09:15.095
41.0, -43865.65612145139, -51583.936999313475, -46904.44283538376, -19682.320318498652, -11567.541845743877, -11269.771906110276, -187500.02235174447, -187500.02235174447, -0.17400000000000002, 0.728, 0.626, 192.0, 0.0, 0.0, 0.0, 0.0, 0.0, 0.0, 0.0, 0.0, 0.0, 1.729705155099279E9, 0.0, 2024-10-23 23:09:15.099
42.0, -44585.047016745455, -53091.07042444592, -26525.038662557443, -19630.17369868442, -12817.138471262273, -12619.571402021815, -187500.02235174447, -187500.02235174447, -0.17400000000000002, 0.728, 0.626, 192.0, 0.0, 0.0, 0.0, 0.0, 0.0, 0.0, 0.0, 0.0, 0.0, 1.7297051551023488E9, 0.0, 2024-10-23 23:09:15.102
43.0, -46235.56688255869, -54676.77023133877, 242.0246889620649, -21124.99131262199, -14386.409745980473, -14133.276240024119, -187500.02235174447, -187500.02235174447, -0.17400000000000002, 0.728, 0.626, 192.0, 0.0, 0.0, 0.0, 0.0, 0.0, 0.0, 0.0, 0.0, 0.0, 1.729705155105399E9, 0.0, 2024-10-23 23:09:15.105
44.0, -46633.450285607614, -54225.041475897015, -1889.1470896180977, -22181.155941624158, -14177.80091497909, -13775.58127350584, -187500.02235174447, -187500.02235174447, -0.17400000000000002, 0.728, 0.626, 192.0, 0.0, 0.0, 0.0, 0.0, 0.0, 0.0, 0.0, 0.0, 0.0, 1.7297051551093895E9, 0.0, 2024-10-23 23:09:15.109
45.0, -45193.79677698574, -52365.7116133823, -29581.61736507623, -21254.519671740494, -12473.972138639945, -12041.465883429753, -187500.02235174447, -187500.02235174447, -0.17400000000000002, 0.728, 0.626, 192.0, 0.0, 0.0, 0.0, 0.0, 0.0, 0.0, 0.0, 0.0, 0.0, 1.7297051551142793E9, 0.0, 2024-10-23 23:09:15.114
46.0, -43863.376243516956, -51577.11971725461, -46730.72507747711, -19660.862643821554, -11534.148339527648, -11229.538766090724, -187500.02235174447, -187500.02235174447, -0.17400000000000002, 0.728, 0.626, 192.0, 0.0, 0.0, 0.0, 0.0, 0.0, 0.0, 0.0, 0.0, 0.0, 1.7297051551182752E9, 0.0, 2024-10-23 23:09:15.118
47.0, -44575.90515326323, -53081.66034003024, -26574.63718350377, -19606.749070495258, -12768.38931660525, -12577.505418956927, -187500.02235174447, -187500.02235174447, -0.17400000000000002, 0.728, 0.626, 192.0, 0.0, 0.0, 0.0, 0.0, 0.0, 0.0, 0.0, 0.0, 0.0, 1.7297051551222992E9, 0.0, 2024-10-23 23:09:15.122
48.0, -46244.57463557418, -54682.78285059725, 32.94647132712261, -21118.285789285397, -14361.934585801911, -14111.706806624748, -187500.02235174447, -187500.02235174447, -0.18, 0.726, 0.628, 192.0, 250.0, 96.0, 22.0, 176.0, 19.0, 160.0, 0.0, 0.0, 0.0, 1.7297051551263192E9, 0.0, 2024-10-23 23:09:15.126
49.0, -46652.739841072544, -54245.76154300709, -2016.3061638243396, -22190.63308127321, -14165.954490417778, -13769.322785058355, -187500.02235174447, -187500.02235174447, -0.18, 0.726, 0.628, 192.0, 0.0, 0.0, 0.0, 0.0, 0.0, 0.0, 0.0, 0.0, 0.0, 1.7297051551303337E9, 0.0, 2024-10-23 23:09:15.130
50.0, -45202.93864046796, -52373.020633819186, -29461.58849735123, -21257.715971197602, -12447.775894138324, -12023.42802565432, -187500.02235174447, -187500.02235174447, -0.18, 0.726, 0.628, 192.0, 0.0, 0.0, 0.0, 0.0, 0.0, 0.0, 0.0, 0.0, 0.0, 1.7297051551352959E9, 0.0, 2024-10-23 23:09:15.135
51.0, -43865.41025226239, -51566.34617642715, -46502.29024914387, -19656.213480974853, -11508.667350848598, -11209.668065269956, -187500.02235174447, -187500.02235174447, -0.18, 0.726, 0.628, 192.0, 0.0, 0.0, 0.0, 0.0, 0.0, 0.0, 0.0, 0.0, 0.0, 1.7297051551393273E9, 0.0, 2024-10-23 23:09:15.139
52.0, -44585.62816210129, -53079.49222081807, -26514.980377552558, -19611.398233341963, -12767.04821193793, -12575.739631144957, -187500.02235174447, -187500.02235174447, -0.18, 0.726, 0.628, 192.0, 0.0, 0.0, 0.0, 0.0, 0.0, 0.0, 0.0, 0.0, 0.0, 1.7297051551423528E9, 0.0, 2024-10-23 23:09:15.142
53.0, -46256.59987409114, -54688.683711133446, -133.10463823135356, -21135.04959762688, -14374.786838863713, -14123.441472463785, -187500.02235174447, -187500.02235174447, -0.18, 0.726, 0.628, 192.0, 0.0, 0.0, 0.0, 0.0, 0.0, 0.0, 0.0, 0.0, 0.0, 1.7297051551464746E9, 0.0, 2024-10-23 23:09:15.146
54.0, -46649.96822476009, -54236.999659180605, -2154.6187585137795, -22193.29293886339, -14183.277092370641, -13789.662872512685, -187500.02235174447, -187500.02235174447, -0.18, 0.726, 0.628, 192.0, 0.0, 0.0, 0.0, 0.0, 0.0, 0.0, 0.0, 0.0, 0.0, 1.7297051551494627E9, 0.0, 2024-10-23 23:09:15.149
55.0, -45187.67239900499, -52355.2062934883, -29498.759448380406, -21247.724741426082, -12468.831237415223, -12055.413371969864, -187500.02235174447, -187500.02235174447, -0.18, 0.726, 0.628, 192.0, 0.0, 0.0, 0.0, 0.0, 0.0, 0.0, 0.0, 0.0, 0.0, 1.7297051551533108E9, 0.0, 2024-10-23 23:09:15.153
56.0, -43844.51137119668, -51541.20046391493, -46684.09933854334, -19649.999696016275, -11530.750874370442, -11247.5542721217, -187500.02235174447, -187500.02235174447, -0.18, 0.726, 0.628, 192.0, 0.0, 0.0, 0.0, 0.0, 0.0, 0.0, 0.0, 0.0, 0.0, 1.7297051551573296E9, 0.0, 2024-10-23 23:09:15.157
57.0, -44556.25796988702, -53048.6691652142, -26766.437502674762, -19598.814201213623, -12791.277502927484, -12611.994160651466, -187500.02235174447, -187500.02235174447, -0.18, 0.726, 0.628, 192.0, 0.0, 0.0, 0.0, 0.0, 0.0, 0.0, 0.0, 0.0, 0.0, 1.7297051551613524E9, 0.0, 2024-10-23 23:09:15.161
58.0, -46236.32684187017, -54668.276568445755, -195.82363317294516, -21121.996178864978, -14414.483537016338, -14172.95058643229, -187500.02235174447, -187500.02235174447, -0.18, 0.724, 0.628, 192.0, 250.0, 96.0, 22.0, 160.0, 19.0, 160.0, 0.0, 0.0, 0.0, 1.7297051551653993E9, 0.0, 2024-10-23 23:09:15.165
59.0, -46646.034317735954, -54236.88790045833, -1868.2705602968408, -22189.06845916134, -14226.930049291856, -13844.044666772446, -187500.02235174447, -187500.02235174447, -0.18, 0.724, 0.628, 192.0, 0.0, 0.0, 0.0, 0.0, 0.0, 0.0, 0.0, 0.0, 0.0, 1.729705155170348E9, 0.0, 2024-10-23 23:09:15.170
60.0, -45183.47027104739, -52347.204368973304, -29321.219542171904, -21244.863718135803, -12494.938074939022, -12080.715546693273, -187500.02235174447, -187500.02235174447, -0.18, 0.724, 0.628, 192.0, 0.0, 0.0, 0.0, 0.0, 0.0, 0.0, 0.0, 0.0, 0.0, 1.729705155174369E9, 0.0, 2024-10-23 23:09:15.174
61.0, -43825.15476049838, -51513.193728112434, -47032.11599971247, -19638.242678432784, -11508.443833404046, -11227.482405600835, -187500.02235174447, -187500.02235174447, -0.18, 0.724, 0.628, 192.0, 0.0, 0.0, 0.0, 0.0, 0.0, 0.0, 0.0, 0.0, 0.0, 1.7297051551774113E9, 0.0, 2024-10-23 23:09:15.177
62.0, -44520.20460608061, -53018.65077241073, -27255.247802167873, -19563.364334507507, -12746.059923894398, -12574.756154388924, -187500.02235174447, -187500.02235174447, -0.18, 0.724, 0.628, 192.0, 0.0, 0.0, 0.0, 0.0, 0.0, 0.0, 0.0, 0.0, 0.0, 1.7297051551815226E9, 0.0, 2024-10-23 23:09:15.181
63.0, -46223.89927195302, -54678.67012961747, -275.3287882004724, -21093.94473957357, -14390.097783815598, -14159.472484525739, -187500.02235174447, -187500.02235174447, -0.18, 0.724, 0.628, 192.0, 0.0, 0.0, 0.0, 0.0, 0.0, 0.0, 0.0, 0.0, 0.0, 1.7297051551853797E9, 0.0, 2024-10-23 23:09:15.185
64.0, -46661.8146493214, -54275.71288057719, -1494.8176139375705, -22189.515494050444, -14228.874651059468, -13853.097123276846, -187500.02235174447, -187500.02235174447, -0.18, 0.724, 0.628, 192.0, 0.0, 0.0, 0.0, 0.0, 0.0, 0.0, 0.0, 0.0, 0.0, 1.7297051551893911E9, 0.0, 2024-10-23 23:09:15.189
65.0, -45193.863832219104, -52365.06341279309, -28949.77825281361, -21248.998790860034, -12476.877865419134, -12070.76902041066, -187500.02235174447, -187500.02235174447, -0.18, 0.724, 0.628, 192.0, 0.0, 0.0, 0.0, 0.0, 0.0, 0.0, 0.0, 0.0, 0.0, 1.7297051551933987E9, 0.0, 2024-10-23 23:09:15.193
66.0, -43820.81852207405, -51508.90219317701, -46943.89366434737, -19631.581858585105, -11490.473030861978, -11203.990722178307, -187500.02235174447, -187500.02235174447, -0.18, 0.724, 0.628, 192.0, 0.0, 0.0, 0.0, 0.0, 0.0, 0.0, 0.0, 0.0, 0.0, 1.7297051551974113E9, 0.0, 2024-10-23 23:09:15.197
67.0, -44506.41357975169, -53006.02203679348, -27349.348646324714, -19543.739502875746, -12728.290287052429, -12547.889357553644, -187500.02235174447, -187500.02235174447, -0.18, 0.724, 0.628, 192.0, 0.0, 0.0, 0.0, 0.0, 0.0, 0.0, 0.0, 0.0, 0.0, 1.7297051552024288E9, 0.0, 2024-10-23 23:09:15.202
68.0, -46212.99162065883, -54666.242559700324, -464.8268776925657, -21073.805817819335, -14373.713955129857, -14128.89529811088, -187500.02235174447, -187500.02235174447, -0.186, 0.724, 0.63, 192.0, 250.0, 48.0, 22.0, 160.0, 19.0, 176.0, 0.0, 0.0, 0.0, 1.7297051552064097E9, 0.0, 2024-10-23 23:09:15.206
69.0, -46665.90501855672, -54271.957787508705, -1573.540457909162, -22170.51651126343, -14211.797918295613, -13827.124396219779, -187500.02235174447, -187500.02235174447, -0.186, 0.724, 0.63, 192.0, 0.0, 0.0, 0.0, 0.0, 0.0, 0.0, 0.0, 0.0, 0.0, 1.7297051552093945E9, 0.0, 2024-10-23 23:09:15.209
70.0, -45215.38856212957, -52372.50654369671, -28727.7807268835, -21235.900668609225, -12465.456124002472, -12054.295784747099, -187500.02235174447, -187500.02235174447, -0.186, 0.724, 0.63, 192.0, 0.0, 0.0, 0.0, 0.0, 0.0, 0.0, 0.0, 0.0, 0.0, 1.7297051552134027E9, 0.0, 2024-10-23 23:09:15.213
71.0, -43856.938941113825, -51521.016838671785, -46568.65257843168, -19634.800509786666, -11479.028937700861, -11186.086974869606, -187500.02235174447, -187500.02235174447, -0.186, 0.724, 0.63, 192.0, 0.0, 0.0, 0.0, 0.0, 0.0, 0.0, 0.0, 0.0, 0.0, 1.7297051552174296E9, 0.0, 2024-10-23 23:09:15.217
72.0, -44528.966489907085, -53020.2153945226, -27244.831889251698, -19564.548976963637, -12711.191202544118, -12535.126511469665, -187500.02235174447, -187500.02235174447, -0.186, 0.724, 0.63, 192.0, 0.0, 0.0, 0.0, 0.0, 0.0, 0.0, 0.0, 0.0, 0.0, 1.729705155221433E9, 0.0, 2024-10-23 23:09:15.221
73.0, -46208.87889967905, -54669.84119055763, -715.7475609478428, -21089.921425571614, -14340.856890780557, -14115.21603050423, -187500.02235174447, -187500.02235174447, -0.186, 0.724, 0.63, 192.0, 0.0, 0.0, 0.0, 0.0, 0.0, 0.0, 0.0, 0.0, 0.0, 1.7297051552264657E9, 0.0, 2024-10-23 23:09:15.226
74.0, -46673.95164656063, -54296.38824419836, -1747.660547216004, -22190.72248825103, -14202.209019924287, -13836.35566667982, -187500.02235174447, -187500.02235174447, -0.186, 0.724, 0.63, 192.0, 0.0, 0.0, 0.0, 0.0, 0.0, 0.0, 0.0, 0.0, 0.0, 1.729705155230424E9, 0.0, 2024-10-23 23:09:15.230
75.0, -45244.490533410375, -52408.96223890332, -28637.077347883864, -21268.958898658624, -12484.097478878199, -12083.889494405925, -187500.02235174447, -187500.02235174447, -0.186, 0.724, 0.63, 192.0, 0.0, 0.0, 0.0, 0.0, 0.0, 0.0, 0.0, 0.0, 0.0, 1.729705155233425E9, 0.0, 2024-10-23 23:09:15.233
76.0, -43880.274162325164, -51543.30152789373, -46502.513766588425, -19674.497207939294, -11499.927818766573, -11217.26765838476, -187500.02235174447, -187500.02235174447, -0.186, 0.724, 0.63, 192.0, 0.0, 0.0, 0.0, 0.0, 0.0, 0.0, 0.0, 0.0, 0.0, 1.72970515523745E9, 0.0, 2024-10-23 23:09:15.237
77.0, -44536.67784174417, -53020.72948464507, -27452.323133030313, -19587.526570263693, -12730.748978942513, -12559.847540837234, -187500.02235174447, -187500.02235174447, -0.186, 0.724, 0.63, 192.0, 0.0, 0.0, 0.0, 0.0, 0.0, 0.0, 0.0, 0.0, 0.0, 1.7297051552414365E9, 0.0, 2024-10-23 23:09:15.241
78.0, -46226.29090860974, -54675.78675458274, -860.1398301291264, -21100.09146929878, -14382.744059889801, -14154.152769345375, -187500.02235174447, -187500.02235174447, -0.188, 0.724, 0.636, 192.0, 250.0, 32.0, 22.0, 160.0, 19.0, 224.0, 0.0, 0.0, 0.0, 1.7297051552454956E9, 0.0, 2024-10-23 23:09:15.245
79.0, -46700.46081548462, -54309.46401470471, -1441.575758645029, -22195.6398720312, -14265.44210498835, -13894.581960985895, -187500.02235174447, -187500.02235174447, -0.188, 0.724, 0.636, 192.0, 0.0, 0.0, 0.0, 0.0, 0.0, 0.0, 0.0, 0.0, 0.0, 1.7297051552494268E9, 0.0, 2024-10-23 23:09:15.249
80.0, -45240.578978130696, -52392.84663115104, -28301.37649790961, -21266.813131190913, -12516.976894971955, -12117.573573300073, -187500.02235174447, -187500.02235174447, -0.188, 0.724, 0.636, 192.0, 0.0, 0.0, 0.0, 0.0, 0.0, 0.0, 0.0, 0.0, 0.0, 1.7297051552536497E9, 0.0, 2024-10-23 23:09:15.253
81.0, -43844.46666770776, -51488.33858827813, -46800.395464944304, -19657.442826919894, -11493.132888452159, -11211.009169937273, -187500.02235174447, -187500.02235174447, -0.188, 0.724, 0.636, 192.0, 0.0, 0.0, 0.0, 0.0, 0.0, 0.0, 0.0, 0.0, 0.0, 1.7297051552585342E9, 0.0, 2024-10-23 23:09:15.258
82.0, -44477.445718937604, -52957.943434470115, -28067.241974740267, -19533.56945914858, -12697.221362259552, -12529.404464889105, -187500.02235174447, -187500.02235174447, -0.188, 0.724, 0.636, 192.0, 0.0, 0.0, 0.0, 0.0, 0.0, 0.0, 0.0, 0.0, 0.0, 1.7297051552624907E9, 0.0, 2024-10-23 23:09:15.262
83.0, -46200.496995508314, -54663.24742594331, -1063.1830767611357, -21059.634811834672, -14385.761545391268, -14159.986574648212, -187500.02235174447, -187500.02235174447, -0.188, 0.724, 0.636, 192.0, 0.0, 0.0, 0.0, 0.0, 0.0, 0.0, 0.0, 0.0, 0.0, 1.729705155265529E9, 0.0, 2024-10-23 23:09:15.265
84.0, -46719.07981861589, -54341.60582323144, -1113.496853530032, -22202.25598838997, -14311.799622988658, -13934.65863879426, -187500.02235174447, -187500.02235174447, -0.188, 0.724, 0.636, 192.0, 0.0, 0.0, 0.0, 0.0, 0.0, 0.0, 0.0, 0.0, 0.0, 1.7297051552694786E9, 0.0, 2024-10-23 23:09:15.269
85.0, -45252.3806992031, -52409.25281158124, -27993.995308160225, -21284.046326165953, -12539.015715004887, -12133.219794418788, -187500.02235174447, -187500.02235174447, -0.188, 0.724, 0.636, 192.0, 0.0, 0.0, 0.0, 0.0, 0.0, 0.0, 0.0, 0.0, 0.0, 1.7297051552735653E9, 0.0, 2024-10-23 23:09:15.273
86.0, -43830.67564137884, -51470.971282836355, -46796.774482342546, -19646.64693434798, -11482.404051113612, -11189.842067938098, -187500.02235174447, -187500.02235174447, -0.188, 0.724, 0.636, 192.0, 0.0, 0.0, 0.0, 0.0, 0.0, 0.0, 0.0, 0.0, 0.0, 1.7297051552776322E9, 0.0, 2024-10-23 23:09:15.277
87.0, -44459.78784081791, -52943.3477453408, -28197.77616235926, -19510.904790270903, -12677.998862027987, -12505.465746577473, -187500.02235174447, -187500.02235174447, -0.188, 0.724, 0.636, 192.0, 0.0, 0.0, 0.0, 0.0, 0.0, 0.0, 0.0, 0.0, 0.0, 1.7297051552815971E9, 0.0, 2024-10-23 23:09:15.281
88.0, -46189.589344214124, -54659.13470496354, -1222.975697872126, -21048.07895995128, -14366.874321326533, -14142.12753082842, -187500.02235174447, -187500.02235174447, -0.19, 0.724, 0.642, 192.0, 250.0, 16.0, 22.0, 160.0, 20.0, 16.0, 0.0, 0.0, 0.0, 1.7297051552866032E9, 0.0, 2024-10-23 23:09:15.286
89.0, -46698.58326895038, -54332.12868358239, -1170.359691424333, -22187.14620913818, -14286.273930820696, -13916.620781018828, -187500.02235174447, -187500.02235174447, -0.19, 0.724, 0.642, 192.0, 0.0, 0.0, 0.0, 0.0, 0.0, 0.0, 0.0, 0.0, 0.0, 1.7297051552897253E9, 0.0, 2024-10-23 23:09:15.289
90.0, -45236.5780158732, -52402.10025335554, -27865.4280740533, -21258.1183025978, -12531.371418401173, -12117.238297133244, -187500.02235174447, -187500.02235174447, -0.19, 0.724, 0.642, 192.0, 0.0, 0.0, 0.0, 0.0, 0.0, 0.0, 0.0, 0.0, 0.0, 1.7297051552926557E9, 0.0, 2024-10-23 23:09:15.292
91.0, -43836.62120540395, -51478.21324803987, -46544.35623220876, -19643.74120756879, -11492.149411696126, -11185.796402191687, -187500.02235174447, -187500.02235174447, -0.19, 0.724, 0.642, 192.0, 0.0, 0.0, 0.0, 0.0, 0.0, 0.0, 0.0, 0.0, 0.0, 1.7297051552986631E9, 0.0, 2024-10-23 23:09:15.298
92.0, -44460.57015187385, -52941.090219150814, -28071.086474786578, -19514.81634555058, -12676.948330038587, -12494.446336561006, -187500.02235174447, -187500.02235174447, -0.19, 0.724, 0.642, 192.0, 0.0, 0.0, 0.0, 0.0, 0.0, 0.0, 0.0, 0.0, 0.0, 1.7297051553016891E9, 0.0, 2024-10-23 23:09:15.301
93.0, -46179.598114442604, -54648.91995774746, -1339.5847486954628, -21047.475462850984, -14345.595460605082, -14120.848670106969, -187500.02235174447, -187500.02235174447, -0.19, 0.724, 0.642, 192.0, 0.0, 0.0, 0.0, 0.0, 0.0, 0.0, 0.0, 0.0, 0.0, 1.7297051553055677E9, 0.0, 2024-10-23 23:09:15.305
94.0, -46706.13815857627, -54350.79239020257, -1221.321668782433, -22198.389136599202, -14281.848285418546, -13919.548859542474, -187500.02235174447, -187500.02235174447, -0.19, 0.724, 0.642, 192.0, 0.0, 0.0, 0.0, 0.0, 0.0, 0.0, 0.0, 0.0, 0.0, 1.7297051553097231E9, 0.0, 2024-10-23 23:09:15.309
95.0, -45280.67800768352, -52447.65310855545, -27726.26611307456, -21304.498172342563, -12559.95929955951, -12158.879597053481, -187500.02235174447, -187500.02235174447, -0.19, 0.724, 0.642, 192.0, 0.0, 0.0, 0.0, 0.0, 0.0, 0.0, 0.0, 0.0, 0.0, 1.7297051553146896E9, 0.0, 2024-10-23 23:09:15.314
96.0, -43892.47821479776, -51511.49499553382, -46474.685844741565, -19699.24058905132, -11507.192135714547, -11219.480481085835, -187500.02235174447, -187500.02235174447, -0.19, 0.724, 0.642, 192.0, 0.0, 0.0, 0.0, 0.0, 0.0, 0.0, 0.0, 0.0, 0.0, 1.7297051553175685E9, 0.0, 2024-10-23 23:09:15.317
97.0, -44472.10365201279, -52957.250530392, -28243.932514659467, -19554.222471025285, -12665.951271766577, -12511.56777281377, -187500.02235174447, -187500.02235174447, -0.19, 0.724, 0.642, 192.0, 0.0, 0.0, 0.0, 0.0, 0.0, 0.0, 0.0, 0.0, 0.0, 1.7297051553205612E9, 0.0, 2024-10-23 23:09:15.320
98.0, -46160.33091072213, -54661.5039898758, -1476.1986108062997, -21075.16927423111, -14339.851062280068, -14143.55804247356, -187500.02235174447, -187500.02235174447, -0.184, 0.726, 0.638, 192.0, 250.0, 64.0, 22.0, 176.0, 19.0, 240.0, 0.0, 0.0, 0.0, 1.7297051553256383E9, 0.0, 2024-10-23 23:09:15.325
99.0, -46713.73775169108, -54372.987672446696, -995.5690497838319, -22226.597038101798, -14293.851172191045, -13950.260156424065, -187500.02235174447, -187500.02235174447, -0.184, 0.726, 0.638, 192.0, 0.0, 0.0, 0.0, 0.0, 0.0, 0.0, 0.0, 0.0, 0.0, 1.7297051553297417E9, 0.0, 2024-10-23 23:09:15.329
100.0, -45315.949060433995, -52458.04666972717, -27450.780862662898, -21334.471861657126, -12573.683270655069, -12165.920396556903, -187500.02235174447, -187500.02235174447, -0.184, 0.726, 0.638, 192.0, 0.0, 0.0, 0.0, 0.0, 0.0, 0.0, 0.0, 0.0, 0.0, 1.7297051553336065E9, 0.0, 2024-10-23 23:09:15.333
101.0, -43909.510244072706, -51490.32789353465, -46693.97880959258, -19719.8041939502, -11513.651789862131, -11206.181193134928, -187500.02235174447, -187500.02235174447, -0.184, 0.726, 0.638, 192.0, 0.0, 0.0, 0.0, 0.0, 0.0, 0.0, 0.0, 0.0, 0.0, 1.729705155337732E9, 0.0, 2024-10-23 23:09:15.337
102.0, -44453.8422767928, -52921.19716658559, -28787.057553178973, -19537.52571791717, -12662.084419975808, -12494.736909238925, -187500.02235174447, -187500.02235174447, -0.184, 0.726, 0.638, 192.0, 0.0, 0.0, 0.0, 0.0, 0.0, 0.0, 0.0, 0.0, 0.0, 1.729705155342656E9, 0.0, 2024-10-23 23:09:15.342
103.0, -46148.93152104992, -54650.46222811488, -1728.661564428993, -21046.313172139307, -14342.130940214509, -14138.573603460027, -187500.02235174447, -187500.02235174447, -0.184, 0.726, 0.638, 192.0, 0.0, 0.0, 0.0, 0.0, 0.0, 0.0, 0.0, 0.0, 0.0, 1.7297051553456907E9, 0.0, 2024-10-23 23:09:15.345
104.0, -46733.80961821194, -54392.970131989736, -751.2421311428703, -22220.025625231938, -14327.043512707176, -13971.784886334526, -187500.02235174447, -187500.02235174447, -0.184, 0.726, 0.638, 192.0, 0.0, 0.0, 0.0, 0.0, 0.0, 0.0, 0.0, 0.0, 0.0, 1.7297051553487337E9, 0.0, 2024-10-23 23:09:15.348
105.0, -45337.764363022376, -52463.94753026337, -27136.828260043654, -21330.493251144082, -12592.324625530795, -12181.052527553145, -187500.02235174447, -187500.02235174447, -0.184, 0.726, 0.638, 192.0, 0.0, 0.0, 0.0, 0.0, 0.0, 0.0, 0.0, 0.0, 0.0, 1.729705155353628E9, 0.0, 2024-10-23 23:09:15.353
106.0, -43912.39361910744, -51471.68653865893, -46625.02367794796, -19699.28529254023, -11499.570190855287, -11185.282312069216, -187500.02235174447, -187500.02235174447, -0.184, 0.726, 0.638, 192.0, 0.0, 0.0, 0.0, 0.0, 0.0, 0.0, 0.0, 0.0, 0.0, 1.7297051553576918E9, 0.0, 2024-10-23 23:09:15.357
107.0, -44438.77720102992, -52890.195297026075, -28920.408060599337, -19497.694909297814, -12630.680219016102, -12452.402705240573, -187500.02235174447, -187500.02235174447, -0.184, 0.726, 0.638, 192.0, 0.0, 0.0, 0.0, 0.0, 0.0, 0.0, 0.0, 0.0, 0.0, 1.7297051553618884E9, 0.0, 2024-10-23 23:09:15.361
108.0, -46124.52341610473, -54613.38068406352, -1921.0877324447315, -21001.81084892879, -14309.966779943321, -14091.83610580398, -187500.02235174447, -187500.02235174447, -0.184, 0.726, 0.638, 192.0, 0.0, 0.0, 0.0, 0.0, 0.0, 0.0, 0.0, 0.0, 0.0, 1.7297051553658583E9, 0.0, 2024-10-23 23:09:15.365
109.0, -46713.46953075761, -54369.56785554503, -818.5655854422553, -22174.785694454396, -14302.9259804399, -13932.80344400447, -187500.02235174447, -187500.02235174447, -0.188, 0.728, 0.642, 192.0, 250.0, 32.0, 22.0, 192.0, 20.0, 16.0, 0.0, 0.0, 0.0, 1.7297051553697746E9, 0.0, 2024-10-23 23:09:15.369
110.0, -45336.93734847753, -52468.6861000879, -27049.34353224558, -21309.236742167086, -12594.06806159831, -12160.555977887629, -187500.02235174447, -187500.02235174447, -0.188, 0.728, 0.642, 192.0, 0.0, 0.0, 0.0, 0.0, 0.0, 0.0, 0.0, 0.0, 0.0, 1.7297051553747454E9, 0.0, 2024-10-23 23:09:15.374
111.0, -43924.195340179846, -51489.65734120099, -46493.86364148422, -19701.207542563385, -11513.495327650944, -11174.35230903057, -187500.02235174447, -187500.02235174447, -0.188, 0.728, 0.642, 192.0, 0.0, 0.0, 0.0, 0.0, 0.0, 0.0, 0.0, 0.0, 0.0, 1.729705155378832E9, 0.0, 2024-10-23 23:09:15.378
112.0, -44431.378773615215, -52888.384805725196, -28899.6209382559, -19493.358670873484, -12618.677332243602, -12421.087911258688, -187500.02235174447, -187500.02235174447, -0.188, 0.728, 0.642, 192.0, 0.0, 0.0, 0.0, 0.0, 0.0, 0.0, 0.0, 0.0, 0.0, 1.7297051553829103E9, 0.0, 2024-10-23 23:09:15.382
113.0, -46104.943287961876, -54600.036692623704, -2044.1787891601075, -20992.1548953241, -14294.857000691534, -14059.895462977347, -187500.02235174447, -187500.02235174447, -0.188, 0.728, 0.642, 192.0, 0.0, 0.0, 0.0, 0.0, 0.0, 0.0, 0.0, 0.0, 0.0, 1.7297051553859184E9, 0.0, 2024-10-23 23:09:15.385
114.0, -46704.417074253215, -54375.78164050361, -795.766806097842, -22173.37753455371, -14300.489640294272, -13921.784033988004, -187500.02235174447, -187500.02235174447, -0.188, 0.728, 0.642, 192.0, 0.0, 0.0, 0.0, 0.0, 0.0, 0.0, 0.0, 0.0, 0.0, 1.7297051553906515E9, 0.0, 2024-10-23 23:09:15.390
115.0, -45348.33673814974, -52494.34590272259, -26846.724968758223, -21331.543783133482, -12609.557820505837, -12176.895103084458, -187500.02235174447, -187500.02235174447, -0.188, 0.728, 0.642, 192.0, 0.0, 0.0, 0.0, 0.0, 0.0, 0.0, 0.0, 0.0, 0.0, 1.729705155395869E9, 0.0, 2024-10-23 23:09:15.395
116.0, -43934.611253096016, -51503.73894020783, -46423.656812150104, -19737.551479047714, -11517.56334514181, -11190.043233638196, -187500.02235174447, -187500.02235174447, -0.188, 0.728, 0.642, 192.0, 0.0, 0.0, 0.0, 0.0, 0.0, 0.0, 0.0, 0.0, 0.0, 1.7297051553997855E9, 0.0, 2024-10-23 23:09:15.399
117.0, -44420.471122321025, -52885.56848592383, -29124.121859565006, -19517.0068165072, -12604.707491959036, -12427.45815842845, -187500.02235174447, -187500.02235174447, -0.188, 0.728, 0.642, 192.0, 0.0, 0.0, 0.0, 0.0, 0.0, 0.0, 0.0, 0.0, 0.0, 1.729705155402704E9, 0.0, 2024-10-23 23:09:15.402
118.0, -46093.901526200956, -54609.066797383646, -2157.7927062264334, -21001.0061861284, -14278.696689450348, -14072.45714336123, -187500.02235174447, -187500.02235174447, -0.188, 0.728, 0.642, 192.0, 0.0, 0.0, 0.0, 0.0, 0.0, 0.0, 0.0, 0.0, 0.0, 1.7297051554057148E9, 0.0, 2024-10-23 23:09:15.405
119.0, -46712.53075749049, -54402.87195478344, -482.2835901121605, -22196.10925866476, -14313.833631734089, -13963.581796119428, -187500.02235174447, -187500.02235174447, -0.176, 0.726, 0.636, 192.0, 250.0, 128.0, 22.0, 176.0, 19.0, 224.0, 0.0, 0.0, 0.0, 1.729705155409953E9, 0.0, 2024-10-23 23:09:15.409
120.0, -45365.2570087024, -52509.880365119025, -26486.660717327683, -21369.586452196414, -12630.50140506046, -12222.738530962293, -187500.02235174447, -187500.02235174447, -0.176, 0.726, 0.636, 192.0, 0.0, 0.0, 0.0, 0.0, 0.0, 0.0, 0.0, 0.0, 0.0, 1.7297051554137669E9, 0.0, 2024-10-23 23:09:15.413
121.0, -43951.15154399294, -51493.30067554721, -46520.551624363856, -19773.560139365214, -11531.734351126475, -11220.329847375137, -187500.02235174447, -187500.02235174447, -0.176, 0.726, 0.636, 192.0, 0.0, 0.0, 0.0, 0.0, 0.0, 0.0, 0.0, 0.0, 0.0, 1.7297051554177773E9, 0.0, 2024-10-23 23:09:15.417
122.0, -44425.857892734755, -52856.06418324282, -29548.156803626636, -19518.19145896333, -12608.7755094499, -12441.9867923244, -187500.02235174447, -187500.02235174447, -0.176, 0.726, 0.636, 192.0, 0.0, 0.0, 0.0, 0.0, 0.0, 0.0, 0.0, 0.0, 0.0, 1.729705155421744E9, 0.0, 2024-10-23 23:09:15.421
123.0, -46100.16001464844, -54577.2826167682, -2412.2896685945593, -20986.298738276808, -14285.91630290941, -14083.476553377695, -187500.02235174447, -187500.02235174447, -0.176, 0.726, 0.636, 192.0, 0.0, 0.0, 0.0, 0.0, 0.0, 0.0, 0.0, 0.0, 0.0, 1.7297051554258988E9, 0.0, 2024-10-23 23:09:15.425
124.0, -46733.429638556205, -54394.55710584606, -308.856404883433, -22196.086906920304, -14344.947260015877, -13989.44276445422, -187500.02235174447, -187500.02235174447, -0.176, 0.726, 0.636, 192.0, 0.0, 0.0, 0.0, 0.0, 0.0, 0.0, 0.0, 0.0, 0.0, 1.729705155429875E9, 0.0, 2024-10-23 23:09:15.429
125.0, -45392.16850902659, -52525.50423449329, -26206.0345656913, -21400.923597922756, -12680.636367873713, -12261.630566314527, -187500.02235174447, -187500.02235174447, -0.176, 0.726, 0.636, 192.0, 0.0, 0.0, 0.0, 0.0, 0.0, 0.0, 0.0, 0.0, 0.0, 1.7297051554327996E9, 0.0, 2024-10-23 23:09:15.432
126.0, -43954.59371263906, -51492.47366100236, -46533.426229170116, -19803.28795949077, -11562.602110219254, -11235.84195802712, -187500.02235174447, -187500.02235174447, -0.176, 0.726, 0.636, 192.0, 0.0, 0.0, 0.0, 0.0, 0.0, 0.0, 0.0, 0.0, 0.0, 1.7297051554367568E9, 0.0, 2024-10-23 23:09:15.436
127.0, -44398.76757845492, -52818.98263919147, -29817.450620824176, -19496.86789475297, -12601.108861101731, -12410.761405320336, -187500.02235174447, -187500.02235174447, -0.176, 0.726, 0.636, 192.0, 0.0, 0.0, 0.0, 0.0, 0.0, 0.0, 0.0, 0.0, 0.0, 1.7297051554417813E9, 0.0, 2024-10-23 23:09:15.441
128.0, -46073.53908700217, -54541.20690121733, -2686.6573317834536, -20942.33285693322, -14271.588834713559, -14042.036419157555, -187500.02235174447, -187500.02235174447, -0.176, 0.726, 0.636, 192.0, 0.0, 0.0, 0.0, 0.0, 0.0, 0.0, 0.0, 0.0, 0.0, 1.7297051554458485E9, 0.0, 2024-10-23 23:09:15.445
129.0, -46724.891272174274, -54388.29861739858, -325.6425649693686, -22163.833339671295, -14343.628507093013, -13966.867502554358, -187500.02235174447, -187500.02235174447, -0.182, 0.726, 0.636, 192.0, 250.0, 80.0, 22.0, 176.0, 19.0, 224.0, 0.0, 0.0, 0.0, 1.729705155449806E9, 0.0, 2024-10-23 23:09:15.449
130.0, -45400.952744597525, -52542.87153993506, -26074.67336352746, -21399.537789766528, -12695.813202358868, -12255.506188333773, -187500.02235174447, -187500.02235174447, -0.182, 0.726, 0.636, 192.0, 0.0, 0.0, 0.0, 0.0, 0.0, 0.0, 0.0, 0.0, 0.0, 1.7297051554538429E9, 0.0, 2024-10-23 23:09:15.453
131.0, -43972.564515181126, -51518.5581467817, -46466.39334754865, -19826.578477213203, -11581.310520328347, -11234.500853359801, -187500.02235174447, -187500.02235174447, -0.182, 0.726, 0.636, 192.0, 0.0, 0.0, 0.0, 0.0, 0.0, 0.0, 0.0, 0.0, 0.0, 1.7297051554568453E9, 0.0, 2024-10-23 23:09:15.456
132.0, -44392.933773152086, -52822.7153805155, -29906.2093980562, -19504.601598334506, -12593.218695309008, -12387.381480620084, -187500.02235174447, -187500.02235174447, -0.182, 0.726, 0.636, 192.0, 0.0, 0.0, 0.0, 0.0, 0.0, 0.0, 0.0, 0.0, 0.0, 1.7297051554607947E9, 0.0, 2024-10-23 23:09:15.460
133.0, -46050.31562451311, -54530.478063878785, -2841.2643481808127, -20929.10062421568, -14242.665677388391, -14000.90920935979, -187500.02235174447, -187500.02235174447, -0.182, 0.726, 0.636, 192.0, 0.0, 0.0, 0.0, 0.0, 0.0, 0.0, 0.0, 0.0, 0.0, 1.729705155464804E9, 0.0, 2024-10-23 23:09:15.464
134.0, -46700.25964978453, -54385.079966197016, -312.29857352955025, -22148.634153441686, -14325.747111528768, -13934.792749260992, -187500.02235174447, -187500.02235174447, -0.182, 0.726, 0.636, 192.0, 0.0, 0.0, 0.0, 0.0, 0.0, 0.0, 0.0, 0.0, 0.0, 1.7297051554698236E9, 0.0, 2024-10-23 23:09:15.469
135.0, -45391.07327354828, -52557.75780174229, -25902.85550389952, -21402.063536889975, -12691.23109474553, -12235.836653213102, -187500.02235174447, -187500.02235174447, -0.182, 0.726, 0.636, 192.0, 0.0, 0.0, 0.0, 0.0, 0.0, 0.0, 0.0, 0.0, 0.0, 1.7297051554738307E9, 0.0, 2024-10-23 23:09:15.473
136.0, -43974.106785548545, -51533.7126295224, -46354.96990143894, -19839.386026786095, -11576.840171437285, -11214.250172883294, -187500.02235174447, -187500.02235174447, -0.182, 0.726, 0.636, 192.0, 0.0, 0.0, 0.0, 0.0, 0.0, 0.0, 0.0, 0.0, 0.0, 1.7297051554778616E9, 0.0, 2024-10-23 23:09:15.477
137.0, -44370.60438044124, -52814.22171762249, -29985.021649005612, -19496.063231952576, -12560.540444915348, -12338.319401540686, -187500.02235174447, -187500.02235174447, -0.182, 0.726, 0.636, 192.0, 0.0, 0.0, 0.0, 0.0, 0.0, 0.0, 0.0, 0.0, 0.0, 1.7297051554819765E9, 0.0, 2024-10-23 23:09:15.481
138.0, -46016.229214218765, -54515.234174160265, -2912.566412993242, -20906.19008614899, -14205.651188570404, -13946.125083699833, -187500.02235174447, -187500.02235174447, -0.182, 0.726, 0.636, 192.0, 0.0, 0.0, 0.0, 0.0, 0.0, 0.0, 0.0, 0.0, 0.0, 1.7297051554860947E9, 0.0, 2024-10-23 23:09:15.486
139.0, -46678.93608557416, -54393.81949827904, -93.47499531209414, -22134.507850945934, -14296.846305948056, -13896.168934842222, -187500.02235174447, -187500.02235174447, -0.17400000000000002, 0.728, 0.636, 192.0, 250.0, 144.0, 22.0, 192.0, 19.0, 224.0, 0.0, 0.0, 0.0, 1.7297051554898663E9, 0.0, 2024-10-23 23:09:15.489
140.0, -45389.776872369875, -52577.02500546277, -25603.49859040959, -21407.964397426178, -12680.390498684705, -12214.378978536008, -187500.02235174447, -187500.02235174447, -0.17400000000000002, 0.728, 0.636, 192.0, 0.0, 0.0, 0.0, 0.0, 0.0, 0.0, 0.0, 0.0, 0.0, 1.729705155492888E9, 0.0, 2024-10-23 23:09:15.492
141.0, -43974.50911694874, -51543.65915580501, -46327.320793547726, -19849.936050169, -11569.397040533668, -11196.011149407763, -187500.02235174447, -187500.02235174447, -0.17400000000000002, 0.728, 0.636, 192.0, 0.0, 0.0, 0.0, 0.0, 0.0, 0.0, 0.0, 0.0, 0.0, 1.7297051554989872E9, 0.0, 2024-10-23 23:09:15.498
142.0, -44352.07478428779, -52814.95932518951, -30217.70330878536, -19495.86206625248, -12541.76497957289, -12337.023000362278, -187500.02235174447, -187500.02235174447, -0.17400000000000002, 0.728, 0.636, 192.0, 0.0, 0.0, 0.0, 0.0, 0.0, 0.0, 0.0, 0.0, 0.0, 1.7297051555049117E9, 0.0, 2024-10-23 23:09:15.504
143.0, -45995.91147850889, -54520.330371896074, -3109.7758543224163, -20912.202705407468, -14194.408261109384, -13976.724621859148, -187500.02235174447, -187500.02235174447, -0.17400000000000002, 0.728, 0.636, 192.0, 0.0, 0.0, 0.0, 0.0, 0.0, 0.0, 0.0, 0.0, 0.0, 1.7297051555078988E9, 0.0, 2024-10-23 23:09:15.507
144.0, -46685.127518788286, -54418.47347241324, -71.34676830134015, -22159.742970435975, -14326.887050495989, -13973.10363925739, -187500.02235174447, -187500.02235174447, -0.17400000000000002, 0.728, 0.636, 192.0, 0.0, 0.0, 0.0, 0.0, 0.0, 0.0, 0.0, 0.0, 0.0, 1.7297051555109632E9, 0.0, 2024-10-23 23:09:15.510
145.0, -45405.22192778849, -52601.5672208747, -25501.775801393487, -21448.175185701275, -12724.579897472848, -12304.568267413171, -187500.02235174447, -187500.02235174447, -0.17400000000000002, 0.728, 0.636, 192.0, 0.0, 0.0, 0.0, 0.0, 0.0, 0.0, 0.0, 0.0, 0.0, 1.7297051555149395E9, 0.0, 2024-10-23 23:09:15.514
146.0, -43997.41965501543, -51560.802943802235, -46265.20529570643, -19892.627882078636, -11614.97224747804, -11284.188781283949, -187500.02235174447, -187500.02235174447, -0.17400000000000002, 0.728, 0.636, 192.0, 0.0, 0.0, 0.0, 0.0, 0.0, 0.0, 0.0, 0.0, 0.0, 1.7297051555180287E9, 0.0, 2024-10-23 23:09:15.518
147.0, -44376.48288923298, -52818.602659535725, -30285.630260185037, -19526.752177089715, -12580.925235858589, -12406.827498296201, -187500.02235174447, -187500.02235174447, -0.17400000000000002, 0.728, 0.636, 192.0, 0.0, 0.0, 0.0, 0.0, 0.0, 0.0, 0.0, 0.0, 0.0, 1.7297051555209396E9, 0.0, 2024-10-23 23:09:15.520
148.0, -45998.50428086571, -54498.962104196806, -3273.5023824575405, -20914.90726648656, -14203.885400758434, -14002.29501751602, -187500.02235174447, -187500.02235174447, -0.17400000000000002, 0.728, 0.636, 192.0, 0.0, 0.0, 0.0, 0.0, 0.0, 0.0, 0.0, 0.0, 0.0, 1.7297051555260231E9, 0.0, 2024-10-23 23:09:15.526
149.0, -46679.450175696635, -54400.43561463781, -162.13955427879742, -22144.454377228543, -14330.910364497944, -13980.90439807229, -187500.02235174447, -187500.02235174447, -0.186, 0.716, 0.632, 192.0, 250.0, 48.0, 22.0, 96.0, 19.0, 192.0, 0.0, 0.0, 0.0, 1.72970515552989E9, 0.0, 2024-10-23 23:09:15.529
150.0, -45414.162625570614, -52603.444767408946, -25440.93435298614, -21434.182993672253, -12742.081313381352, -12313.643075662027, -187500.02235174447, -187500.02235174447, -0.186, 0.716, 0.632, 192.0, 0.0, 0.0, 0.0, 0.0, 0.0, 0.0, 0.0, 0.0, 0.0, 1.7297051555339885E9, 0.0, 2024-10-23 23:09:15.533
151.0, -44010.51777726624, -51558.94774901244, -46229.375449344574, -19886.525855842337, -11634.239451198513, -11282.37828998307, -187500.02235174447, -187500.02235174447, -0.186, 0.716, 0.632, 192.0, 0.0, 0.0, 0.0, 0.0, 0.0, 0.0, 0.0, 0.0, 0.0, 1.7297051555379949E9, 0.0, 2024-10-23 23:09:15.537
152.0, -44366.581066439285, -52791.04295862233, -30394.550310915747, -19505.272150668163, -12571.984538076465, -12374.775096747291, -187500.02235174447, -187500.02235174447, -0.186, 0.716, 0.632, 192.0, 0.0, 0.0, 0.0, 0.0, 0.0, 0.0, 0.0, 0.0, 0.0, 1.7297051555420067E9, 0.0, 2024-10-23 23:09:15.542
153.0, -45992.13403369594, -54478.532609764654, -3415.547718471017, -20891.884969697592, -14191.122554674454, -13972.0978107569, -187500.02235174447, -187500.02235174447, -0.186, 0.716, 0.632, 192.0, 0.0, 0.0, 0.0, 0.0, 0.0, 0.0, 0.0, 0.0, 0.0, 1.7297051555469728E9, 0.0, 2024-10-23 23:09:15.546
154.0, -46681.99827456454, -54397.641646580894, -99.66642852621419, -22132.29502824486, -14322.729626027301, -13960.251386195587, -187500.02235174447, -187500.02235174447, -0.186, 0.716, 0.632, 192.0, 0.0, 0.0, 0.0, 0.0, 0.0, 0.0, 0.0, 0.0, 0.0, 1.729705155551036E9, 0.0, 2024-10-23 23:09:15.551
155.0, -45425.02557337589, -52603.578877875676, -25260.15344383162, -21434.25004890562, -12742.796569203922, -12299.025034788256, -187500.02235174447, -187500.02235174447, -0.186, 0.716, 0.632, 192.0, 0.0, 0.0, 0.0, 0.0, 0.0, 0.0, 0.0, 0.0, 0.0, 1.7297051555539217E9, 0.0, 2024-10-23 23:09:15.553
156.0, -44020.95604192687, -51552.57750184268, -46216.88082419406, -19893.298434412292, -11620.20255568058, -11253.522187891269, -187500.02235174447, -187500.02235174447, -0.186, 0.716, 0.632, 192.0, 0.0, 0.0, 0.0, 0.0, 0.0, 0.0, 0.0, 0.0, 0.0, 1.7297051555590885E9, 0.0, 2024-10-23 23:09:15.559
157.0, -44361.08253730328, -52776.5590282153, -30639.346616190272, -19496.890246497424, -12542.681401095559, -12332.172671815477, -187500.02235174447, -187500.02235174447, -0.186, 0.716, 0.632, 192.0, 0.0, 0.0, 0.0, 0.0, 0.0, 0.0, 0.0, 0.0, 0.0, 1.7297051555630648E9, 0.0, 2024-10-23 23:09:15.563
158.0, -45987.52957433815, -54479.516086520685, -3557.6824614623147, -20878.853902680148, -14173.487028299216, -13942.95113598718, -187500.02235174447, -187500.02235174447, -0.186, 0.716, 0.632, 192.0, 0.0, 0.0, 0.0, 0.0, 0.0, 0.0, 0.0, 0.0, 0.0, 1.7297051555679328E9, 0.0, 2024-10-23 23:09:15.567
159.0, -46686.96036183362, -54417.020609023646, 188.15698482477487, -22130.551592177344, -14328.831652263601, -13957.546825116495, -187500.02235174447, -187500.02235174447, -0.18, 0.714, 0.636, 192.0, 250.0, 96.0, 22.0, 80.0, 19.0, 224.0, 0.0, 0.0, 0.0, 1.7297051555720513E9, 0.0, 2024-10-23 23:09:15.572
160.0, -45458.39672784766, -52616.989924548856, -24851.72001739979, -21451.997334003132, -12748.13863612874, -12290.933703295435, -187500.02235174447, -187500.02235174447, -0.18, 0.714, 0.636, 192.0, 0.0, 0.0, 0.0, 0.0, 0.0, 0.0, 0.0, 0.0, 0.0, 1.7297051555751028E9, 0.0, 2024-10-23 23:09:15.575
161.0, -44050.19212367441, -51538.45119934693, -46151.59137864011, -19903.93786477302, -11603.39404385019, -11215.546574061702, -187500.02235174447, -187500.02235174447, -0.18, 0.714, 0.636, 192.0, 0.0, 0.0, 0.0, 0.0, 0.0, 0.0, 0.0, 0.0, 0.0, 1.729705155578992E9, 0.0, 2024-10-23 23:09:15.578
162.0, -44328.69485958754, -52747.05472553429, -30906.762886853565, -19476.572510787548, -12504.370511099161, -12280.0484037457, -187500.02235174447, -187500.02235174447, -0.18, 0.714, 0.636, 192.0, 0.0, 0.0, 0.0, 0.0, 0.0, 0.0, 0.0, 0.0, 0.0, 1.7297051555819817E9, 0.0, 2024-10-23 23:09:15.581
163.0, -45939.674489459336, -54468.4072695264, -3775.164935012452, -20850.467187221908, -14151.247042566187, -13913.156260628255, -187500.02235174447, -187500.02235174447, -0.18, 0.714, 0.636, 192.0, 0.0, 0.0, 0.0, 0.0, 0.0, 0.0, 0.0, 0.0, 0.0, 1.7297051555860868E9, 0.0, 2024-10-23 23:09:15.586
164.0, -46686.33451298887, -54436.10899878848, 273.20537247721825, -22128.76345262092, -14336.006562233755, -13960.385496662318, -187500.02235174447, -187500.02235174447, -0.18, 0.714, 0.636, 192.0, 0.0, 0.0, 0.0, 0.0, 0.0, 0.0, 0.0, 0.0, 0.0, 1.7297051555931048E9, 0.0, 2024-10-23 23:09:15.593
165.0, -45468.65617855265, -52637.486474214376, -24593.222092774166, -21468.045886522043, -12758.53219730046, -12304.009473801789, -187500.02235174447, -187500.02235174447, -0.18, 0.714, 0.636, 192.0, 0.0, 0.0, 0.0, 0.0, 0.0, 0.0, 0.0, 0.0, 0.0, 1.7297051555960898E9, 0.0, 2024-10-23 23:09:15.596
166.0, -44040.580873558625, -51550.25292041933, -45932.343117278, -19932.27987674235, -11596.286189113402, -11231.684533558433, -187500.02235174447, -187500.02235174447, -0.18, 0.714, 0.636, 192.0, 0.0, 0.0, 0.0, 0.0, 0.0, 0.0, 0.0, 0.0, 0.0, 1.7297051555990045E9, 0.0, 2024-10-23 23:09:15.599
167.0, -44315.08264721426, -52757.783562872835, -30934.97078835616, -19511.552990860106, -12500.57071454176, -12308.85980234859, -187500.02235174447, -187500.02235174447, -0.18, 0.714, 0.636, 192.0, 0.0, 0.0, 0.0, 0.0, 0.0, 0.0, 0.0, 0.0, 0.0, 1.7297051556030073E9, 0.0, 2024-10-23 23:09:15.603
168.0, -45942.58021623853, -54492.8153744716, -3967.591103028191, -20908.1346879166, -14165.529807273128, -13956.988031505112, -187500.02235174447, -187500.02235174447, -0.18, 0.714, 0.636, 192.0, 0.0, 0.0, 0.0, 0.0, 0.0, 0.0, 0.0, 0.0, 0.0, 1.729705155606026E9, 0.0, 2024-10-23 23:09:15.606
169.0, -46704.282963786485, -54470.79890618312, 211.58161301393665, -22185.3357178373, -14370.160027761463, -14015.236677555642, -187500.02235174447, -187500.02235174447, -0.17400000000000002, 0.726, 0.63, 192.0, 250.0, 144.0, 22.0, 176.0, 19.0, 176.0, 0.0, 0.0, 0.0, 1.7297051556091232E9, 0.0, 2024-10-23 23:09:15.609
170.0, -45489.42094915163, -52662.38631753759, -24463.738437144573, -21511.631788209892, -12778.805229521422, -12353.943270914946, -187500.02235174447, -187500.02235174447, -0.17400000000000002, 0.726, 0.63, 192.0, 0.0, 0.0, 0.0, 0.0, 0.0, 0.0, 0.0, 0.0, 0.0, 1.7297051556140454E9, 0.0, 2024-10-23 23:09:15.614
171.0, -44051.95791148638, -51551.415211131, -45835.515360297606, -19951.52472871837, -11599.01310193695, -11257.724315848865, -187500.02235174447, -187500.02235174447, -0.17400000000000002, 0.726, 0.63, 192.0, 0.0, 0.0, 0.0, 0.0, 0.0, 0.0, 0.0, 0.0, 0.0, 1.7297051556180823E9, 0.0, 2024-10-23 23:09:15.618
172.0, -44316.28964141484, -52748.73110636844, -31079.67598195982, -19517.498554885216, -12502.694130265014, -12318.135776297544, -187500.02235174447, -187500.02235174447, -0.17400000000000002, 0.726, 0.63, 192.0, 0.0, 0.0, 0.0, 0.0, 0.0, 0.0, 0.0, 0.0, 0.0, 1.7297051556220655E9, 0.0, 2024-10-23 23:09:15.622
173.0, -45949.28573957512, -54482.533572022156, -4161.246616988971, -20897.51760930033, -14176.325699845042, -13957.94915651669, -187500.02235174447, -187500.02235174447, -0.17400000000000002, 0.726, 0.63, 192.0, 0.0, 0.0, 0.0, 0.0, 0.0, 0.0, 0.0, 0.0, 0.0, 1.729705155626156E9, 0.0, 2024-10-23 23:09:15.626
174.0, -46733.47434204511, -54478.84553418703, 305.79421589305593, -22172.57287175332, -14395.37279550705, -14022.970381137178, -187500.02235174447, -187500.02235174447, -0.17400000000000002, 0.726, 0.63, 192.0, 0.0, 0.0, 0.0, 0.0, 0.0, 0.0, 0.0, 0.0, 0.0, 1.729705155631075E9, 0.0, 2024-10-23 23:09:15.631
175.0, -45512.107969773766, -52652.03745985478, -24213.667120178598, -21487.58131117598, -12785.667215069201, -12335.0113433613, -187500.02235174447, -187500.02235174447, -0.17400000000000002, 0.726, 0.63, 192.0, 0.0, 0.0, 0.0, 0.0, 0.0, 0.0, 0.0, 0.0, 0.0, 1.7297051556340876E9, 0.0, 2024-10-23 23:09:15.634
176.0, -44065.99480700431, -51519.3628095821, -45964.507277549186, -19930.536440674834, -11594.654511768165, -11218.161728162971, -187500.02235174447, -187500.02235174447, -0.17400000000000002, 0.726, 0.63, 192.0, 0.0, 0.0, 0.0, 0.0, 0.0, 0.0, 0.0, 0.0, 0.0, 1.7297051556371615E9, 0.0, 2024-10-23 23:09:15.637
177.0, -44305.22552790946, -52712.05189371728, -31545.70985385297, -19477.801856732593, -12479.403612542585, -12267.017336728257, -187500.02235174447, -187500.02235174447, -0.17400000000000002, 0.726, 0.63, 192.0, 0.0, 0.0, 0.0, 0.0, 0.0, 0.0, 0.0, 0.0, 0.0, 1.7297051556430576E9, 0.0, 2024-10-23 23:09:15.643
178.0, -45941.26146331566, -54469.01076662669, -4400.522041383033, -20855.161053557524, -14167.13913287391, -13928.936592213702, -187500.02235174447, -187500.02235174447, -0.17400000000000002, 0.726, 0.63, 192.0, 0.0, 0.0, 0.0, 0.0, 0.0, 0.0, 0.0, 0.0, 0.0, 1.7297051556471016E9, 0.0, 2024-10-23 23:09:15.647
179.0, -46738.324670591915, -54489.39555756993, 585.5486494956791, -22148.43298774159, -14405.609894467581, -14021.383407280853, -187500.02235174447, -187500.02235174447, -0.178, 0.724, 0.634, 192.0, 250.0, 112.0, 22.0, 160.0, 19.0, 208.0, 0.0, 0.0, 0.0, 1.7297051556511953E9, 0.0, 2024-10-23 23:09:15.651
180.0, -45525.96605133606, -52663.79447743827, -23887.979851720316, -21486.195503019753, -12800.419366409704, -12340.152244586021, -187500.02235174447, -187500.02235174447, -0.178, 0.724, 0.634, 192.0, 0.0, 0.0, 0.0, 0.0, 0.0, 0.0, 0.0, 0.0, 0.0, 1.7297051556551929E9, 0.0, 2024-10-23 23:09:15.655
181.0, -44052.136725442026, -51497.79337618272, -45980.42171960136, -19919.0029405359, -11576.661357481642, -11198.201620364383, -187500.02235174447, -187500.02235174447, -0.178, 0.724, 0.634, 192.0, 0.0, 0.0, 0.0, 0.0, 0.0, 0.0, 0.0, 0.0, 0.0, 1.7297051556581285E9, 0.0, 2024-10-23 23:09:15.658
182.0, -44265.30531231229, -52671.12584961961, -31826.738336889546, -19444.318943538543, -12444.423132470029, -12232.75211247827, -187500.02235174447, -187500.02235174447, -0.178, 0.724, 0.634, 192.0, 0.0, 0.0, 0.0, 0.0, 0.0, 0.0, 0.0, 0.0, 0.0, 1.7297051556610801E9, 0.0, 2024-10-23 23:09:15.661
183.0, -45908.65026815537, -54444.66971691486, -4610.404921818366, -20828.60718114462, -14145.681458196816, -13914.564420528939, -187500.02235174447, -187500.02235174447, -0.178, 0.724, 0.634, 192.0, 0.0, 0.0, 0.0, 0.0, 0.0, 0.0, 0.0, 0.0, 0.0, 1.7297051556652846E9, 0.0, 2024-10-23 23:09:15.665
184.0, -46731.99912691106, -54493.575333783076, 657.8341910641421, -22139.157013792636, -14413.500060260303, -14041.25410810162, -187500.02235174447, -187500.02235174447, -0.178, 0.724, 0.634, 192.0, 0.0, 0.0, 0.0, 0.0, 0.0, 0.0, 0.0, 0.0, 0.0, 1.7297051556691785E9, 0.0, 2024-10-23 23:09:15.669
185.0, -45530.74932464949, -52674.70212873246, -23675.325354972527, -21493.86215136792, -12811.394072937259, -12359.77707621778, -187500.02235174447, -187500.02235174447, -0.178, 0.724, 0.634, 192.0, 0.0, 0.0, 0.0, 0.0, 0.0, 0.0, 0.0, 0.0, 0.0, 1.7297051556743286E9, 0.0, 2024-10-23 23:09:15.674
186.0, -44059.62455983455, -51504.81182394169, -45854.2237704067, -19930.290571485828, -11572.973319646517, -11202.895486699997, -187500.02235174447, -187500.02235174447, -0.178, 0.724, 0.634, 192.0, 0.0, 0.0, 0.0, 0.0, 0.0, 0.0, 0.0, 0.0, 0.0, 1.729705155678273E9, 0.0, 2024-10-23 23:09:15.678
187.0, -44253.92827438453, -52654.47380000041, -31938.720576610634, -19430.46086197625, -12420.462062413939, -12217.217650081831, -187500.02235174447, -187500.02235174447, -0.178, 0.724, 0.634, 192.0, 0.0, 0.0, 0.0, 0.0, 0.0, 0.0, 0.0, 0.0, 0.0, 1.7297051556813164E9, 0.0, 2024-10-23 23:09:15.681
188.0, -45894.76983484862, -54429.38112370743, -4782.2674849352225, -20811.530448380763, -14122.525050941116, -13900.259304077543, -187500.02235174447, -187500.02235174447, -0.178, 0.724, 0.634, 192.0, 0.0, 0.0, 0.0, 0.0, 0.0, 0.0, 0.0, 0.0, 0.0, 1.7297051556863482E9, 0.0, 2024-10-23 23:09:15.686
189.0, -46722.90196691775, -54492.68126400486, 643.3502606571031, -22134.060816056826, -14391.930626860933, -14033.29688707553, -187500.02235174447, -187500.02235174447, -0.176, 0.72, 0.634, 192.0, 250.0, 128.0, 22.0, 128.0, 19.0, 208.0, 0.0, 0.0, 0.0, 1.729705155690144E9, 0.0, 2024-10-23 23:09:15.690
190.0, -45522.85915885677, -52684.7827654818, -23540.589039395934, -21505.01567185112, -12801.402843165737, -12367.77900073278, -187500.02235174447, -187500.02235174447, -0.176, 0.72, 0.634, 192.0, 0.0, 0.0, 0.0, 0.0, 0.0, 0.0, 0.0, 0.0, 0.0, 1.7297051556931868E9, 0.0, 2024-10-23 23:09:15.693
191.0, -44058.32815865614, -51517.55231828122, -45712.22313788213, -19953.983420608452, -11572.772153946418, -11220.821585753154, -187500.02235174447, -187500.02235174447, -0.176, 0.72, 0.634, 192.0, 0.0, 0.0, 0.0, 0.0, 0.0, 0.0, 0.0, 0.0, 0.0, 1.7297051556973896E9, 0.0, 2024-10-23 23:09:15.697
192.0, -44259.49385875391, -52670.410593797045, -31974.550422972494, -19464.480217037228, -12425.871184572123, -12241.536348049207, -187500.02235174447, -187500.02235174447, -0.176, 0.72, 0.634, 192.0, 0.0, 0.0, 0.0, 0.0, 0.0, 0.0, 0.0, 0.0, 0.0, 1.7297051557023067E9, 0.0, 2024-10-23 23:09:15.702
193.0, -45906.683314643305, -54450.235301284236, -4965.037699346269, -20850.243669777356, -14141.769902917136, -13935.508005083562, -187500.02235174447, -187500.02235174447, -0.176, 0.72, 0.634, 192.0, 0.0, 0.0, 0.0, 0.0, 0.0, 0.0, 0.0, 0.0, 0.0, 1.7297051557062664E9, 0.0, 2024-10-23 23:09:15.706
194.0, -46741.92330144922, -54524.2195754313, 616.3717050995475, -22171.656450230654, -14433.862499459088, -14083.588312099972, -187500.02235174447, -187500.02235174447, -0.176, 0.72, 0.634, 192.0, 0.0, 0.0, 0.0, 0.0, 0.0, 0.0, 0.0, 0.0, 0.0, 1.7297051557101693E9, 0.0, 2024-10-23 23:09:15.710
195.0, -45548.474258002556, -52712.834204773215, -23395.883845792276, -21544.622963025926, -12843.558233208447, -12414.471794899917, -187500.02235174447, -187500.02235174447, -0.176, 0.72, 0.634, 192.0, 0.0, 0.0, 0.0, 0.0, 0.0, 0.0, 0.0, 0.0, 0.0, 1.7297051557134545E9, 0.0, 2024-10-23 23:09:15.713
196.0, -44068.36409191658, -51512.076140889665, -45711.75375124857, -19985.05234540133, -11592.888723956195, -11238.7029813174, -187500.02235174447, -187500.02235174447, -0.176, 0.72, 0.634, 192.0, 0.0, 0.0, 0.0, 0.0, 0.0, 0.0, 0.0, 0.0, 0.0, 1.729705155717372E9, 0.0, 2024-10-23 23:09:15.717
197.0, -44249.86025689367, -52642.716782416916, -32266.754778236722, -19468.369420572453, -12424.060693271244, -12232.796815967182, -187500.02235174447, -187500.02235174447, -0.176, 0.72, 0.634, 192.0, 0.0, 0.0, 0.0, 0.0, 0.0, 0.0, 0.0, 0.0, 0.0, 1.7297051557212331E9, 0.0, 2024-10-23 23:09:15.721
198.0, -45907.51032918815, -54443.082743058534, -5138.9119194641025, -20846.823852875692, -14148.117798342444, -13931.439987592697, -187500.02235174447, -187500.02235174447, -0.176, 0.72, 0.634, 192.0, 0.0, 0.0, 0.0, 0.0, 0.0, 0.0, 0.0, 0.0, 0.0, 1.729705155725227E9, 0.0, 2024-10-23 23:09:15.725
199.0, -46751.89217947629, -54534.16610171391, 917.9637930350058, -22172.304650819857, -14447.139435665542, -14087.678681335294, -187500.02235174447, -187500.02235174447, -0.18, 0.728, 0.634, 192.0, 250.0, 96.0, 22.0, 192.0, 19.0, 208.0, 0.0, 0.0, 0.0, 1.7297051557302349E9, 0.0, 2024-10-23 23:09:15.730
200.0, -45553.54810399391, -52700.317227878244, -22977.50389307784, -21542.857175213954, -12835.48925346008, -12395.11518420162, -187500.02235174447, -187500.02235174447, -0.18, 0.728, 0.634, 192.0, 0.0, 0.0, 0.0, 0.0, 0.0, 0.0, 0.0, 0.0, 0.0, 1.7297051557344368E9, 0.0, 2024-10-23 23:09:15.734
201.0, -44052.874333009044, -51468.95962583538, -45682.36120728984, -19967.752095192922, -11552.074438580805, -11184.902332413476, -187500.02235174447, -187500.02235174447, -0.18, 0.728, 0.634, 192.0, 0.0, 0.0, 0.0, 0.0, 0.0, 0.0, 0.0, 0.0, 0.0, 1.7297051557372997E9, 0.0, 2024-10-23 23:09:15.737
202.0, -44210.00709652986, -52592.62652309257, -32560.814328290744, -19429.946771853778, -12370.796486234247, -12167.373259946497, -187500.02235174447, -187500.02235174447, -0.18, 0.728, 0.634, 192.0, 0.0, 0.0, 0.0, 0.0, 0.0, 0.0, 0.0, 0.0, 0.0, 1.729705155741198E9, 0.0, 2024-10-23 23:09:15.741
203.0, -45882.632837609395, -54417.57940263503, -5317.81528208438, -20811.373986169576, -14114.389015959385, -13886.22240855961, -187500.02235174447, -187500.02235174447, -0.18, 0.728, 0.634, 192.0, 0.0, 0.0, 0.0, 0.0, 0.0, 0.0, 0.0, 0.0, 0.0, 1.7297051557453227E9, 0.0, 2024-10-23 23:09:15.745
204.0, -46755.088478933394, -54538.27882269369, 1068.9945303195157, -22155.96552562303, -14446.58064205416, -14072.88182650588, -187500.02235174447, -187500.02235174447, -0.18, 0.728, 0.634, 192.0, 0.0, 0.0, 0.0, 0.0, 0.0, 0.0, 0.0, 0.0, 0.0, 1.72970515574922E9, 0.0, 2024-10-23 23:09:15.749
205.0, -45551.24587431501, -52701.70303603447, -22717.55310506262, -21530.02727389661, -12833.879927859298, -12384.006367207334, -187500.02235174447, -187500.02235174447, -0.18, 0.728, 0.634, 192.0, 0.0, 0.0, 0.0, 0.0, 0.0, 0.0, 0.0, 0.0, 0.0, 1.7297051557533133E9, 0.0, 2024-10-23 23:09:15.753
206.0, -44028.510931552766, -51450.631195382026, -45535.1973217961, -19943.768673392377, -11533.075455793794, -11157.96848034483, -187500.02235174447, -187500.02235174447, -0.18, 0.728, 0.634, 192.0, 0.0, 0.0, 0.0, 0.0, 0.0, 0.0, 0.0, 0.0, 0.0, 1.7297051557572987E9, 0.0, 2024-10-23 23:09:15.757
207.0, -44181.039235715776, -52570.006557703804, -32590.162168760562, -19396.93324529329, -12343.0132678763, -12138.83008227707, -187500.02235174447, -187500.02235174447, -0.18, 0.728, 0.634, 192.0, 0.0, 0.0, 0.0, 0.0, 0.0, 0.0, 0.0, 0.0, 0.0, 1.7297051557624407E9, 0.0, 2024-10-23 23:09:15.762
208.0, -45861.46573561022, -54404.41422515085, -5428.702286327158, -20787.368212624577, -14097.64755936236, -13870.196207785155, -187500.02235174447, -187500.02235174447, -0.18, 0.728, 0.634, 192.0, 0.0, 0.0, 0.0, 0.0, 0.0, 0.0, 0.0, 0.0, 0.0, 1.729705155766281E9, 0.0, 2024-10-23 23:09:15.766
209.0, -46738.77170548102, -54539.642279105465, 1030.884806023217, -22142.3756649942, -14442.33381060765, -14074.424096873296, -187500.02235174447, -187500.02235174447, -0.17400000000000002, 0.72, 0.632, 192.0, 250.0, 144.0, 22.0, 128.0, 19.0, 192.0, 0.0, 0.0, 0.0, 1.7297051557693715E9, 0.0, 2024-10-23 23:09:15.769
210.0, -45539.73472592053, -52709.682608805015, -22597.568940826528, -21525.132241860898, -12828.023770812008, -12390.734242288381, -187500.02235174447, -187500.02235174447, -0.17400000000000002, 0.72, 0.632, 192.0, 0.0, 0.0, 0.0, 0.0, 0.0, 0.0, 0.0, 0.0, 0.0, 1.7297051557734694E9, 0.0, 2024-10-23 23:09:15.773
211.0, -44022.29714659419, -51454.69921287289, -45379.53977340934, -19945.445054226526, -11522.99481904445, -11168.183227560905, -187500.02235174447, -187500.02235174447, -0.17400000000000002, 0.72, 0.632, 192.0, 0.0, 0.0, 0.0, 0.0, 0.0, 0.0, 0.0, 0.0, 0.0, 1.7297051557772653E9, 0.0, 2024-10-23 23:09:15.777
212.0, -44174.668988546015, -52573.225208905365, -32671.187242411048, -19406.432736686795, -12334.072570094177, -12153.78339931767, -187500.02235174447, -187500.02235174447, -0.17400000000000002, 0.72, 0.632, 192.0, 0.0, 0.0, 0.0, 0.0, 0.0, 0.0, 0.0, 0.0, 0.0, 1.7297051557815301E9, 0.0, 2024-10-23 23:09:15.781
213.0, -45840.38804058886, -54401.73201581622, -5596.899163353344, -20792.15148593801, -14071.652480560839, -13883.629606202794, -187500.02235174447, -187500.02235174447, -0.17400000000000002, 0.72, 0.632, 192.0, 0.0, 0.0, 0.0, 0.0, 0.0, 0.0, 0.0, 0.0, 0.0, 1.7297051557862556E9, 0.0, 2024-10-23 23:09:15.786
214.0, -46735.12837113481, -54557.56837815862, 1074.4707077110659, -22153.842109899775, -14436.924688449466, -14110.030425790601, -187500.02235174447, -187500.02235174447, -0.17400000000000002, 0.72, 0.632, 192.0, 0.0, 0.0, 0.0, 0.0, 0.0, 0.0, 0.0, 0.0, 0.0, 1.7297051557903197E9, 0.0, 2024-10-23 23:09:15.790
215.0, -45552.87755166025, -52739.38807718612, -22417.14565958329, -21561.87850974542, -12842.552404707958, -12440.332763234706, -187500.02235174447, -187500.02235174447, -0.17400000000000002, 0.72, 0.632, 192.0, 0.0, 0.0, 0.0, 0.0, 0.0, 0.0, 0.0, 0.0, 0.0, 1.729705155794453E9, 0.0, 2024-10-23 23:09:15.794
216.0, -44053.99192023181, -51489.59028596763, -45427.41721003261, -20003.00079619894, -11545.838301877773, -11217.357065362581, -187500.02235174447, -187500.02235174447, -0.17400000000000002, 0.72, 0.632, 192.0, 0.0, 0.0, 0.0, 0.0, 0.0, 0.0, 0.0, 0.0, 0.0, 1.7297051557983327E9, 0.0, 2024-10-23 23:09:15.798
217.0, -44180.949828737954, -52581.964740987394, -33015.0911826004, -19437.948696368778, -12333.625535205072, -12169.40726869193, -187500.02235174447, -187500.02235174447, -0.17400000000000002, 0.72, 0.632, 192.0, 0.0, 0.0, 0.0, 0.0, 0.0, 0.0, 0.0, 0.0, 0.0, 1.7297051558014057E9, 0.0, 2024-10-23 23:09:15.801
218.0, -45834.48718005266, -54396.97109424724, -5821.422436406903, -20798.16410519649, -14073.30650965053, -13882.243798046566, -187500.02235174447, -187500.02235174447, -0.17400000000000002, 0.72, 0.632, 192.0, 0.0, 0.0, 0.0, 0.0, 0.0, 0.0, 0.0, 0.0, 0.0, 1.7297051558054013E9, 0.0, 2024-10-23 23:09:15.805
219.0, -46749.65700503076, -54571.80643937665, 1298.7034080867063, -22161.15113033666, -14461.802180028222, -14125.430777720307, -187500.02235174447, -187500.02235174447, -0.17200000000000001, 0.716, 0.636, 192.0, 250.0, 160.0, 22.0, 96.0, 19.0, 224.0, 0.0, 0.0, 0.0, 1.7297051558094215E9, 0.0, 2024-10-23 23:09:15.809
220.0, -45613.182558200664, -52785.0079876194, -22164.52624374941, -21607.632530645435, -12904.690254293711, -12487.673757991048, -187500.02235174447, -187500.02235174447, -0.17200000000000001, 0.716, 0.636, 192.0, 0.0, 0.0, 0.0, 0.0, 0.0, 0.0, 0.0, 0.0, 0.0, 1.729705155813548E9, 0.0, 2024-10-23 23:09:15.813
221.0, -44119.080200085664, -51525.66600151849, -45650.50997144103, -20060.489482937992, -11608.892572986195, -11258.730144349354, -187500.02235174447, -187500.02235174447, -0.17200000000000001, 0.716, 0.636, 192.0, 0.0, 0.0, 0.0, 0.0, 0.0, 0.0, 0.0, 0.0, 0.0, 1.7297051558182993E9, 0.0, 2024-10-23 23:09:15.818
222.0, -44184.36964563962, -52562.49637156682, -33534.45631676392, -19434.171251555832, -12343.907337654513, -12161.137123243467, -187500.02235174447, -187500.02235174447, -0.17200000000000001, 0.716, 0.636, 192.0, 0.0, 0.0, 0.0, 0.0, 0.0, 0.0, 0.0, 0.0, 0.0, 1.729705155822448E9, 0.0, 2024-10-23 23:09:15.822
223.0, -45818.30451706702, -54371.87008522393, -6061.949558490463, -20752.454787785387, -14074.535855595572, -13868.408068228731, -187500.02235174447, -187500.02235174447, -0.17200000000000001, 0.716, 0.636, 192.0, 0.0, 0.0, 0.0, 0.0, 0.0, 0.0, 0.0, 0.0, 0.0, 1.7297051558253512E9, 0.0, 2024-10-23 23:09:15.825
224.0, -46742.75031599407, -54571.47116320982, 1545.377259895475, -22126.841202597763, -14471.480485377371, -14124.067321308534, -187500.02235174447, -187500.02235174447, -0.17200000000000001, 0.716, 0.636, 192.0, 0.0, 0.0, 0.0, 0.0, 0.0, 0.0, 0.0, 0.0, 0.0, 1.7297051558293917E9, 0.0, 2024-10-23 23:09:15.829
225.0, -45625.766590329, -52799.246048837435, -21832.111100210084, -21601.709318364778, -12915.642609076813, -12487.718461479959, -187500.02235174447, -187500.02235174447, -0.17200000000000001, 0.716, 0.636, 192.0, 0.0, 0.0, 0.0, 0.0, 0.0, 0.0, 0.0, 0.0, 0.0, 1.7297051558334591E9, 0.0, 2024-10-23 23:09:15.833
226.0, -44129.92079614649, -51531.74567601034, -45512.666763385154, -20061.852939349763, -11602.432918838611, -11242.838054041631, -187500.02235174447, -187500.02235174447, -0.17200000000000001, 0.716, 0.636, 192.0, 0.0, 0.0, 0.0, 0.0, 0.0, 0.0, 0.0, 0.0, 0.0, 1.7297051558377762E9, 0.0, 2024-10-23 23:09:15.837
227.0, -44169.41632859902, -52544.011478902285, -33615.79431483678, -19405.11398376393, -12304.76943311327, -12113.72907325376, -187500.02235174447, -187500.02235174447, -0.17200000000000001, 0.716, 0.636, 192.0, 0.0, 0.0, 0.0, 0.0, 0.0, 0.0, 0.0, 0.0, 0.0, 1.7297051558413427E9, 0.0, 2024-10-23 23:09:15.841
228.0, -45775.12094677937, -54331.63694520437, -6190.136812941649, -20696.24015048029, -14008.665264685782, -13794.379090592754, -187500.02235174447, -187500.02235174447, -0.17200000000000001, 0.716, 0.636, 192.0, 0.0, 0.0, 0.0, 0.0, 0.0, 0.0, 0.0, 0.0, 0.0, 1.7297051558464642E9, 0.0, 2024-10-23 23:09:15.846
229.0, -46711.256708056535, -54547.48774140928, 1494.705855215294, -22074.068733938784, -14423.960676665387, -14067.964442725712, -187500.02235174447, -187500.02235174447, -0.176, 0.72, 0.628, 192.0, 250.0, 128.0, 22.0, 128.0, 19.0, 160.0, 0.0, 0.0, 0.0, 1.729705155850546E9, 0.0, 2024-10-23 23:09:15.850
230.0, -45618.25640419202, -52802.68821748355, -21720.262970955726, -21573.83669302901, -12899.951684469186, -12460.672850689036, -187500.02235174447, -187500.02235174447, -0.176, 0.72, 0.628, 192.0, 0.0, 0.0, 0.0, 0.0, 0.0, 0.0, 0.0, 0.0, 0.0, 1.7297051558534656E9, 0.0, 2024-10-23 23:09:15.853
231.0, -44138.68267997297, -51545.693164550445, -45285.6400949526, -20055.92972706911, -11605.048072939882, -11233.405617881492, -187500.02235174447, -187500.02235174447, -0.176, 0.72, 0.628, 192.0, 0.0, 0.0, 0.0, 0.0, 0.0, 0.0, 0.0, 0.0, 0.0, 1.729705155857495E9, 0.0, 2024-10-23 23:09:15.857
232.0, -44163.493116318365, -52535.18253984243, -33539.35134879963, -19391.255902201643, -12294.130002752543, -12098.708700979794, -187500.02235174447, -187500.02235174447, -0.176, 0.72, 0.628, 192.0, 0.0, 0.0, 0.0, 0.0, 0.0, 0.0, 0.0, 0.0, 0.0, 1.7297051558614323E9, 0.0, 2024-10-23 23:09:15.861
233.0, -45745.05785048698, -54300.23274424467, -6255.850941640251, -20663.56190008663, -13973.57302589095, -13763.936014644625, -187500.02235174447, -187500.02235174447, -0.176, 0.72, 0.628, 192.0, 0.0, 0.0, 0.0, 0.0, 0.0, 0.0, 0.0, 0.0, 0.0, 1.729705155865452E9, 0.0, 2024-10-23 23:09:15.865
234.0, -46682.28884724246, -54522.789063786164, 1611.247850805265, -22044.31856206877, -14397.85383914159, -14054.285175119065, -187500.02235174447, -187500.02235174447, -0.176, 0.72, 0.628, 192.0, 0.0, 0.0, 0.0, 0.0, 0.0, 0.0, 0.0, 0.0, 0.0, 1.7297051558694007E9, 0.0, 2024-10-23 23:09:15.869
235.0, -45626.772418829496, -52807.38208381917, -21463.799055075535, -21591.09223974851, -12915.083815465428, -12494.602798772192, -187500.02235174447, -187500.02235174447, -0.176, 0.72, 0.628, 192.0, 0.0, 0.0, 0.0, 0.0, 0.0, 0.0, 0.0, 0.0, 0.0, 1.729705155873664E9, 0.0, 2024-10-23 23:09:15.873
236.0, -44154.79828772525, -51548.06244946271, -45333.58458680923, -20099.180352590127, -11622.974171993039, -11278.42203121448, -187500.02235174447, -187500.02235174447, -0.176, 0.72, 0.628, 192.0, 0.0, 0.0, 0.0, 0.0, 0.0, 0.0, 0.0, 0.0, 0.0, 1.7297051558786669E9, 0.0, 2024-10-23 23:09:15.878
237.0, -44145.36585156511, -52516.22826054433, -34000.11020900133, -19409.85255358846, -12283.33411018063, -12117.975904700268, -187500.02235174447, -187500.02235174447, -0.176, 0.72, 0.628, 192.0, 0.0, 0.0, 0.0, 0.0, 0.0, 0.0, 0.0, 0.0, 0.0, 1.729705155881413E9, 0.0, 2024-10-23 23:09:15.881
238.0, -45725.85770199987, -54296.477651176174, -6505.162299294746, -20667.786379788682, -13969.035621766523, -13793.082689414347, -187500.02235174447, -187500.02235174447, -0.176, 0.72, 0.628, 192.0, 0.0, 0.0, 0.0, 0.0, 0.0, 0.0, 0.0, 0.0, 0.0, 1.729705155885403E9, 0.0, 2024-10-23 23:09:15.885
239.0, -46699.43263523968, -54560.13882877098, 1921.1100841891866, -22075.6110043062, -14441.395037340528, -14118.881716594902, -187500.02235174447, -187500.02235174447, -0.176, 0.72, 0.628, 192.0, 0.0, 0.0, 0.0, 0.0, 0.0, 0.0, 0.0, 0.0, 0.0, 1.729705155890454E9, 0.0, 2024-10-23 23:09:15.890
240.0, -45665.99973034856, -52847.88344477218, -21090.949605816557, -21649.922031154878, -12974.382993505358, -12556.33831695775, -187500.02235174447, -187500.02235174447, -0.182, 0.722, 0.632, 192.0, 250.0, 80.0, 22.0, 144.0, 19.0, 192.0, 0.0, 0.0, 0.0, 1.7297051558944578E9, 0.0, 2024-10-23 23:09:15.894
241.0, -44192.23745968789, -51567.97785377239, -45353.52234286336, -20150.47760611506, -11667.141219036725, -11316.576458999689, -187500.02235174447, -187500.02235174447, -0.182, 0.722, 0.632, 192.0, 0.0, 0.0, 0.0, 0.0, 0.0, 0.0, 0.0, 0.0, 0.0, 1.729705155897556E9, 0.0, 2024-10-23 23:09:15.897
242.0, -44144.13650562007, -52498.637437658006, -34270.409854699355, -19408.39969019886, -12293.370043441064, -12118.333532611554, -187500.02235174447, -187500.02235174447, -0.182, 0.722, 0.632, 192.0, 0.0, 0.0, 0.0, 0.0, 0.0, 0.0, 0.0, 0.0, 0.0, 1.7297051559025161E9, 0.0, 2024-10-23 23:09:15.902
243.0, -45710.367943092344, -54267.37567989537, -6746.337621967509, -20639.757292241728, -13974.578854391439, -13782.3538520758, -187500.02235174447, -187500.02235174447, -0.182, 0.722, 0.632, 192.0, 0.0, 0.0, 0.0, 0.0, 0.0, 0.0, 0.0, 0.0, 0.0, 1.7297051559067369E9, 0.0, 2024-10-23 23:09:15.906
244.0, -46692.70476015863, -54544.671421607905, 1894.7573774763798, -22047.47015803697, -14449.57577581117, -14115.059568293043, -187500.02235174447, -187500.02235174447, -0.182, 0.722, 0.632, 192.0, 0.0, 0.0, 0.0, 0.0, 0.0, 0.0, 0.0, 0.0, 0.0, 1.7297051559095733E9, 0.0, 2024-10-23 23:09:15.909
245.0, -45688.32912305941, -52861.741526334474, -20928.25125792638, -21648.022132876176, -13001.76388046311, -12572.900959599134, -187500.02235174447, -187500.02235174447, -0.182, 0.722, 0.632, 192.0, 0.0, 0.0, 0.0, 0.0, 0.0, 0.0, 0.0, 0.0, 0.0, 1.7297051559135137E9, 0.0, 2024-10-23 23:09:15.913
246.0, -44222.345259469184, -51588.45205169345, -45121.667697628465, -20165.386219666747, -11697.919571151682, -11333.206156874438, -187500.02235174447, -187500.02235174447, -0.182, 0.722, 0.632, 192.0, 0.0, 0.0, 0.0, 0.0, 0.0, 0.0, 0.0, 0.0, 0.0, 1.729705155917513E9, 0.0, 2024-10-23 23:09:15.917
247.0, -44153.05485165773, -52500.470280703346, -34251.030892256604, -19406.812716342534, -12299.0026830438, -12104.855430705004, -187500.02235174447, -187500.02235174447, -0.182, 0.722, 0.632, 192.0, 0.0, 0.0, 0.0, 0.0, 0.0, 0.0, 0.0, 0.0, 0.0, 1.729705155921466E9, 0.0, 2024-10-23 23:09:15.921
248.0, -45693.5370795175, -54248.7566767641, -6923.966935153835, -20616.355015797024, -13951.265984924554, -13740.600793433285, -187500.02235174447, -187500.02235174447, -0.182, 0.722, 0.632, 192.0, 0.0, 0.0, 0.0, 0.0, 0.0, 0.0, 0.0, 0.0, 0.0, 1.7297051559256036E9, 0.0, 2024-10-23 23:09:15.925
249.0, -46671.29178897045, -54529.38282840048, 1631.0514963926669, -22015.261294276872, -14408.157993335486, -14063.315279879009, -187500.02235174447, -187500.02235174447, -0.182, 0.722, 0.632, 192.0, 0.0, 0.0, 0.0, 0.0, 0.0, 0.0, 0.0, 0.0, 0.0, 1.729705155929544E9, 0.0, 2024-10-23 23:09:15.929
250.0, -45679.34372178838, -52862.12150599021, -20999.933302394547, -21622.630551174945, -12970.203217292217, -12538.56868011578, -187500.02235174447, -187500.02235174447, -0.18, 0.722, 0.636, 192.0, 250.0, 96.0, 22.0, 144.0, 19.0, 224.0, 0.0, 0.0, 0.0, 1.7297051559345524E9, 0.0, 2024-10-23 23:09:15.934
251.0, -44235.018698575346, -51608.65802868105, -44893.45638673978, -20155.03736198394, -11690.49879199252, -11316.71056946642, -187500.02235174447, -187500.02235174447, -0.18, 0.722, 0.636, 192.0, 0.0, 0.0, 0.0, 0.0, 0.0, 0.0, 0.0, 0.0, 0.0, 1.7297051559375155E9, 0.0, 2024-10-23 23:09:15.937
252.0, -44158.19575288246, -52502.99602782679, -34103.55408234049, -19401.560056395538, -12277.187380455422, -12080.715546693273, -187500.02235174447, -187500.02235174447, -0.18, 0.722, 0.636, 192.0, 0.0, 0.0, 0.0, 0.0, 0.0, 0.0, 0.0, 0.0, 0.0, 1.7297051559414866E9, 0.0, 2024-10-23 23:09:15.941
253.0, -45678.8296316659, -54233.4010283233, -7001.371026202563, -20602.139306323446, -13902.807402945447, -13698.177182457111, -187500.02235174447, -187500.02235174447, -0.18, 0.722, 0.636, 192.0, 0.0, 0.0, 0.0, 0.0, 0.0, 0.0, 0.0, 0.0, 0.0, 1.7297051559456005E9, 0.0, 2024-10-23 23:09:15.945
254.0, -46652.80689630591, -54521.29149690765, 1677.2525521817868, -21991.523741665333, -14380.03949881071, -14038.191919111243, -187500.02235174447, -187500.02235174447, -0.18, 0.722, 0.636, 192.0, 0.0, 0.0, 0.0, 0.0, 0.0, 0.0, 0.0, 0.0, 0.0, 1.7297051559497173E9, 0.0, 2024-10-23 23:09:15.949
255.0, -45685.44574802468, -52878.103003275755, -20795.92893075096, -21625.916257609875, -12972.013708593096, -12541.094427239232, -187500.02235174447, -187500.02235174447, -0.18, 0.722, 0.636, 192.0, 0.0, 0.0, 0.0, 0.0, 0.0, 0.0, 0.0, 0.0, 0.0, 1.7297051559536335E9, 0.0, 2024-10-23 23:09:15.953
0.0, -44242.37242250114, -51610.75909265984, -44889.41072099337, -20169.476588902067, -11686.363719268289, -11313.357807798126, -187500.02235174447, -187500.02235174447, -0.18, 0.722, 0.636, 192.0, 0.0, 0.0, 0.0, 0.0, 0.0, 0.0, 0.0, 0.0, 0.0, 1.729705155957641E9, 0.0, 2024-10-23 23:09:15.957
1.0, -44144.74000272036, -52484.26526597325, -34472.22375538632, -19395.0780505035, -12256.37790636753, -12065.896340119403, -187500.02235174447, -187500.02235174447, -0.18, 0.722, 0.636, 192.0, 0.0, 0.0, 0.0, 0.0, 0.0, 0.0, 0.0, 0.0, 0.0, 1.729705155962624E9, 0.0, 2024-10-23 23:09:15.962
2.0, -45661.84230587987, -54214.983190892126, -7264.763982863901, -20580.525169435165, -13889.195190572167, -13696.94783651207, -187500.02235174447, -187500.02235174447, -0.18, 0.722, 0.636, 192.0, 0.0, 0.0, 0.0, 0.0, 0.0, 0.0, 0.0, 0.0, 0.0, 1.72970515596563E9, 0.0, 2024-10-23 23:09:15.965
3.0, -46656.22671320757, -54528.17583419989, 1822.3153736967295, -21990.227340486927, -14396.266865285263, -14070.333727637975, -187500.02235174447, -187500.02235174447, -0.18, 0.722, 0.636, 192.0, 0.0, 0.0, 0.0, 0.0, 0.0, 0.0, 0.0, 0.0, 0.0, 1.729705155970587E9, 0.0, 2024-10-23 23:09:15.970
4.0, -45699.61675400934, -52889.36828248123, -20506.473840054732, -21649.989086388243, -12997.271179827594, -12586.088488827765, -187500.02235174447, -187500.02235174447, -0.18, 0.724, 0.636, 192.0, 250.0, 96.0, 22.0, 160.0, 19.0, 224.0, 0.0, 0.0, 0.0, 1.7297051559736505E9, 0.0, 2024-10-23 23:09:15.973
5.0, -44260.298521554294, -51619.47627299742, -44814.59943230146, -20209.150935310237, -11712.023521902982, -11359.514160098333, -187500.02235174447, -187500.02235174447, -0.18, 0.724, 0.636, 192.0, 0.0, 0.0, 0.0, 0.0, 0.0, 0.0, 0.0, 0.0, 0.0, 1.7297051559776025E9, 0.0, 2024-10-23 23:09:15.977
6.0, -44144.38237480907, -52479.45964091535, -34667.5332984368, -19418.614437414937, -12269.833656529625, -12098.149907368412, -187500.02235174447, -187500.02235174447, -0.18, 0.724, 0.636, 192.0, 0.0, 0.0, 0.0, 0.0, 0.0, 0.0, 0.0, 0.0, 0.0, 1.729705155981634E9, 0.0, 2024-10-23 23:09:15.981
7.0, -45655.04737556546, -54212.59155423541, -7476.680872044668, -20595.478486475764, -13901.153373855755, -13721.62416239073, -187500.02235174447, -187500.02235174447, -0.18, 0.724, 0.636, 192.0, 0.0, 0.0, 0.0, 0.0, 0.0, 0.0, 0.0, 0.0, 0.0, 1.7297051559855623E9, 0.0, 2024-10-23 23:09:15.985
8.0, -46649.29767242643, -54531.41683714591, 1825.8916528095785, -21998.7433551244, -14410.683740458935, -14092.618416859916, -187500.02235174447, -187500.02235174447, -0.18, 0.724, 0.636, 192.0, 0.0, 0.0, 0.0, 0.0, 0.0, 0.0, 0.0, 0.0, 0.0, 1.729705155990704E9, 0.0, 2024-10-23 23:09:15.990
9.0, -45706.456387812665, -52900.87943087571, -20370.88815818884, -21666.596432518534, -13016.851307970443, -12607.300294315852, -187500.02235174447, -187500.02235174447, -0.18, 0.724, 0.636, 192.0, 0.0, 0.0, 0.0, 0.0, 0.0, 0.0, 0.0, 0.0, 0.0, 1.7297051559936984E9, 0.0, 2024-10-23 23:09:15.993
10.0, -44270.06623388127, -51623.07490385472, -44715.33533517544, -20224.931266895685, -11732.810644246418, -11370.421811392524, -187500.02235174447, -187500.02235174447, -0.18, 0.724, 0.636, 192.0, 0.0, 0.0, 0.0, 0.0, 0.0, 0.0, 0.0, 0.0, 0.0, 1.729705155996688E9, 0.0, 2024-10-23 23:09:15.996
11.0, -44143.44360154195, -52466.04859424217, -34744.42329936306, -19422.83891711699, -12274.885150776525, -12087.085793863034, -187500.02235174447, -187500.02235174447, -0.18, 0.724, 0.636, 192.0, 0.0, 0.0, 0.0, 0.0, 0.0, 0.0, 0.0, 0.0, 0.0, 1.7297051560015738E9, 0.0, 2024-10-23 23:09:16.001
12.0, -45645.81610510542, -54191.04447258049, -7635.333554188437, -20587.945948594326, -13897.890019165281, -13701.418185403132, -187500.02235174447, -187500.02235174447, -0.18, 0.724, 0.636, 192.0, 0.0, 0.0, 0.0, 0.0, 0.0, 0.0, 0.0, 0.0, 0.0, 1.7297051560055604E9, 0.0, 2024-10-23 23:09:16.005
13.0, -46640.9604717446, -54521.87264226349, 1779.3776725980847, -21984.48294216191, -14405.587542723126, -14077.441582374762, -187500.02235174447, -187500.02235174447, -0.18, 0.724, 0.636, 192.0, 0.0, 0.0, 0.0, 0.0, 0.0, 0.0, 0.0, 0.0, 0.0, 1.7297051560097325E9, 0.0, 2024-10-23 23:09:16.009
14.0, -45702.85775695536, -52899.67243667513, -20243.77378747151, -21658.14747311443, -13022.171023150806, -12600.862991912723, -187500.02235174447, -187500.02235174447, -0.182, 0.73, 0.634, 192.0, 250.0, 80.0, 22.0, 208.0, 19.0, 208.0, 0.0, 0.0, 0.0, 1.729705156013596E9, 0.0, 2024-10-23 23:09:16.013
15.0, -44279.07398689676, -51630.40627603606, -44571.21128692762, -20227.81464193042, -11739.046780949448, -11369.259520680847, -187500.02235174447, -187500.02235174447, -0.182, 0.73, 0.634, 192.0, 0.0, 0.0, 0.0, 0.0, 0.0, 0.0, 0.0, 0.0, 0.0, 1.7297051560187204E9, 0.0, 2024-10-23 23:09:16.018
16.0, -44142.728345719384, -52463.14286746298, -34808.10341931623, -19420.89431534938, -12263.686926804416, -12074.635872201428, -187500.02235174447, -187500.02235174447, -0.182, 0.73, 0.634, 192.0, 0.0, 0.0, 0.0, 0.0, 0.0, 0.0, 0.0, 0.0, 0.0, 1.729705156021622E9, 0.0, 2024-10-23 23:09:16.021
17.0, -45633.88027356628, -54181.45557420917, -7771.008643032151, -20570.511587919187, -13874.93477760968, -13677.635929302685, -187500.02235174447, -187500.02235174447, -0.182, 0.73, 0.634, 192.0, 0.0, 0.0, 0.0, 0.0, 0.0, 0.0, 0.0, 0.0, 0.0, 1.729705156024626E9, 0.0, 2024-10-23 23:09:16.024
18.0, -46632.690326296135, -54523.481967864274, 1891.7398919749132, -21964.29931691877, -14397.13858331902, -14061.728306022682, -187500.02235174447, -187500.02235174447, -0.182, 0.73, 0.634, 192.0, 0.0, 0.0, 0.0, 0.0, 0.0, 0.0, 0.0, 0.0, 0.0, 1.729705156029798E9, 0.0, 2024-10-23 23:09:16.029
19.0, -45720.940318219706, -52924.169948598144, -19939.454786712504, -21660.7626272157, -13029.43534009878, -12598.449003511549, -187500.02235174447, -187500.02235174447, -0.182, 0.73, 0.634, 192.0, 0.0, 0.0, 0.0, 0.0, 0.0, 0.0, 0.0, 0.0, 0.0, 1.729705156034026E9, 0.0, 2024-10-23 23:09:16.034
20.0, -44294.54139405983, -51640.53161627431, -44451.83061979182, -20236.442415290167, -11729.949620956138, -11349.187654159983, -187500.02235174447, -187500.02235174447, -0.182, 0.73, 0.634, 192.0, 0.0, 0.0, 0.0, 0.0, 0.0, 0.0, 0.0, 0.0, 0.0, 1.7297051560376296E9, 0.0, 2024-10-23 23:09:16.037
21.0, -44126.41157226701, -52444.725030031805, -35088.41664653023, -19400.084841261487, -12224.07963562961, -12023.405673909865, -187500.02235174447, -187500.02235174447, -0.182, 0.73, 0.634, 192.0, 0.0, 0.0, 0.0, 0.0, 0.0, 0.0, 0.0, 0.0, 0.0, 1.7297051560416224E9, 0.0, 2024-10-23 23:09:16.041
22.0, -45622.25736644952, -54176.42643170672, -8010.954619759873, -20540.96258174927, -13852.73949536556, -13647.438722543566, -187500.02235174447, -187500.02235174447, -0.182, 0.73, 0.634, 192.0, 0.0, 0.0, 0.0, 0.0, 0.0, 0.0, 0.0, 0.0, 0.0, 1.7297051560456984E9, 0.0, 2024-10-23 23:09:16.045
23.0, -46638.971166488074, -54541.20690121733, 2031.4159430761272, -21953.10109294666, -14399.731385675836, -14059.537835066061, -187500.02235174447, -187500.02235174447, -0.182, 0.73, 0.634, 192.0, 0.0, 0.0, 0.0, 0.0, 0.0, 0.0, 0.0, 0.0, 0.0, 1.7297051560506544E9, 0.0, 2024-10-23 23:09:16.050
24.0, -45732.6973358032, -52936.66457374866, -19630.84425101808, -21668.652793008423, -13030.307058132537, -12597.68904420007, -187500.02235174447, -187500.02235174447, -0.17400000000000002, 0.732, 0.63, 192.0, 250.0, 144.0, 22.0, 224.0, 19.0, 176.0, 0.0, 0.0, 0.0, 1.7297051560546513E9, 0.0, 2024-10-23 23:09:16.054
25.0, -44292.753254503405, -51631.30034581427, -44222.635832147105, -20241.89624093726, -11720.293667351445, -11338.90585171054, -187500.02235174447, -187500.02235174447, -0.17400000000000002, 0.732, 0.63, 192.0, 0.0, 0.0, 0.0, 0.0, 0.0, 0.0, 0.0, 0.0, 0.0, 1.729705156058673E9, 0.0, 2024-10-23 23:09:16.058
26.0, -44112.84406338264, -52422.28387859868, -35141.412632633765, -19389.624224856405, -12204.432452253397, -12006.999493479669, -187500.02235174447, -187500.02235174447, -0.17400000000000002, 0.732, 0.63, 192.0, 0.0, 0.0, 0.0, 0.0, 0.0, 0.0, 0.0, 0.0, 0.0, 1.7297051560627077E9, 0.0, 2024-10-23 23:09:16.062
27.0, -45632.427410176686, -54165.1835042457, -8176.8045636182505, -20529.898468243893, -13842.994134783046, -13637.469844516498, -187500.02235174447, -187500.02235174447, -0.17400000000000002, 0.732, 0.63, 192.0, 0.0, 0.0, 0.0, 0.0, 0.0, 0.0, 0.0, 0.0, 0.0, 1.72970515606678E9, 0.0, 2024-10-23 23:09:16.066
28.0, -46667.42493717968, -54560.07177353761, 2003.029227617887, -21958.845491271673, -14411.264885814773, -14080.459067876229, -187500.02235174447, -187500.02235174447, -0.17400000000000002, 0.732, 0.63, 192.0, 0.0, 0.0, 0.0, 0.0, 0.0, 0.0, 0.0, 0.0, 0.0, 1.7297051560707111E9, 0.0, 2024-10-23 23:09:16.070
29.0, -45734.44077187071, -52962.92787348365, -19455.71833321075, -21695.13961018796, -13051.608270598445, -12638.369219108728, -187500.02235174447, -187500.02235174447, -0.17400000000000002, 0.732, 0.63, 192.0, 0.0, 0.0, 0.0, 0.0, 0.0, 0.0, 0.0, 0.0, 0.0, 1.729705156076815E9, 0.0, 2024-10-23 23:09:16.076
30.0, -44269.73095771443, -51643.34793607568, -44078.46708041037, -20269.25477615056, -11726.842728476851, -11370.712384070443, -187500.02235174447, -187500.02235174447, -0.17400000000000002, 0.732, 0.63, 192.0, 0.0, 0.0, 0.0, 0.0, 0.0, 0.0, 0.0, 0.0, 0.0, 1.7297051560807304E9, 0.0, 2024-10-23 23:09:16.080
31.0, -44099.56712717618, -52414.70663722833, -35269.01874172911, -19405.13633550839, -12208.902801144457, -12027.04900825608, -187500.02235174447, -187500.02235174447, -0.17400000000000002, 0.732, 0.63, 192.0, 0.0, 0.0, 0.0, 0.0, 0.0, 0.0, 0.0, 0.0, 0.0, 1.729705156083719E9, 0.0, 2024-10-23 23:09:16.083
32.0, -45623.2184914611, -54151.59364361688, -8413.174261233124, -20540.292029415614, -13855.064076788913, -13661.140341894668, -187500.02235174447, -187500.02235174447, -0.17400000000000002, 0.732, 0.63, 192.0, 0.0, 0.0, 0.0, 0.0, 0.0, 0.0, 0.0, 0.0, 0.0, 1.7297051560877383E9, 0.0, 2024-10-23 23:09:16.087
33.0, -46659.08773649785, -54551.98044204479, 1915.8574242421896, -21965.171034952527, -14430.755606979801, -14103.59312338747, -187500.02235174447, -187500.02235174447, -0.17400000000000002, 0.732, 0.63, 192.0, 0.0, 0.0, 0.0, 0.0, 0.0, 0.0, 0.0, 0.0, 0.0, 1.7297051560918107E9, 0.0, 2024-10-23 23:09:16.091
34.0, -45747.40478365478, -52968.29229215292, -19350.531023804073, -21707.902456271942, -13086.454640204269, -12675.227245715529, -187500.02235174447, -187500.02235174447, -0.17400000000000002, 0.728, 0.634, 192.0, 250.0, 144.0, 22.0, 192.0, 19.0, 208.0, 0.0, 0.0, 0.0, 1.729705156094803E9, 0.0, 2024-10-23 23:09:16.094
35.0, -44302.409208108096, -51658.61417753866, -43994.9833148698, -20298.468506153644, -11776.553008145453, -11413.851250869186, -187500.02235174447, -187500.02235174447, -0.17400000000000002, 0.728, 0.634, 192.0, 0.0, 0.0, 0.0, 0.0, 0.0, 0.0, 0.0, 0.0, 0.0, 1.729705156098816E9, 0.0, 2024-10-23 23:09:16.098
36.0, -44110.38537149255, -52409.14105285896, -35442.28946474665, -19414.12173677942, -12231.053379899668, -12034.648601370884, -187500.02235174447, -187500.02235174447, -0.17400000000000002, 0.728, 0.634, 192.0, 0.0, 0.0, 0.0, 0.0, 0.0, 0.0, 0.0, 0.0, 0.0, 1.7297051561047685E9, 0.0, 2024-10-23 23:09:16.104
37.0, -45611.34971515533, -54130.4265416177, -8608.684969983695, -20508.329034844523, -13840.848367315337, -13632.17248108059, -187500.02235174447, -187500.02235174447, -0.17400000000000002, 0.728, 0.634, 192.0, 0.0, 0.0, 0.0, 0.0, 0.0, 0.0, 0.0, 0.0, 0.0, 1.7297051561078303E9, 0.0, 2024-10-23 23:09:16.107
38.0, -46665.748556345534, -54552.13690425598, 2019.9942016594653, -21931.263438613827, -14431.783787224746, -14091.009091259133, -187500.02235174447, -187500.02235174447, -0.17400000000000002, 0.728, 0.634, 192.0, 0.0, 0.0, 0.0, 0.0, 0.0, 0.0, 0.0, 0.0, 0.0, 1.7297051561120143E9, 0.0, 2024-10-23 23:09:16.112
39.0, -45767.409594942284, -52976.94241725712, -19050.81648240286, -21699.654662567933, -13090.790878628599, -12660.922129264132, -187500.02235174447, -187500.02235174447, -0.17400000000000002, 0.728, 0.634, 192.0, 0.0, 0.0, 0.0, 0.0, 0.0, 0.0, 0.0, 0.0, 0.0, 1.7297051561147687E9, 0.0, 2024-10-23 23:09:16.114
40.0, -44302.185690663544, -51638.29644182878, -43930.207959438325, -20283.82811353542, -11749.038010720971, -11360.564692087733, -187500.02235174447, -187500.02235174447, -0.17400000000000002, 0.728, 0.634, 192.0, 0.0, 0.0, 0.0, 0.0, 0.0, 0.0, 0.0, 0.0, 0.0, 1.7297051561178699E9, 0.0, 2024-10-23 23:09:16.117
41.0, -44090.00058054931, -52372.439488463344, -35777.453872853985, -19378.40364913984, -12188.674472412406, -11967.839237193972, -187500.02235174447, -187500.02235174447, -0.17400000000000002, 0.728, 0.634, 192.0, 0.0, 0.0, 0.0, 0.0, 0.0, 0.0, 0.0, 0.0, 0.0, 1.7297051561217756E9, 0.0, 2024-10-23 23:09:16.121
42.0, -45605.292392407944, -54120.27884963499, -8879.252836615186, -20479.271767052625, -13812.998093724025, -13590.64293988263, -187500.02235174447, -187500.02235174447, -0.17400000000000002, 0.728, 0.634, 192.0, 0.0, 0.0, 0.0, 0.0, 0.0, 0.0, 0.0, 0.0, 0.0, 1.7297051561257308E9, 0.0, 2024-10-23 23:09:16.125
43.0, -46668.900152313734, -54562.351651472054, 2153.791743968933, -21911.929179659986, -14414.438833527427, -14066.936262480767, -187500.02235174447, -187500.02235174447, -0.17400000000000002, 0.728, 0.634, 192.0, 0.0, 0.0, 0.0, 0.0, 0.0, 0.0, 0.0, 0.0, 0.0, 1.7297051561297696E9, 0.0, 2024-10-23 23:09:16.129
44.0, -45774.606856656894, -52989.749966830015, -18741.401283908046, -21694.066726454108, -13083.906541336364, -12645.767646523434, -187500.02235174447, -187500.02235174447, -0.17200000000000001, 0.73, 0.64, 192.0, 250.0, 160.0, 22.0, 208.0, 20.0, 0.0, 0.0, 0.0, 0.0, 1.7297051561337986E9, 0.0, 2024-10-23 23:09:16.133
45.0, -44301.02339995187, -51639.74930521838, -43712.52432018809, -20281.30236641197, -11723.668780764197, -11338.771741243809, -187500.02235174447, -187500.02235174447, -0.17200000000000001, 0.73, 0.64, 192.0, 0.0, 0.0, 0.0, 0.0, 0.0, 0.0, 0.0, 0.0, 0.0, 1.7297051561368177E9, 0.0, 2024-10-23 23:09:16.136
46.0, -44062.19501044691, -52347.98668002924, -35797.81631205277, -19353.749675005638, -12140.081779966567, -11929.93067859777, -187500.02235174447, -187500.02235174447, -0.17200000000000001, 0.73, 0.64, 192.0, 0.0, 0.0, 0.0, 0.0, 0.0, 0.0, 0.0, 0.0, 0.0, 1.729705156140796E9, 0.0, 2024-10-23 23:09:16.140
47.0, -45569.77547046846, -54088.56172425291, -9031.490568100282, -20449.655705649344, -13783.426735809653, -13564.558454103286, -187500.02235174447, -187500.02235174447, -0.17200000000000001, 0.73, 0.64, 192.0, 0.0, 0.0, 0.0, 0.0, 0.0, 0.0, 0.0, 0.0, 0.0, 1.7297051561458387E9, 0.0, 2024-10-23 23:09:16.145
48.0, -46648.29184392594, -54548.20299723184, 2036.5344925563925, -21896.99821436384, -14414.327074805151, -14072.9712334837, -187500.02235174447, -187500.02235174447, -0.17200000000000001, 0.73, 0.64, 192.0, 0.0, 0.0, 0.0, 0.0, 0.0, 0.0, 0.0, 0.0, 0.0, 1.7297051561498497E9, 0.0, 2024-10-23 23:09:16.149
49.0, -45780.59712417092, -52998.288333211945, -18682.79500994623, -21695.54194158816, -13090.723823395232, -12665.07955373282, -187500.02235174447, -187500.02235174447, -0.17200000000000001, 0.73, 0.64, 192.0, 0.0, 0.0, 0.0, 0.0, 0.0, 0.0, 0.0, 0.0, 0.0, 1.7297051561538787E9, 0.0, 2024-10-23 23:09:16.153
50.0, -44319.0612577273, -51650.433439068016, -43496.67352398318, -20290.555988616466, -11739.337353627367, -11364.990337489884, -187500.02235174447, -187500.02235174447, -0.17200000000000001, 0.73, 0.64, 192.0, 0.0, 0.0, 0.0, 0.0, 0.0, 0.0, 0.0, 0.0, 0.0, 1.729705156157979E9, 0.0, 2024-10-23 23:09:16.157
51.0, -44078.3553216881, -52349.5065986522, -35765.763910503854, -19368.54652983505, -12150.162416715912, -11953.131789342378, -187500.02235174447, -187500.02235174447, -0.17200000000000001, 0.73, 0.64, 192.0, 0.0, 0.0, 0.0, 0.0, 0.0, 0.0, 0.0, 0.0, 0.0, 1.7297051561608768E9, 0.0, 2024-10-23 23:09:16.160
52.0, -45584.79584274243, -54095.13313712277, -9215.53483194528, -20463.267918022626, -13787.941788189626, -13583.959768290493, -187500.02235174447, -187500.02235174447, -0.17200000000000001, 0.73, 0.64, 192.0, 0.0, 0.0, 0.0, 0.0, 0.0, 0.0, 0.0, 0.0, 0.0, 1.729705156166886E9, 0.0, 2024-10-23 23:09:16.166
53.0, -46654.99736726253, -54560.474104937806, 1895.942019932511, -21902.921426644498, -14412.874211415556, -14090.115021480922, -187500.02235174447, -187500.02235174447, -0.17200000000000001, 0.73, 0.64, 192.0, 0.0, 0.0, 0.0, 0.0, 0.0, 0.0, 0.0, 0.0, 0.0, 1.7297051561700366E9, 0.0, 2024-10-23 23:09:16.170
54.0, -45785.33569399544, -53006.603182149316, -18584.045002942683, -21702.381575391482, -13099.910390366364, -12686.917208065655, -187500.02235174447, -187500.02235174447, -0.17200000000000001, 0.73, 0.63, 192.0, 250.0, 160.0, 22.0, 208.0, 19.0, 176.0, 0.0, 0.0, 0.0, 1.7297051561738527E9, 0.0, 2024-10-23 23:09:16.173
55.0, -44335.333327690765, -51667.554875320784, -43282.45440512352, -20311.097241770894, -11765.690060340174, -11394.964026804451, -187500.02235174447, -187500.02235174447, -0.17200000000000001, 0.73, 0.63, 192.0, 0.0, 0.0, 0.0, 0.0, 0.0, 0.0, 0.0, 0.0, 0.0, 1.7297051561778576E9, 0.0, 2024-10-23 23:09:16.177
56.0, -44078.86941181057, -52353.35109869851, -35773.944648974495, -19381.51054161913, -12156.934995285868, -11965.425248792799, -187500.02235174447, -187500.02235174447, -0.17200000000000001, 0.73, 0.63, 192.0, 0.0, 0.0, 0.0, 0.0, 0.0, 0.0, 0.0, 0.0, 0.0, 1.729705156181848E9, 0.0, 2024-10-23 23:09:16.181
57.0, -45564.00872039899, -54086.684177718664, -9359.033031348352, -20460.943336599274, -13780.655119497194, -13589.92768406006, -187500.02235174447, -187500.02235174447, -0.17200000000000001, 0.73, 0.63, 192.0, 0.0, 0.0, 0.0, 0.0, 0.0, 0.0, 0.0, 0.0, 0.0, 1.7297051561861112E9, 0.0, 2024-10-23 23:09:16.186
58.0, -46643.66503282369, -54569.37009923102, 1922.004153967399, -21902.85437141113, -14422.28429583124, -14114.612533403939, -187500.02235174447, -187500.02235174447, -0.17200000000000001, 0.73, 0.63, 192.0, 0.0, 0.0, 0.0, 0.0, 0.0, 0.0, 0.0, 0.0, 0.0, 1.7297051561888645E9, 0.0, 2024-10-23 23:09:16.188
59.0, -45785.96154284019, -53023.59050793535, -18347.16121520534, -21714.786793564177, -13123.290315066615, -12718.723740425557, -187500.02235174447, -187500.02235174447, -0.17200000000000001, 0.73, 0.63, 192.0, 0.0, 0.0, 0.0, 0.0, 0.0, 0.0, 0.0, 0.0, 0.0, 1.7297051561928816E9, 0.0, 2024-10-23 23:09:16.192
60.0, -44330.79592356634, -51665.43145959753, -43132.13892366159, -20324.620047166354, -11783.146772759768, -11416.35464624818, -187500.02235174447, -187500.02235174447, -0.17200000000000001, 0.73, 0.63, 192.0, 0.0, 0.0, 0.0, 0.0, 0.0, 0.0, 0.0, 0.0, 0.0, 1.7297051561968563E9, 0.0, 2024-10-23 23:09:16.196
61.0, -44056.65177782199, -52337.146083968415, -35967.64486642419, -19380.862341029926, -12151.816445805604, -11963.79357144756, -187500.02235174447, -187500.02235174447, -0.17200000000000001, 0.73, 0.63, 192.0, 0.0, 0.0, 0.0, 0.0, 0.0, 0.0, 0.0, 0.0, 0.0, 1.7297051562019064E9, 0.0, 2024-10-23 23:09:16.201
62.0, -45543.75803992248, -54080.00100612653, -9590.731214372065, -20456.025952819105, -13769.322785058355, -13579.958806032993, -187500.02235174447, -187500.02235174447, -0.17200000000000001, 0.73, 0.63, 192.0, 0.0, 0.0, 0.0, 0.0, 0.0, 0.0, 0.0, 0.0, 0.0, 1.7297051562061713E9, 0.0, 2024-10-23 23:09:16.206
63.0, -46644.00030899052, -54580.05423308066, 1961.9467213090327, -21901.356804532625, -14425.502947032805, -14115.260733993142, -187500.02235174447, -187500.02235174447, -0.17200000000000001, 0.73, 0.63, 192.0, 0.0, 0.0, 0.0, 0.0, 0.0, 0.0, 0.0, 0.0, 0.0, 1.7297051562105196E9, 0.0, 2024-10-23 23:09:16.210
64.0, -45805.85459540541, -53040.04139185446, -18116.245343237562, -21724.755671591243, -13132.476882037745, -12715.840365390823, -187500.02235174447, -187500.02235174447, -0.17, 0.732, 0.632, 192.0, 250.0, 176.0, 22.0, 224.0, 19.0, 192.0, 0.0, 0.0, 0.0, 1.7297051562139912E9, 0.0, 2024-10-23 23:09:16.213
65.0, -44353.79586861085, -51674.1486399351, -43009.69606753541, -20335.952381605195, -11779.168162246724, -11392.326520958724, -187500.02235174447, -187500.02235174447, -0.17, 0.732, 0.632, 192.0, 0.0, 0.0, 0.0, 0.0, 0.0, 0.0, 0.0, 0.0, 0.0, 1.729705156218135E9, 0.0, 2024-10-23 23:09:16.218
66.0, -44069.90636228399, -52329.16651119787, -36159.24401989508, -19372.07810545899, -12129.084721694557, -11917.748977869627, -187500.02235174447, -187500.02235174447, -0.17, 0.732, 0.632, 192.0, 0.0, 0.0, 0.0, 0.0, 0.0, 0.0, 0.0, 0.0, 0.0, 1.7297051562209318E9, 0.0, 2024-10-23 23:09:16.220
67.0, -45546.86493240177, -54075.21773281309, -9833.962897534717, -20432.400158929846, -13730.251935750477, -13534.852985722184, -187500.02235174447, -187500.02235174447, -0.17, 0.732, 0.632, 192.0, 0.0, 0.0, 0.0, 0.0, 0.0, 0.0, 0.0, 0.0, 0.0, 1.7297051562249582E9, 0.0, 2024-10-23 23:09:16.224
68.0, -46645.18495144665, -54588.61495120704, 1930.8330930272452, -21877.37338273208, -14388.957844848377, -14074.044117217556, -187500.02235174447, -187500.02235174447, -0.17, 0.732, 0.632, 192.0, 0.0, 0.0, 0.0, 0.0, 0.0, 0.0, 0.0, 0.0, 0.0, 1.729705156230912E9, 0.0, 2024-10-23 23:09:16.230
69.0, -45828.563967772, -53062.68370898768, -17975.5411118914, -21718.430127910393, -13120.138719098417, -12690.918170323155, -187500.02235174447, -187500.02235174447, -0.17, 0.732, 0.632, 192.0, 0.0, 0.0, 0.0, 0.0, 0.0, 0.0, 0.0, 0.0, 0.0, 1.7297051562350748E9, 0.0, 2024-10-23 23:09:16.235
70.0, -44382.13788058017, -51685.033939484834, -42917.11514200153, -20329.40332047979, -11770.071002253415, -11367.404325891057, -187500.02235174447, -187500.02235174447, -0.17, 0.732, 0.632, 192.0, 0.0, 0.0, 0.0, 0.0, 0.0, 0.0, 0.0, 0.0, 0.0, 1.7297051562389376E9, 0.0, 2024-10-23 23:09:16.238
71.0, -44075.71781584237, -52316.247202902705, -36325.876274809394, -19354.040247683555, -12110.264552863187, -11893.340872924433, -187500.02235174447, -187500.02235174447, -0.17, 0.732, 0.632, 192.0, 0.0, 0.0, 0.0, 0.0, 0.0, 0.0, 0.0, 0.0, 0.0, 1.7297051562440207E9, 0.0, 2024-10-23 23:09:16.244
72.0, -45542.59574921081, -54062.566645451385, -10072.99245273977, -20412.976492998183, -13722.942915313592, -13525.509956539865, -187500.02235174447, -187500.02235174447, -0.17, 0.732, 0.632, 192.0, 0.0, 0.0, 0.0, 0.0, 0.0, 0.0, 0.0, 0.0, 0.0, 1.7297051562471583E9, 0.0, 2024-10-23 23:09:16.247
73.0, -46633.69615479662, -54581.97648310381, 1893.1480518755975, -21858.08382726715, -14392.8470483836, -14081.353137654442, -187500.02235174447, -187500.02235174447, -0.17, 0.732, 0.632, 192.0, 0.0, 0.0, 0.0, 0.0, 0.0, 0.0, 0.0, 0.0, 0.0, 1.729705156249941E9, 0.0, 2024-10-23 23:09:16.249
74.0, -45821.43376129076, -53068.115182890324, -17816.553153580804, -21720.5758953781, -13135.181443116839, -12714.253391534496, -187500.02235174447, -187500.02235174447, -0.166, 0.726, 0.632, 192.0, 250.0, 208.0, 22.0, 176.0, 19.0, 192.0, 0.0, 0.0, 0.0, 1.7297051562539566E9, 0.0, 2024-10-23 23:09:16.253
75.0, -44373.152479309145, -51691.62770409915, -42779.294285690106, -20347.5529369775, -11787.728880373106, -11395.96985530494, -187500.02235174447, -187500.02235174447, -0.166, 0.726, 0.632, 192.0, 0.0, 0.0, 0.0, 0.0, 0.0, 0.0, 0.0, 0.0, 0.0, 1.729705156256976E9, 0.0, 2024-10-23 23:09:16.256
76.0, -44050.41564111896, -52309.54167956611, -36423.53104633463, -19369.1723786798, -12109.817517974081, -11906.21547773069, -187500.02235174447, -187500.02235174447, -0.166, 0.726, 0.632, 192.0, 0.0, 0.0, 0.0, 0.0, 0.0, 0.0, 0.0, 0.0, 0.0, 1.7297051562619705E9, 0.0, 2024-10-23 23:09:16.261
77.0, -45515.52778667543, -54049.04384005593, -10203.817213036682, -20417.08921397796, -13718.04788327788, -13532.10372115418, -187500.02235174447, -187500.02235174447, -0.166, 0.726, 0.632, 192.0, 0.0, 0.0, 0.0, 0.0, 0.0, 0.0, 0.0, 0.0, 0.0, 1.7297051562659695E9, 0.0, 2024-10-23 23:09:16.265
78.0, -46626.36478261528, -54583.89873312697, 1976.3412447382505, -21867.650373894023, -14404.872286900556, -14106.78942284458, -187500.02235174447, -187500.02235174447, -0.166, 0.726, 0.632, 192.0, 0.0, 0.0, 0.0, 0.0, 0.0, 0.0, 0.0, 0.0, 0.0, 1.7297051562700784E9, 0.0, 2024-10-23 23:09:16.270
79.0, -45833.10137189643, -53071.44559281416, -17527.925077429423, -21742.458253199846, -13153.934556714841, -12742.99773490402, -187500.02235174447, -187500.02235174447, -0.166, 0.726, 0.632, 192.0, 0.0, 0.0, 0.0, 0.0, 0.0, 0.0, 0.0, 0.0, 0.0, 1.729705156273073E9, 0.0, 2024-10-23 23:09:16.273
80.0, -44388.93281089459, -51680.27301791585, -42578.97795188164, -20372.31866983398, -11804.872668370328, -11416.622867181644, -187500.02235174447, -187500.02235174447, -0.166, 0.726, 0.632, 192.0, 0.0, 0.0, 0.0, 0.0, 0.0, 0.0, 0.0, 0.0, 0.0, 1.7297051562770054E9, 0.0, 2024-10-23 23:09:16.277
81.0, -44045.78883001672, -52280.05972862956, -36548.209076906336, -19374.402686882342, -12108.409358073397, -11911.177564999767, -187500.02235174447, -187500.02235174447, -0.166, 0.726, 0.632, 192.0, 0.0, 0.0, 0.0, 0.0, 0.0, 0.0, 0.0, 0.0, 0.0, 1.7297051562810564E9, 0.0, 2024-10-23 23:09:16.281
82.0, -45486.89520202818, -54008.54247910291, -10399.417328765074, -20397.4643823462, -13699.47358363552, -13519.989075659405, -187500.02235174447, -187500.02235174447, -0.166, 0.726, 0.632, 192.0, 0.0, 0.0, 0.0, 0.0, 0.0, 0.0, 0.0, 0.0, 0.0, 1.7297051562850845E9, 0.0, 2024-10-23 23:09:16.285
83.0, -46607.27639285045, -54556.11551476902, 1965.4112416996054, -21843.421082904468, -14400.871324643056, -14103.548419898561, -187500.02235174447, -187500.02235174447, -0.166, 0.726, 0.632, 192.0, 0.0, 0.0, 0.0, 0.0, 0.0, 0.0, 0.0, 0.0, 0.0, 1.7297051562900372E9, 0.0, 2024-10-23 23:09:16.290
84.0, -45837.750534743136, -53062.862522943324, -17354.140264289414, -21746.034532312697, -13173.045298224128, -12763.33782235835, -187500.02235174447, -187500.02235174447, -0.168, 0.722, 0.64, 192.0, 250.0, 192.0, 22.0, 144.0, 20.0, 0.0, 0.0, 0.0, 0.0, 1.7297051562940247E9, 0.0, 2024-10-23 23:09:16.294
85.0, -44392.710255707534, -51670.147677677596, -42364.177687666146, -20381.348774593924, -11816.517927231542, -11426.234117297427, -187500.02235174447, -187500.02235174447, -0.168, 0.722, 0.64, 192.0, 0.0, 0.0, 0.0, 0.0, 0.0, 0.0, 0.0, 0.0, 0.0, 1.7297051562980123E9, 0.0, 2024-10-23 23:09:16.298
86.0, -44043.21837940435, -52264.77113542213, -36590.632687882506, -19376.012012483123, -12112.276209864165, -11903.73443409615, -187500.02235174447, -187500.02235174447, -0.168, 0.722, 0.64, 192.0, 0.0, 0.0, 0.0, 0.0, 0.0, 0.0, 0.0, 0.0, 0.0, 1.7297051563010283E9, 0.0, 2024-10-23 23:09:16.301
87.0, -45479.22855368001, -53998.01480746446, -10600.694787585115, -20389.015422942095, -13700.211191202545, -13507.941485397994, -187500.02235174447, -187500.02235174447, -0.168, 0.722, 0.64, 192.0, 0.0, 0.0, 0.0, 0.0, 0.0, 0.0, 0.0, 0.0, 0.0, 1.7297051563050067E9, 0.0, 2024-10-23 23:09:16.305
88.0, -46590.669046720155, -54554.70735486834, 1863.107307327665, -21831.239382176325, -14395.216333295863, -14083.700070822248, -187500.02235174447, -187500.02235174447, -0.168, 0.722, 0.64, 192.0, 0.0, 0.0, 0.0, 0.0, 0.0, 0.0, 0.0, 0.0, 0.0, 1.729705156309064E9, 0.0, 2024-10-23 23:09:16.309
89.0, -45832.721392240695, -53080.16277315173, -17259.011239887626, -21745.520442190224, -13178.812048293597, -12746.439903550137, -187500.02235174447, -187500.02235174447, -0.168, 0.722, 0.64, 192.0, 0.0, 0.0, 0.0, 0.0, 0.0, 0.0, 0.0, 0.0, 0.0, 1.7297051563130696E9, 0.0, 2024-10-23 23:09:16.313
90.0, -44409.47406404901, -51704.65877111659, -42270.65798886514, -20408.930827251774, -11836.567442007952, -11423.194280051504, -187500.02235174447, -187500.02235174447, -0.168, 0.722, 0.64, 192.0, 0.0, 0.0, 0.0, 0.0, 0.0, 0.0, 0.0, 0.0, 0.0, 1.729705156317057E9, 0.0, 2024-10-23 23:09:16.317
91.0, -44039.73150726932, -52274.04710937108, -36740.590541433165, -19395.435678414786, -12104.207230115799, -11875.750050038107, -187500.02235174447, -187500.02235174447, -0.168, 0.722, 0.64, 192.0, 0.0, 0.0, 0.0, 0.0, 0.0, 0.0, 0.0, 0.0, 0.0, 1.7297051563220942E9, 0.0, 2024-10-23 23:09:16.322
92.0, -45473.32769314381, -54008.497775614, -10803.961551661678, -20402.314710893002, -13685.95077824006, -13476.00084257136, -187500.02235174447, -187500.02235174447, -0.168, 0.722, 0.64, 192.0, 0.0, 0.0, 0.0, 0.0, 0.0, 0.0, 0.0, 0.0, 0.0, 1.729705156326063E9, 0.0, 2024-10-23 23:09:16.326
93.0, -46599.609744502275, -54583.45169823786, 1841.0684872947322, -21852.071208008674, -14399.485516486826, -14073.060640461523, -187500.02235174447, -187500.02235174447, -0.168, 0.722, 0.64, 192.0, 0.0, 0.0, 0.0, 0.0, 0.0, 0.0, 0.0, 0.0, 0.0, 1.729705156329087E9, 0.0, 2024-10-23 23:09:16.329
94.0, -45855.52017158511, -53114.09272123489, -17105.454755479666, -21780.03153562922, -13193.363033934002, -12748.898595440221, -187500.02235174447, -187500.02235174447, -0.176, 0.73, 0.64, 192.0, 250.0, 128.0, 22.0, 208.0, 20.0, 0.0, 0.0, 0.0, 0.0, 1.7297051563330593E9, 0.0, 2024-10-23 23:09:16.333
95.0, -44418.995907186974, -51715.99110555543, -42137.26277795587, -20434.791795586563, -11830.085436115914, -11407.190431021505, -187500.02235174447, -187500.02235174447, -0.176, 0.73, 0.64, 192.0, 0.0, 0.0, 0.0, 0.0, 0.0, 0.0, 0.0, 0.0, 0.0, 1.7297051563370745E9, 0.0, 2024-10-23 23:09:16.337
96.0, -44033.85299847758, -52271.364900036446, -36889.92254613907, -19408.109117520944, -12086.549351996107, -11854.20296838319, -187500.02235174447, -187500.02235174447, -0.176, 0.73, 0.64, 192.0, 0.0, 0.0, 0.0, 0.0, 0.0, 0.0, 0.0, 0.0, 0.0, 1.7297051563410804E9, 0.0, 2024-10-23 23:09:16.341
97.0, -45464.208181406044, -54010.37532214825, -11002.445042424804, -20407.589722584453, -13676.786563013384, -13472.75983962534, -187500.02235174447, -187500.02235174447, -0.176, 0.73, 0.64, 192.0, 0.0, 0.0, 0.0, 0.0, 0.0, 0.0, 0.0, 0.0, 0.0, 1.7297051563460908E9, 0.0, 2024-10-23 23:09:16.346
98.0, -46603.253078848495, -54611.8384136961, 1916.4832730869382, -21868.23151924986, -14414.036502127232, -14101.603818130949, -187500.02235174447, -187500.02235174447, -0.176, 0.73, 0.64, 192.0, 0.0, 0.0, 0.0, 0.0, 0.0, 0.0, 0.0, 0.0, 0.0, 1.7297051563501005E9, 0.0, 2024-10-23 23:09:16.350
99.0, -45867.18778219078, -53148.648518162794, -16821.60995264172, -21810.429908088438, -13212.13849927646, -12788.304720914928, -187500.02235174447, -187500.02235174447, -0.176, 0.73, 0.64, 192.0, 0.0, 0.0, 0.0, 0.0, 0.0, 0.0, 0.0, 0.0, 0.0, 1.7297051563541176E9, 0.0, 2024-10-23 23:09:16.354
100.0, -44416.09018040779, -51727.61401267219, -42021.30192772173, -20456.249470263658, -11830.085436115914, -11429.050437098795, -187500.02235174447, -187500.02235174447, -0.176, 0.73, 0.64, 192.0, 0.0, 0.0, 0.0, 0.0, 0.0, 0.0, 0.0, 0.0, 0.0, 1.72970515635712E9, 0.0, 2024-10-23 23:09:16.357
101.0, -44011.05421913317, -52262.7371266767, -37141.78200266147, -19411.193658255776, -12067.930348864837, -11863.613052798873, -187500.02235174447, -187500.02235174447, -0.176, 0.73, 0.64, 192.0, 0.0, 0.0, 0.0, 0.0, 0.0, 0.0, 0.0, 0.0, 0.0, 1.7297051563611095E9, 0.0, 2024-10-23 23:09:16.361
102.0, -45442.92932068459, -54009.995342492504, -11244.626193598056, -20407.522667351088, -13668.382307098187, -13492.3846712571, -187500.02235174447, -187500.02235174447, -0.176, 0.73, 0.64, 192.0, 0.0, 0.0, 0.0, 0.0, 0.0, 0.0, 0.0, 0.0, 0.0, 1.729705156365141E9, 0.0, 2024-10-23 23:09:16.365
103.0, -46591.8983926652, -54615.36998932004, 1936.711601818991, -21866.465731437893, -14418.193926595919, -14130.504623711662, -187500.02235174447, -187500.02235174447, -0.176, 0.73, 0.64, 192.0, 0.0, 0.0, 0.0, 0.0, 0.0, 0.0, 0.0, 0.0, 0.0, 1.7297051563692913E9, 0.0, 2024-10-23 23:09:16.369
104.0, -45863.11976469991, -53147.68739315122, -16634.21292712843, -21809.17821039894, -13222.442653470356, -12814.746834605556, -187500.02235174447, -187500.02235174447, -0.18, 0.726, 0.636, 192.0, 250.0, 96.0, 22.0, 176.0, 19.0, 224.0, 0.0, 0.0, 0.0, 1.729705156373104E9, 0.0, 2024-10-23 23:09:16.373
105.0, -44409.47406404901, -51715.231146243954, -41858.42476587591, -20454.95306908525, -11835.829834440927, -11444.674306473054, -187500.02235174447, -187500.02235174447, -0.18, 0.726, 0.636, 192.0, 0.0, 0.0, 0.0, 0.0, 0.0, 0.0, 0.0, 0.0, 0.0, 1.7297051563781643E9, 0.0, 2024-10-23 23:09:16.378
106.0, -43999.99010562779, -52233.411637951336, -37202.35523013535, -19394.094573747465, -12061.046011572602, -11855.924052706248, -187500.02235174447, -187500.02235174447, -0.18, 0.726, 0.636, 192.0, 0.0, 0.0, 0.0, 0.0, 0.0, 0.0, 0.0, 0.0, 0.0, 1.7297051563821998E9, 0.0, 2024-10-23 23:09:16.382
107.0, -45432.46870427951, -53984.64846428019, -11416.466404970457, -20381.75110599412, -13660.067458160813, -13478.57129318372, -187500.02235174447, -187500.02235174447, -0.18, 0.726, 0.636, 192.0, 0.0, 0.0, 0.0, 0.0, 0.0, 0.0, 0.0, 0.0, 0.0, 1.7297051563851707E9, 0.0, 2024-10-23 23:09:16.385
108.0, -46597.15105261219, -54615.504099786776, 1858.1899235474973, -21848.494928895823, -14430.643848257525, -14133.432702235306, -187500.02235174447, -187500.02235174447, -0.18, 0.726, 0.636, 192.0, 0.0, 0.0, 0.0, 0.0, 0.0, 0.0, 0.0, 0.0, 0.0, 1.729705156390159E9, 0.0, 2024-10-23 23:09:16.390
109.0, -45882.006988764646, -53163.534779970025, -16530.210260177882, -21817.69422503641, -13250.829368928597, -12829.25311675705, -187500.02235174447, -187500.02235174447, -0.18, 0.726, 0.636, 192.0, 0.0, 0.0, 0.0, 0.0, 0.0, 0.0, 0.0, 0.0, 0.0, 1.7297051563941777E9, 0.0, 2024-10-23 23:09:16.394
110.0, -44426.4390380906, -51722.04842830282, -41720.96153747577, -20467.537101213587, -11861.266119631067, -11452.005678654396, -187500.02235174447, -187500.02235174447, -0.18, 0.726, 0.636, 192.0, 0.0, 0.0, 0.0, 0.0, 0.0, 0.0, 0.0, 0.0, 0.0, 1.7297051563971689E9, 0.0, 2024-10-23 23:09:16.397
111.0, -43996.77145442623, -52221.25228896765, -37297.059571392485, -19399.101364505455, -12068.1985697983, -11850.291413103512, -187500.02235174447, -187500.02235174447, -0.18, 0.726, 0.636, 192.0, 0.0, 0.0, 0.0, 0.0, 0.0, 0.0, 0.0, 0.0, 0.0, 1.7297051564011407E9, 0.0, 2024-10-23 23:09:16.401
112.0, -45418.45416050603, -53963.68252798111, -11605.070424684338, -20371.961041922696, -13659.620423271708, -13468.356545967645, -187500.02235174447, -187500.02235174447, -0.18, 0.726, 0.636, 192.0, 0.0, 0.0, 0.0, 0.0, 0.0, 0.0, 0.0, 0.0, 0.0, 1.7297051564052E9, 0.0, 2024-10-23 23:09:16.405
113.0, -46588.858555419276, -54604.99877989278, 1808.2114229454307, -21835.977952000852, -14435.605935526602, -14130.146995800376, -187500.02235174447, -187500.02235174447, -0.18, 0.726, 0.636, 192.0, 0.0, 0.0, 0.0, 0.0, 0.0, 0.0, 0.0, 0.0, 0.0, 1.7297051564091716E9, 0.0, 2024-10-23 23:09:16.409
114.0, -45886.90202080036, -53160.85257063539, -16384.588645051557, -21812.866248234066, -13261.312337078136, -12829.990724324076, -187500.02235174447, -187500.02235174447, -0.18, 0.726, 0.636, 192.0, 0.0, 0.0, 0.0, 0.0, 0.0, 0.0, 0.0, 0.0, 0.0, 1.7297051564131796E9, 0.0, 2024-10-23 23:09:16.413
115.0, -44437.6372620627, -51715.40996019959, -41597.93753599376, -20469.749923914664, -11867.412849356277, -11446.417742540569, -187500.02235174447, -187500.02235174447, -0.182, 0.728, 0.634, 192.0, 250.0, 80.0, 22.0, 192.0, 19.0, 208.0, 0.0, 0.0, 0.0, 1.7297051564203331E9, 0.0, 2024-10-23 23:09:16.420
116.0, -43996.8832131485, -52205.31549517102, -37472.00667524418, -19393.625187113907, -12057.849712115492, -11827.939668648205, -187500.02235174447, -187500.02235174447, -0.182, 0.728, 0.634, 192.0, 0.0, 0.0, 0.0, 0.0, 0.0, 0.0, 0.0, 0.0, 0.0, 1.729705156424214E9, 0.0, 2024-10-23 23:09:16.424
117.0, -45417.98477387247, -53958.72044071203, -11805.43146198171, -20363.489730774134, -13649.405676055632, -13450.788074825774, -187500.02235174447, -187500.02235174447, -0.182, 0.728, 0.634, 192.0, 0.0, 0.0, 0.0, 0.0, 0.0, 0.0, 0.0, 0.0, 0.0, 1.7297051564272149E9, 0.0, 2024-10-23 23:09:16.427
118.0, -46602.761340470475, -54624.17657663544, 1884.9449616605, -21842.258792192795, -14442.110293163098, -14132.873908623924, -187500.02235174447, -187500.02235174447, -0.182, 0.728, 0.634, 192.0, 0.0, 0.0, 0.0, 0.0, 0.0, 0.0, 0.0, 0.0, 0.0, 1.7297051564312475E9, 0.0, 2024-10-23 23:09:16.431
119.0, -45920.586099694505, -53190.245114594116, -16096.362900300373, -21844.89629803852, -13285.63103504551, -12845.905166376253, -187500.02235174447, -187500.02235174447, -0.182, 0.728, 0.634, 192.0, 0.0, 0.0, 0.0, 0.0, 0.0, 0.0, 0.0, 0.0, 0.0, 1.7297051564342682E9, 0.0, 2024-10-23 23:09:16.434
120.0, -44458.156163472675, -51727.56930918328, -41435.88738869278, -20507.34555808849, -11881.06976521847, -11453.257376343892, -187500.02235174447, -187500.02235174447, -0.182, 0.728, 0.634, 192.0, 0.0, 0.0, 0.0, 0.0, 0.0, 0.0, 0.0, 0.0, 0.0, 1.729705156437214E9, 0.0, 2024-10-23 23:09:16.437
121.0, -43985.81909964313, -52190.45158510823, -37657.68261643441, -19412.713576878738, -12030.580583880019, -11811.757005662563, -187500.02235174447, -187500.02235174447, -0.182, 0.728, 0.634, 192.0, 0.0, 0.0, 0.0, 0.0, 0.0, 0.0, 0.0, 0.0, 0.0, 1.7297051564412909E9, 0.0, 2024-10-23 23:09:16.441
122.0, -45406.69714292254, -53956.6864319666, -12039.051895028579, -20376.49844604712, -13630.406693268622, -13447.480016646388, -187500.02235174447, -187500.02235174447, -0.182, 0.728, 0.634, 192.0, 0.0, 0.0, 0.0, 0.0, 0.0, 0.0, 0.0, 0.0, 0.0, 1.7297051564452925E9, 0.0, 2024-10-23 23:09:16.445
123.0, -46596.480500278536, -54632.17850115043, 1857.8322956362124, -21859.89431856803, -14437.729351249856, -14146.150844830376, -187500.02235174447, -187500.02235174447, -0.182, 0.728, 0.634, 192.0, 0.0, 0.0, 0.0, 0.0, 0.0, 0.0, 0.0, 0.0, 0.0, 1.7297051564503157E9, 0.0, 2024-10-23 23:09:16.450
124.0, -45918.55209094907, -53199.92341994327, -15955.435151509662, -21872.388943718546, -13289.922569980929, -12869.016870143041, -187500.02235174447, -187500.02235174447, -0.182, 0.728, 0.634, 192.0, 0.0, 0.0, 0.0, 0.0, 0.0, 0.0, 0.0, 0.0, 0.0, 1.7297051564533052E9, 0.0, 2024-10-23 23:09:16.453
125.0, -44462.80532631938, -51736.95704185451, -41308.63890750872, -20539.53207010413, -11872.129067436346, -11470.825847485763, -187500.02235174447, -187500.02235174447, -0.176, 0.728, 0.636, 192.0, 250.0, 128.0, 22.0, 192.0, 19.0, 224.0, 0.0, 0.0, 0.0, 1.7297051564583044E9, 0.0, 2024-10-23 23:09:16.458
126.0, -43984.299181020164, -52190.58569557497, -37755.71736761539, -19435.266487034143, -12020.544650619586, -11814.103938830369, -187500.02235174447, -187500.02235174447, -0.176, 0.728, 0.636, 192.0, 0.0, 0.0, 0.0, 0.0, 0.0, 0.0, 0.0, 0.0, 0.0, 1.729705156461227E9, 0.0, 2024-10-23 23:09:16.461
127.0, -45397.041189317846, -53947.11988533973, -12226.89595543098, -20375.60437626891, -13622.02478909788, -13444.70840033393, -187500.02235174447, -187500.02235174447, -0.176, 0.728, 0.636, 192.0, 0.0, 0.0, 0.0, 0.0, 0.0, 0.0, 0.0, 0.0, 0.0, 1.7297051564652495E9, 0.0, 2024-10-23 23:09:16.465
128.0, -46603.65541024869, -54642.05797219968, 1763.2844165902636, -21857.03329527775, -14448.637002544046, -14163.965185161256, -187500.02235174447, -187500.02235174447, -0.176, 0.728, 0.636, 192.0, 0.0, 0.0, 0.0, 0.0, 0.0, 0.0, 0.0, 0.0, 0.0, 1.729705156469273E9, 0.0, 2024-10-23 23:09:16.469
129.0, -45934.75710567917, -53220.0623416975, -15880.04271746191, -21875.652298409022, -13305.233514932814, -12892.374443098837, -187500.02235174447, -187500.02235174447, -0.176, 0.728, 0.636, 192.0, 0.0, 0.0, 0.0, 0.0, 0.0, 0.0, 0.0, 0.0, 0.0, 1.7297051564732802E9, 0.0, 2024-10-23 23:09:16.473
130.0, -44477.244553237506, -51751.15039958363, -41202.80339751284, -20540.15791894888, -11894.391404913833, -11489.444850617034, -187500.02235174447, -187500.02235174447, -0.176, 0.728, 0.636, 192.0, 0.0, 0.0, 0.0, 0.0, 0.0, 0.0, 0.0, 0.0, 0.0, 1.729705156478335E9, 0.0, 2024-10-23 23:09:16.478
131.0, -43983.539221708685, -52182.18143965977, -37868.34780792568, -19418.726196137213, -12026.847842555982, -11813.366331263343, -187500.02235174447, -187500.02235174447, -0.176, 0.728, 0.636, 192.0, 0.0, 0.0, 0.0, 0.0, 0.0, 0.0, 0.0, 0.0, 0.0, 1.7297051564812913E9, 0.0, 2024-10-23 23:09:16.481
132.0, -45383.00429379992, -53927.360943241234, -12407.07336748521, -20343.976657864652, -13607.74202439094, -13425.776472780284, -187500.02235174447, -187500.02235174447, -0.176, 0.728, 0.636, 192.0, 0.0, 0.0, 0.0, 0.0, 0.0, 0.0, 0.0, 0.0, 0.0, 1.729705156485368E9, 0.0, 2024-10-23 23:09:16.485
133.0, -46587.58450598532, -54631.28443137222, 1734.1600935649985, -21819.817640759666, -14435.494176804326, -14146.79904541958, -187500.02235174447, -187500.02235174447, -0.176, 0.728, 0.636, 192.0, 0.0, 0.0, 0.0, 0.0, 0.0, 0.0, 0.0, 0.0, 0.0, 1.7297051564894125E9, 0.0, 2024-10-23 23:09:16.489
134.0, -45930.39851551039, -53225.91849874479, -15734.756378502416, -21856.340391199636, -13302.081918964615, -12884.394870328293, -187500.02235174447, -187500.02235174447, -0.176, 0.728, 0.636, 192.0, 0.0, 0.0, 0.0, 0.0, 0.0, 0.0, 0.0, 0.0, 0.0, 1.7297051564934163E9, 0.0, 2024-10-23 23:09:16.493
135.0, -44471.589561890316, -51746.76945767039, -41135.70346065801, -20521.337750117513, -11883.886085019838, -11465.46142881649, -187500.02235174447, -187500.02235174447, -0.178, 0.726, 0.64, 192.0, 250.0, 112.0, 22.0, 176.0, 20.0, 0.0, 0.0, 0.0, 0.0, 1.7297051564973602E9, 0.0, 2024-10-23 23:09:16.497
136.0, -43971.379872724996, -52163.80830571751, -38149.756270617996, -19397.201466226754, -12007.1336039464, -11775.502476156054, -187500.02235174447, -187500.02235174447, -0.178, 0.726, 0.64, 192.0, 0.0, 0.0, 0.0, 0.0, 0.0, 0.0, 0.0, 0.0, 0.0, 1.7297051565013995E9, 0.0, 2024-10-23 23:09:16.501
137.0, -45367.02279651437, -53911.8264808448, -12667.046507244886, -20316.77458486254, -13581.702242100508, -13390.259550840801, -187500.02235174447, -187500.02235174447, -0.178, 0.726, 0.64, 192.0, 0.0, 0.0, 0.0, 0.0, 0.0, 0.0, 0.0, 0.0, 0.0, 1.729705156506441E9, 0.0, 2024-10-23 23:09:16.506
138.0, -46589.81968043085, -54639.64398379851, 1838.073353537721, -21804.305530107682, -14430.643848257525, -14128.872946366424, -187500.02235174447, -187500.02235174447, -0.178, 0.726, 0.64, 192.0, 0.0, 0.0, 0.0, 0.0, 0.0, 0.0, 0.0, 0.0, 0.0, 1.7297051565094316E9, 0.0, 2024-10-23 23:09:16.509
139.0, -45952.52674252114, -53242.34703091944, -15426.369360252544, -21856.407446433004, -13314.375378415034, -12877.197608613684, -187500.02235174447, -187500.02235174447, -0.178, 0.726, 0.64, 192.0, 0.0, 0.0, 0.0, 0.0, 0.0, 0.0, 0.0, 0.0, 0.0, 1.7297051565134275E9, 0.0, 2024-10-23 23:09:16.513
140.0, -44491.84024236682, -51749.831646660765, -41029.75619193986, -20527.596238565, -11883.439050130732, -11450.530463520345, -187500.02235174447, -187500.02235174447, -0.178, 0.726, 0.64, 192.0, 0.0, 0.0, 0.0, 0.0, 0.0, 0.0, 0.0, 0.0, 0.0, 1.7297051565174208E9, 0.0, 2024-10-23 23:09:16.517
141.0, -43965.0766807886, -52139.9589943837, -38399.335849205956, -19386.718498077214, -11983.485458312685, -11743.472426351598, -187500.02235174447, -187500.02235174447, -0.178, 0.726, 0.64, 192.0, 0.0, 0.0, 0.0, 0.0, 0.0, 0.0, 0.0, 0.0, 0.0, 1.72970515652132E9, 0.0, 2024-10-23 23:09:16.521
142.0, -45360.09375573323, -53902.1705272401, -12891.368614598348, -20300.033128265517, -13573.320337929767, -13376.826152423162, -187500.02235174447, -187500.02235174447, -0.178, 0.726, 0.64, 192.0, 0.0, 0.0, 0.0, 0.0, 0.0, 0.0, 0.0, 0.0, 0.0, 1.7297051565254264E9, 0.0, 2024-10-23 23:09:16.525
