%OpenBCI Raw EXG Data
%Number of channels = 8
%Sample Rate = 250 Hz
%Board = OpenBCI_GUI$BoardCytonSerial
Sample Index, EXG Channel 0, EXG Channel 1, EXG Channel 2, EXG Channel 3, EXG Channel 4, EXG Channel 5, EXG Channel 6, EXG Channel 7, Accel Channel 0, Accel Channel 1, Accel Channel 2, Other, Other, Other, Other, Other, Other, Other, Analog Channel 0, Analog Channel 1, Analog Channel 2, Timestamp, Other, Timestamp (Formatted)
0.0, 0.0, 0.0, 0.0, 0.0, 0.0, 0.0, 0.0, 0.0, 0.11, 0.9500000000000001, 0.20800000000000002, 192.0, 3.0, 112.0, 29.0, 176.0, 6.0, 128.0, 0.0, 0.0, 0.0, 1.7297108689229674E9, 0.0, 2024-10-24 00:44:28.922
1.0, -50318.11300732053, -51554.45504837693, -53351.64706130589, -58300.92678081117, -57711.04189289116, -50587.29506579579, 11045.405095267904, 36943.522029342894, 0.11, 0.9500000000000001, 0.20800000000000002, 192.0, 0.0, 0.0, 0.0, 0.0, 0.0, 0.0, 0.0, 0.0, 0.0, 1.7297108689388876E9, 0.0, 2024-10-24 00:44:28.938
2.0, -50342.31994656562, -51590.88839183908, -53385.24173322222, -58339.19296731865, -57755.119532957026, -50629.13753141613, 11421.07086432825, 37362.75134834663, 0.11, 0.9500000000000001, 0.20800000000000002, 192.0, 0.0, 0.0, 0.0, 0.0, 0.0, 0.0, 0.0, 0.0, 0.0, 1.729710868941908E9, 0.0, 2024-10-24 00:44:28.941
3.0, -50380.228505161824, -51616.70465668496, -53416.24360278173, -58360.15890361773, -57780.354652447066, -50643.84497926772, 11738.71150478262, 37701.93907045592, 0.11, 0.9500000000000001, 0.20800000000000002, 192.0, 0.0, 0.0, 0.0, 0.0, 0.0, 0.0, 0.0, 0.0, 0.0, 1.729710868945931E9, 0.0, 2024-10-24 00:44:28.945
4.0, -50356.28978685019, -51577.32088295471, -53380.92784654234, -58314.65075190672, -57733.460692579836, -50583.897600638586, 11468.143638151127, 37388.858185870435, 0.11, 0.9500000000000001, 0.20800000000000002, 192.0, 0.0, 0.0, 0.0, 0.0, 0.0, 0.0, 0.0, 0.0, 0.0, 1.7297108689489143E9, 0.0, 2024-10-24 00:44:28.948
5.0, -50323.63388820099, -51546.050792461734, -53343.063991435054, -58281.21254220159, -57683.862171633504, -50551.018184544824, 11069.85790370201, 36952.10509921373, 0.11, 0.9500000000000001, 0.20800000000000002, 192.0, 0.0, 0.0, 0.0, 0.0, 0.0, 0.0, 0.0, 0.0, 0.0, 1.7297108689530191E9, 0.0, 2024-10-24 00:44:28.953
6.0, -50305.32780949209, -51547.21308317341, -53334.36916284194, -58287.53808588244, -57691.23824730376, -50566.10561205216, 11055.843359928533, 36952.93211375858, 0.11, 0.9500000000000001, 0.20800000000000002, 192.0, 0.0, 0.0, 0.0, 0.0, 0.0, 0.0, 0.0, 0.0, 0.0, 1.7297108689570081E9, 0.0, 2024-10-24 00:44:28.957
7.0, -50331.501702249254, -51582.64059813507, -53372.21066620477, -58325.379589245276, -57748.63752706499, -50609.69151374001, 11444.942527406518, 37382.10795904493, 0.11, 0.9500000000000001, 0.20800000000000002, 192.0, 0.0, 0.0, 0.0, 0.0, 0.0, 0.0, 0.0, 0.0, 0.0, 1.729710868961018E9, 0.0, 2024-10-24 00:44:28.961
8.0, -50361.76596424174, -51597.97389483141, -53401.06676829657, -58338.14243532925, -57782.34395770359, -50622.99080169092, 11746.601670575343, 37706.78939900272, 0.108, 0.9520000000000001, 0.20600000000000002, 192.0, 3.0, 96.0, 29.0, 192.0, 6.0, 112.0, 0.0, 0.0, 0.0, 1.7297108689662943E9, 0.0, 2024-10-24 00:44:28.966
9.0, -50349.09252513558, -51565.80973456022, -53375.83164880653, -58302.80432734542, -57720.0719976511, -50587.09390009569, 11479.811248756796, 37400.7269621762, 0.108, 0.9520000000000001, 0.20600000000000002, 192.0, 0.0, 0.0, 0.0, 0.0, 0.0, 0.0, 0.0, 0.0, 0.0, 1.7297108689689837E9, 0.0, 2024-10-24 00:44:28.968
10.0, -50324.63971670148, -51538.29473713574, -53340.828816989524, -58273.568245597875, -57672.57454068358, -50555.9802718139, 11099.161040682917, 36983.06226528434, 0.108, 0.9520000000000001, 0.20600000000000002, 192.0, 0.0, 0.0, 0.0, 0.0, 0.0, 0.0, 0.0, 0.0, 0.0, 1.729710868972953E9, 0.0, 2024-10-24 00:44:28.972
11.0, -50313.128568306995, -51545.559054083715, -53343.198101901784, -58283.62653060276, -57700.84949741954, -50565.68092890751, 11093.975435969287, 36990.97478282151, 0.108, 0.9520000000000001, 0.20600000000000002, 192.0, 0.0, 0.0, 0.0, 0.0, 0.0, 0.0, 0.0, 0.0, 0.0, 1.7297108689770668E9, 0.0, 2024-10-24 00:44:28.977
12.0, -50333.06632436113, -51572.269388707806, -53372.9482737718, -58311.655618149714, -57745.396524118965, -50598.20271708998, 11473.619815542677, 37412.483979759694, 0.108, 0.9520000000000001, 0.20600000000000002, 192.0, 0.0, 0.0, 0.0, 0.0, 0.0, 0.0, 0.0, 0.0, 0.0, 1.7297108689810672E9, 0.0, 2024-10-24 00:44:28.981
13.0, -50372.87478123603, -51598.68915065398, -53404.464233453786, -58330.54284221445, -57766.76479181824, -50617.29110685481, 11794.836735109895, 37755.315036215194, 0.108, 0.9520000000000001, 0.20600000000000002, 192.0, 0.0, 0.0, 0.0, 0.0, 0.0, 0.0, 0.0, 0.0, 0.0, 1.729710868985129E9, 0.0, 2024-10-24 00:44:28.985
14.0, -50363.97878694282, -51570.794173573755, -53385.308788455586, -58295.71882435308, -57734.31005886914, -50578.711995924954, 11525.18529000107, 37445.02811968662, 0.108, 0.9520000000000001, 0.20600000000000002, 192.0, 0.0, 0.0, 0.0, 0.0, 0.0, 0.0, 0.0, 0.0, 0.0, 1.7297108689890113E9, 0.0, 2024-10-24 00:44:28.989
15.0, -50336.21792032933, -51544.10619069412, -53353.81518051805, -58267.890902506224, -57692.08761359306, -50553.8792078351, 11128.01714277472, 37011.51603597594, 0.108, 0.9520000000000001, 0.20600000000000002, 192.0, 0.0, 0.0, 0.0, 0.0, 0.0, 0.0, 0.0, 0.0, 0.0, 1.7297108689940076E9, 0.0, 2024-10-24 00:44:28.994
16.0, -50315.60961194153, -51549.85058901914, -53346.17088391434, -58279.983196256544, -57706.9738754003, -50575.58275170121, 11107.230020431283, 37006.79981789587, 0.108, 0.9520000000000001, 0.20600000000000002, 192.0, 0.0, 0.0, 0.0, 0.0, 0.0, 0.0, 0.0, 0.0, 0.0, 1.729710868999055E9, 0.0, 2024-10-24 00:44:28.999
17.0, -50332.17225458292, -51576.20329573194, -53368.299110925094, -58307.900525081226, -57734.421817591414, -50609.22212710645, 11511.617781116698, 37454.05822444656, 0.108, 0.9520000000000001, 0.20600000000000002, 192.0, 0.0, 0.0, 0.0, 0.0, 0.0, 0.0, 0.0, 0.0, 0.0, 1.72971086900208E9, 0.0, 2024-10-24 00:44:29.002
18.0, -50365.006967187765, -51592.52006918431, -53390.33793095803, -58318.67406590868, -57742.42374210641, -50616.64290626561, 11823.469319757143, 37788.97676336489, 0.10200000000000001, 0.9460000000000001, 0.21, 192.0, 3.0, 48.0, 29.0, 144.0, 6.0, 144.0, 0.0, 0.0, 0.0, 1.729710869006128E9, 0.0, 2024-10-24 00:44:29.006
19.0, -50359.910769451955, -51569.92245554, -53371.0483754931, -58290.01912951698, -57707.778538200684, -50574.53221971181, 11532.80723486033, 37458.193297170794, 0.10200000000000001, 0.9460000000000001, 0.21, 192.0, 0.0, 0.0, 0.0, 0.0, 0.0, 0.0, 0.0, 0.0, 0.0, 1.729710869009114E9, 0.0, 2024-10-24 00:44:29.009
20.0, -50339.280109319705, -51550.49878960834, -53352.49642759519, -58272.361251397284, -57695.70859619482, -50552.96278631244, 11153.475779709313, 37043.300216591386, 0.10200000000000001, 0.9460000000000001, 0.21, 192.0, 0.0, 0.0, 0.0, 0.0, 0.0, 0.0, 0.0, 0.0, 0.0, 1.7297108690121245E9, 0.0, 2024-10-24 00:44:29.012
21.0, -50318.224766042804, -51553.02453673179, -53345.34386936949, -58282.26307419099, -57705.9233434109, -50574.800440645275, 11143.43984644888, 37046.98825442651, 0.10200000000000001, 0.9460000000000001, 0.21, 192.0, 0.0, 0.0, 0.0, 0.0, 0.0, 0.0, 0.0, 0.0, 0.0, 1.7297108690170732E9, 0.0, 2024-10-24 00:44:29.017
22.0, -50340.755324453756, -51585.345159214165, -53373.976454016745, -58316.59535367434, -57744.59186131858, -50613.49131029741, 11535.534147683877, 37481.75203582669, 0.10200000000000001, 0.9460000000000001, 0.21, 192.0, 0.0, 0.0, 0.0, 0.0, 0.0, 0.0, 0.0, 0.0, 0.0, 1.7297108690210488E9, 0.0, 2024-10-24 00:44:29.021
23.0, -50368.091507922596, -51604.34414200117, -53396.32819847205, -58334.096769582844, -57759.299309170165, -50630.031601194336, 11830.688933216206, 37798.453903013935, 0.10200000000000001, 0.9460000000000001, 0.21, 192.0, 0.0, 0.0, 0.0, 0.0, 0.0, 0.0, 0.0, 0.0, 0.0, 1.7297108690256379E9, 0.0, 2024-10-24 00:44:29.025
24.0, -50360.08958340759, -51577.81262133272, -53374.57995111703, -58305.48653668005, -57718.14974762795, -50596.615743233655, 11563.116200341727, 37491.40798943138, 0.10200000000000001, 0.9460000000000001, 0.21, 192.0, 0.0, 0.0, 0.0, 0.0, 0.0, 0.0, 0.0, 0.0, 0.0, 1.729710869029034E9, 0.0, 2024-10-24 00:44:29.029
25.0, -50340.19653084237, -51551.30345240873, -53350.86475024996, -58280.74315556802, -57691.10413683703, -50566.686757407995, 11199.050986653685, 37090.90943228119, 0.10200000000000001, 0.9460000000000001, 0.21, 192.0, 0.0, 0.0, 0.0, 0.0, 0.0, 0.0, 0.0, 0.0, 0.0, 1.7297108690340126E9, 0.0, 2024-10-24 00:44:29.034
26.0, -50320.37053351051, -51548.93416749647, -53343.57808155753, -58282.508943379995, -57706.41508178891, -50569.68189116501, 11189.21621909335, 37095.24567070552, 0.10200000000000001, 0.9460000000000001, 0.21, 192.0, 0.0, 0.0, 0.0, 0.0, 0.0, 0.0, 0.0, 0.0, 0.0, 1.7297108690383449E9, 0.0, 2024-10-24 00:44:29.038
27.0, -50331.658164460445, -51570.25773170683, -53363.60524458948, -58303.430176190166, -57739.04862869366, -50593.93353389902, 11539.199833774548, 37488.211689974276, 0.10200000000000001, 0.9460000000000001, 0.21, 192.0, 0.0, 0.0, 0.0, 0.0, 0.0, 0.0, 0.0, 0.0, 0.0, 1.7297108690400555E9, 0.0, 2024-10-24 00:44:29.040
28.0, -50354.32283333813, -51582.327673712694, -53376.502201140196, -58305.575943657874, -57739.29449788267, -50596.77220544484, 11840.747218221095, 37811.08263863118, 0.1, 0.9520000000000001, 0.20800000000000002, 192.0, 3.0, 32.0, 29.0, 192.0, 6.0, 128.0, 0.0, 0.0, 0.0, 1.7297108690451248E9, 0.0, 2024-10-24 00:44:29.045
29.0, -50350.09835363607, -51558.74658331235, -53357.77143928665, -58274.57407409836, -57695.86505840601, -50563.57986492871, 11569.508799255944, 37498.60525114599, 0.1, 0.9520000000000001, 0.20800000000000002, 192.0, 0.0, 0.0, 0.0, 0.0, 0.0, 0.0, 0.0, 0.0, 0.0, 1.7297108690491152E9, 0.0, 2024-10-24 00:44:29.049
30.0, -50325.86906264652, -51531.365696354595, -53335.93378495381, -58249.182492397136, -57668.52887493717, -50538.05417276075, 11187.428079536925, 37078.951248997604, 0.1, 0.9520000000000001, 0.20800000000000002, 192.0, 0.0, 0.0, 0.0, 0.0, 0.0, 0.0, 0.0, 0.0, 0.0, 1.729710869053068E9, 0.0, 2024-10-24 00:44:29.053
31.0, -50317.21893754232, -51541.222815659385, -53342.90752922386, -58267.95795773959, -57699.6201514745, -50562.52933293931, 11188.366852804047, 37094.01632476048, 0.1, 0.9520000000000001, 0.20800000000000002, 192.0, 0.0, 0.0, 0.0, 0.0, 0.0, 0.0, 0.0, 0.0, 0.0, 1.729710869057158E9, 0.0, 2024-10-24 00:44:29.057
32.0, -50335.32385055111, -51567.28494969427, -53369.3943464034, -58296.34467319783, -57739.49566358277, -50596.21341183346, 11558.221168306014, 37504.416704704374, 0.1, 0.9520000000000001, 0.20800000000000002, 192.0, 0.0, 0.0, 0.0, 0.0, 0.0, 0.0, 0.0, 0.0, 0.0, 1.729710869061407E9, 0.0, 2024-10-24 00:44:29.061
33.0, -50360.29074910769, -51585.0769382807, -53388.147460001404, -58306.80528960291, -57750.26920441022, -50603.67889448153, 11859.142703907813, 37827.55587429475, 0.1, 0.9520000000000001, 0.20800000000000002, 192.0, 0.0, 0.0, 0.0, 0.0, 0.0, 0.0, 0.0, 0.0, 0.0, 1.7297108690651476E9, 0.0, 2024-10-24 00:44:29.065
34.0, -50356.22273161683, -51562.07699323619, -53369.05907023657, -58277.30098692191, -57705.409253288424, -50570.24068477639, 11581.422279050623, 37509.736419884735, 0.1, 0.9520000000000001, 0.20800000000000002, 192.0, 0.0, 0.0, 0.0, 0.0, 0.0, 0.0, 0.0, 0.0, 0.0, 1.729710869068241E9, 0.0, 2024-10-24 00:44:29.068
35.0, -50338.45309477486, -51542.87684474908, -53350.12714268293, -58256.89384423421, -57683.6163024445, -50549.74413511087, 11199.654483753979, 37091.69174333713, 0.1, 0.9520000000000001, 0.20800000000000002, 192.0, 0.0, 0.0, 0.0, 0.0, 0.0, 0.0, 0.0, 0.0, 0.0, 1.7297108690721495E9, 0.0, 2024-10-24 00:44:29.072
36.0, -50325.75730392424, -51549.38120238557, -53351.244729905695, -58265.43221061614, -57708.60555274553, -50562.90931259505, 11220.12868167504, 37127.879217610265, 0.1, 0.9520000000000001, 0.20800000000000002, 192.0, 0.0, 0.0, 0.0, 0.0, 0.0, 0.0, 0.0, 0.0, 0.0, 1.729710869077146E9, 0.0, 2024-10-24 00:44:29.077
37.0, -50348.28786233519, -51581.18773474547, -53378.53620988563, -58293.81892607438, -57741.395561861464, -50597.040426378306, 11600.778889748919, 37552.62941749447, 0.1, 0.9520000000000001, 0.20800000000000002, 192.0, 0.0, 0.0, 0.0, 0.0, 0.0, 0.0, 0.0, 0.0, 0.0, 1.7297108690811217E9, 0.0, 2024-10-24 00:44:29.081
38.0, -50381.05551970667, -51600.4772902104, -53402.13965203043, -58306.89469658073, -57750.89505325497, -50613.804234719784, 11907.198954486723, 37883.614049388656, 0.098, 0.9580000000000001, 0.20600000000000002, 192.0, 3.0, 16.0, 29.0, 240.0, 6.0, 112.0, 0.0, 0.0, 0.0, 1.7297108690851157E9, 0.0, 2024-10-24 00:44:29.085
39.0, -50367.26449337775, -51570.41419391802, -53375.87635229545, -58272.04832697491, -57705.833936433075, -50579.002568602875, 11614.592267822298, 37552.13767911645, 0.098, 0.9580000000000001, 0.20600000000000002, 192.0, 0.0, 0.0, 0.0, 0.0, 0.0, 0.0, 0.0, 0.0, 0.0, 1.7297108690891364E9, 0.0, 2024-10-24 00:44:29.089
40.0, -50352.847618204076, -51555.79615304425, -53362.59941608899, -58259.88897799123, -57697.69790145134, -50563.31164399524, 11244.335620920137, 37145.715909685605, 0.098, 0.9580000000000001, 0.20600000000000002, 192.0, 0.0, 0.0, 0.0, 0.0, 0.0, 0.0, 0.0, 0.0, 0.0, 1.729710869093158E9, 0.0, 2024-10-24 00:44:29.093
41.0, -50334.586242984085, -51558.433658889975, -53361.7947532886, -58270.349594396306, -57719.98259067328, -50572.5876179442, 11256.919653048475, 37175.1755088777, 0.098, 0.9580000000000001, 0.20600000000000002, 192.0, 0.0, 0.0, 0.0, 0.0, 0.0, 0.0, 0.0, 0.0, 0.0, 1.7297108690961225E9, 0.0, 2024-10-24 00:44:29.096
42.0, -50351.14888562547, -51587.60268540415, -53386.336968700525, -58302.849030834324, -57753.46550386733, -50609.87032769565, 11634.105340731781, 37596.03650522667, 0.098, 0.9580000000000001, 0.20600000000000002, 192.0, 0.0, 0.0, 0.0, 0.0, 0.0, 0.0, 0.0, 0.0, 0.0, 1.72971086910011E9, 0.0, 2024-10-24 00:44:29.100
43.0, -50379.11091793906, -51606.869889124624, -53402.27376249716, -58318.74112114205, -57748.838692765086, -50621.359124345676, 11931.271783265089, 37915.621747448655, 0.098, 0.9580000000000001, 0.20600000000000002, 192.0, 0.0, 0.0, 0.0, 0.0, 0.0, 0.0, 0.0, 0.0, 0.0, 1.7297108691051416E9, 0.0, 2024-10-24 00:44:29.105
44.0, -50374.372348114535, -51584.51814466932, -53383.252427965694, -58294.40007143022, -57713.031198147684, -50592.704187953976, 11644.074218758848, 37591.43204586888, 0.098, 0.9580000000000001, 0.20600000000000002, 192.0, 0.0, 0.0, 0.0, 0.0, 0.0, 0.0, 0.0, 0.0, 0.0, 1.72971086910917E9, 0.0, 2024-10-24 00:44:29.109
45.0, -50346.16444661194, -51553.15864719852, -53354.08340145152, -58265.92394899416, -57685.98558735676, -50563.758678884355, 11253.969222780373, 37167.88884018527, 0.098, 0.9580000000000001, 0.20600000000000002, 192.0, 0.0, 0.0, 0.0, 0.0, 0.0, 0.0, 0.0, 0.0, 0.0, 1.7297108691131456E9, 0.0, 2024-10-24 00:44:29.113
46.0, -50322.96333586733, -51548.30831865172, -53345.38857285841, -58271.891864763726, -57703.576410243084, -50578.06379533575, 11245.654373843, 37176.94129668967, 0.098, 0.9580000000000001, 0.20600000000000002, 192.0, 0.0, 0.0, 0.0, 0.0, 0.0, 0.0, 0.0, 0.0, 0.0, 1.7297108691171281E9, 0.0, 2024-10-24 00:44:29.117
47.0, -50344.75628671125, -51579.39959518905, -53373.37295691645, -58306.626475647274, -57742.96018397334, -50618.67691501104, 11637.815730311362, 37611.63802285648, 0.098, 0.9580000000000001, 0.20600000000000002, 192.0, 0.0, 0.0, 0.0, 0.0, 0.0, 0.0, 0.0, 0.0, 0.0, 1.7297108691211216E9, 0.0, 2024-10-24 00:44:29.121
48.0, -50378.19449641639, -51596.14105178607, -53393.8024513486, -58315.857746107315, -57748.34695438707, -50621.60499353469, 11935.160986800312, 37930.7538784449, 0.108, 0.9560000000000001, 0.21, 192.0, 3.0, 96.0, 29.0, 224.0, 6.0, 144.0, 0.0, 0.0, 0.0, 1.7297108691240892E9, 0.0, 2024-10-24 00:44:29.124
49.0, -50361.654205519466, -51561.093516480156, -53365.46043937927, -58277.09982122181, -57701.60945673102, -50576.834449390706, 11664.727230635552, 37622.4786189173, 0.108, 0.9560000000000001, 0.21, 192.0, 0.0, 0.0, 0.0, 0.0, 0.0, 0.0, 0.0, 0.0, 0.0, 1.7297108691281009E9, 0.0, 2024-10-24 00:44:29.128
50.0, -50340.15182735346, -51537.445370846435, -53344.44979959128, -58253.33991686582, -57680.93409310986, -50551.9793095564, 11279.114935292595, 37202.9810789801, 0.108, 0.9560000000000001, 0.21, 192.0, 0.0, 0.0, 0.0, 0.0, 0.0, 0.0, 0.0, 0.0, 0.0, 1.7297108691331165E9, 0.0, 2024-10-24 00:44:29.133
51.0, -50324.036219601185, -51546.9672139844, -53342.50519782367, -58265.92394899416, -57702.10119510904, -50572.207638288455, 11275.963339324397, 37219.58842511039, 0.108, 0.9560000000000001, 0.21, 192.0, 0.0, 0.0, 0.0, 0.0, 0.0, 0.0, 0.0, 0.0, 0.0, 1.72971086913718E9, 0.0, 2024-10-24 00:44:29.137
52.0, -50341.24706283177, -51575.622150376104, -53366.73448881322, -58293.550705140915, -57730.912593711924, -50606.741083471905, 11663.4531812016, 37653.21226754335, 0.108, 0.9560000000000001, 0.21, 192.0, 0.0, 0.0, 0.0, 0.0, 0.0, 0.0, 0.0, 0.0, 0.0, 1.7297108691411557E9, 0.0, 2024-10-24 00:44:29.141
53.0, -50369.03028118972, -51586.462746436926, -53383.29713145461, -58295.62941737526, -57735.20412864735, -50601.04138863581, 11962.608928991429, 37976.41849236709, 0.108, 0.9560000000000001, 0.21, 192.0, 0.0, 0.0, 0.0, 0.0, 0.0, 0.0, 0.0, 0.0, 0.0, 1.729710869145197E9, 0.0, 2024-10-24 00:44:29.145
54.0, -50359.061403162654, -51550.878769264076, -53358.88902650941, -58253.16110291018, -57690.522991481186, -50549.27474847731, 11682.094536077326, 37659.336645524105, 0.108, 0.9560000000000001, 0.21, 192.0, 0.0, 0.0, 0.0, 0.0, 0.0, 0.0, 0.0, 0.0, 0.0, 1.7297108691483996E9, 0.0, 2024-10-24 00:44:29.148
55.0, -50341.04589713167, -51525.80011198523, -53338.90656696637, -58229.91528867666, -57669.199427270825, -50528.66644008952, 11296.057557589718, 37239.123849764335, 0.108, 0.9560000000000001, 0.21, 192.0, 0.0, 0.0, 0.0, 0.0, 0.0, 0.0, 0.0, 0.0, 0.0, 1.729710869152168E9, 0.0, 2024-10-24 00:44:29.152
56.0, -50322.6280597005, -51529.53285330926, -53336.22435763173, -58240.711181248575, -57691.17119207039, -50551.19699850047, 11296.035205845263, 37257.04994881749, 0.108, 0.9560000000000001, 0.21, 192.0, 0.0, 0.0, 0.0, 0.0, 0.0, 0.0, 0.0, 0.0, 0.0, 1.729710869156184E9, 0.0, 2024-10-24 00:44:29.156
57.0, -50342.409353543444, -51562.479324636384, -53365.28162542363, -58273.836466531335, -57730.912593711924, -50584.47874599442, 11677.870056375272, 37684.90704118097, 0.108, 0.9560000000000001, 0.21, 192.0, 0.0, 0.0, 0.0, 0.0, 0.0, 0.0, 0.0, 0.0, 0.0, 1.7297108691611629E9, 0.0, 2024-10-24 00:44:29.161
58.0, -50381.368444129046, -51587.31211272623, -53394.56241066008, -58293.75187084101, -57747.497588097765, -50602.22603109194, 11994.571923562518, 38025.324109235306, 0.11, 0.9560000000000001, 0.212, 192.0, 3.0, 112.0, 29.0, 224.0, 6.0, 160.0, 0.0, 0.0, 0.0, 1.7297108691651716E9, 0.0, 2024-10-24 00:44:29.165
59.0, -50365.23048463232, -51553.046888476245, -53367.31563416906, -58257.85496924579, -57702.52587825369, -50570.64301617659, 11730.486062823065, 37723.12852419955, 0.11, 0.9560000000000001, 0.212, 192.0, 0.0, 0.0, 0.0, 0.0, 0.0, 0.0, 0.0, 0.0, 0.0, 1.72971086916918E9, 0.0, 2024-10-24 00:44:29.169
60.0, -50338.18487384139, -51523.58728928415, -53338.28071812162, -58227.65776248667, -57671.25578776071, -50536.981289026895, 11343.91264246853, 37302.871024950866, 0.11, 0.9560000000000001, 0.212, 192.0, 0.0, 0.0, 0.0, 0.0, 0.0, 0.0, 0.0, 0.0, 0.0, 1.7297108691732557E9, 0.0, 2024-10-24 00:44:29.173
61.0, -50325.086751590585, -51535.992507456845, -53344.71802052475, -58248.78016099694, -57710.61720974651, -50570.91123711005, 11325.33834282617, 37300.88171969434, 0.11, 0.9560000000000001, 0.212, 192.0, 0.0, 0.0, 0.0, 0.0, 0.0, 0.0, 0.0, 0.0, 0.0, 1.7297108691771688E9, 0.0, 2024-10-24 00:44:29.177
62.0, -50354.725164738324, -51577.857324821634, -53382.31365469857, -58291.58375162885, -57756.39358239098, -50615.346505087204, 11721.545365040942, 37742.3063209422, 0.11, 0.9560000000000001, 0.212, 192.0, 0.0, 0.0, 0.0, 0.0, 0.0, 0.0, 0.0, 0.0, 0.0, 1.7297108691801815E9, 0.0, 2024-10-24 00:44:29.180
63.0, -50385.414109875455, -51593.90587734054, -53403.5031084422, -58304.23483899055, -57763.993175505784, -50627.103522670695, 12025.439682655298, 38070.83226094631, 0.11, 0.9560000000000001, 0.212, 192.0, 0.0, 0.0, 0.0, 0.0, 0.0, 0.0, 0.0, 0.0, 0.0, 1.7297108691842136E9, 0.0, 2024-10-24 00:44:29.184
64.0, -50381.03316796222, -51569.40836541753, -53385.82287857806, -58277.07746947736, -57726.799872732154, -50591.29602805329, 11731.022504689992, 37739.98173951885, 0.11, 0.9560000000000001, 0.212, 192.0, 0.0, 0.0, 0.0, 0.0, 0.0, 0.0, 0.0, 0.0, 0.0, 1.7297108691891847E9, 0.0, 2024-10-24 00:44:29.189
65.0, -50360.246045618784, -51548.30831865172, -53362.75587830018, -58256.022126200456, -57702.615285231506, -50561.81407711674, 11351.936918727984, 37327.748516529624, 0.11, 0.9560000000000001, 0.212, 192.0, 0.0, 0.0, 0.0, 0.0, 0.0, 0.0, 0.0, 0.0, 0.0, 1.7297108691931987E9, 0.0, 2024-10-24 00:44:29.193
66.0, -50337.380211041, -51553.739792554356, -53355.67037530785, -58269.500228107005, -57716.09338713806, -50582.82471690473, 11345.253747135848, 37339.17025794629, 0.11, 0.9560000000000001, 0.212, 192.0, 0.0, 0.0, 0.0, 0.0, 0.0, 0.0, 0.0, 0.0, 0.0, 1.7297108691972392E9, 0.0, 2024-10-24 00:44:29.197
67.0, -50361.363632841545, -51585.88160108109, -53380.59257037551, -58303.832507590356, -57736.54523331467, -50622.052028423794, 11711.17415561368, 37749.83885882364, 0.11, 0.9560000000000001, 0.212, 192.0, 0.0, 0.0, 0.0, 0.0, 0.0, 0.0, 0.0, 0.0, 0.0, 1.7297108692012277E9, 0.0, 2024-10-24 00:44:29.201
68.0, -50391.15850820047, -51604.858232123646, -53400.57502991856, -58316.26007750751, -57750.47037011032, -50631.23859539493, 12004.741967289683, 38069.64761849018, 0.106, 0.9520000000000001, 0.214, 192.0, 3.0, 80.0, 29.0, 192.0, 6.0, 176.0, 0.0, 0.0, 0.0, 1.729710869205228E9, 0.0, 2024-10-24 00:44:29.205
69.0, -50378.4403656054, -51575.264522464815, -53374.401137161396, -58281.97250151307, -57705.56571549961, -50590.737234441905, 11757.822246291906, 37786.47336798589, 0.106, 0.9520000000000001, 0.214, 192.0, 0.0, 0.0, 0.0, 0.0, 0.0, 0.0, 0.0, 0.0, 0.0, 1.7297108692092383E9, 0.0, 2024-10-24 00:44:29.209
70.0, -50356.98269092831, -51552.48809486486, -53352.9434624843, -58258.63728030173, -57683.526895466675, -50567.29025450829, 11387.744413345386, 37383.85139511245, 0.106, 0.9520000000000001, 0.214, 192.0, 0.0, 0.0, 0.0, 0.0, 0.0, 0.0, 0.0, 0.0, 0.0, 1.729710869212402E9, 0.0, 2024-10-24 00:44:29.212
71.0, -50334.09450460607, -51550.09645820814, -53345.74620076969, -58260.64893730271, -57699.15076484094, -50573.280522022316, 11369.281872425303, 37382.51029044513, 0.106, 0.9520000000000001, 0.214, 192.0, 0.0, 0.0, 0.0, 0.0, 0.0, 0.0, 0.0, 0.0, 0.0, 1.729710869216399E9, 0.0, 2024-10-24 00:44:29.216
72.0, -50349.02546990222, -51572.425850919, -53369.19318070331, -58285.12409748127, -57735.964087958826, -50600.795519446794, 11733.011809946514, 37792.418932011, 0.106, 0.9520000000000001, 0.214, 192.0, 0.0, 0.0, 0.0, 0.0, 0.0, 0.0, 0.0, 0.0, 0.0, 1.7297108692212703E9, 0.0, 2024-10-24 00:44:29.221
73.0, -50385.32470289763, -51594.10704304064, -53397.26697173918, -58301.30676046691, -57753.934890500896, -50615.99470567641, 12024.635019854906, 38106.68445905262, 0.106, 0.9520000000000001, 0.214, 192.0, 0.0, 0.0, 0.0, 0.0, 0.0, 0.0, 0.0, 0.0, 0.0, 1.7297108692253518E9, 0.0, 2024-10-24 00:44:29.225
74.0, -50379.24502840579, -51571.88940905207, -53379.922018041856, -58272.87534151976, -57724.564698286624, -50582.355330271166, 11759.096295725858, 37805.025315883795, 0.106, 0.9520000000000001, 0.214, 192.0, 0.0, 0.0, 0.0, 0.0, 0.0, 0.0, 0.0, 0.0, 0.0, 1.7297108692292802E9, 0.0, 2024-10-24 00:44:29.229
75.0, -50350.187760613895, -51542.29569939324, -53345.34386936949, -58239.794759725904, -57682.61047394401, -50549.833542088694, 11391.991244791896, 37407.34307853497, 0.106, 0.9520000000000001, 0.214, 192.0, 0.0, 0.0, 0.0, 0.0, 0.0, 0.0, 0.0, 0.0, 0.0, 1.729710869232412E9, 0.0, 2024-10-24 00:44:29.232
76.0, -50337.380211041, -51542.832141260165, -53335.799674487076, -58243.25928011648, -57684.84564838954, -50571.06769932124, 11384.749279588375, 37420.038869385586, 0.106, 0.9520000000000001, 0.214, 192.0, 0.0, 0.0, 0.0, 0.0, 0.0, 0.0, 0.0, 0.0, 0.0, 1.7297108692362573E9, 0.0, 2024-10-24 00:44:29.236
77.0, -50359.17316188493, -51566.01090026032, -53362.152381199885, -58267.93560599514, -57721.03312266268, -50598.96267640146, 11773.267301710523, 37853.752118796365, 0.106, 0.9520000000000001, 0.214, 192.0, 0.0, 0.0, 0.0, 0.0, 0.0, 0.0, 0.0, 0.0, 0.0, 1.729710869240296E9, 0.0, 2024-10-24 00:44:29.240
78.0, -50390.73382505582, -51576.62797887659, -53383.45359366579, -58273.47883862005, -57725.816395976115, -50588.77028092984, 12075.284072790631, 38181.473396000074, 0.112, 0.9500000000000001, 0.218, 192.0, 3.0, 128.0, 29.0, 176.0, 6.0, 208.0, 0.0, 0.0, 0.0, 1.7297108692443151E9, 0.0, 2024-10-24 00:44:29.244
79.0, -50383.22363891884, -51550.54349309725, -53366.39921264639, -58242.78989348291, -57699.30722705212, -50551.88990257859, 11794.47910719861, 37865.66559859105, 0.112, 0.9500000000000001, 0.218, 192.0, 0.0, 0.0, 0.0, 0.0, 0.0, 0.0, 0.0, 0.0, 0.0, 1.7297108692493339E9, 0.0, 2024-10-24 00:44:29.249
80.0, -50370.192571901396, -51536.10426617912, -53354.06104970707, -58230.071750887844, -57691.17119207039, -50542.74803909636, 11423.93188761853, 37465.3905588854, 0.112, 0.9500000000000001, 0.218, 192.0, 0.0, 0.0, 0.0, 0.0, 0.0, 0.0, 0.0, 0.0, 0.0, 1.7297108692534237E9, 0.0, 2024-10-24 00:44:29.253
81.0, -50353.00408041526, -51541.9157197375, -53350.86475024996, -58243.66161151667, -57705.29749456615, -50564.943321340485, 11429.54217547681, 37492.63733537642, 0.112, 0.9500000000000001, 0.218, 192.0, 0.0, 0.0, 0.0, 0.0, 0.0, 0.0, 0.0, 0.0, 0.0, 1.7297108692573457E9, 0.0, 2024-10-24 00:44:29.257
82.0, -50370.97488295733, -51573.25286546384, -53373.10473598299, -58274.9540537541, -57735.31588736962, -50598.33682755671, 11806.504345715564, 37917.78986666082, 0.112, 0.9500000000000001, 0.218, 192.0, 0.0, 0.0, 0.0, 0.0, 0.0, 0.0, 0.0, 0.0, 0.0, 1.7297108692603552E9, 0.0, 2024-10-24 00:44:29.260
83.0, -50396.43351989192, -51594.79994711876, -53396.3058467276, -58290.24264696153, -57739.115683927026, -50610.13854862911, 12103.894305693426, 38242.8289345299, 0.112, 0.9500000000000001, 0.218, 192.0, 0.0, 0.0, 0.0, 0.0, 0.0, 0.0, 0.0, 0.0, 0.0, 1.7297108692643433E9, 0.0, 2024-10-24 00:44:29.264
84.0, -50387.805746532176, -51572.64936836355, -53377.61978836296, -58265.11928619377, -57700.89420090845, -50581.19303955949, 11842.043619399503, 37946.735375730445, 0.112, 0.9500000000000001, 0.218, 192.0, 0.0, 0.0, 0.0, 0.0, 0.0, 0.0, 0.0, 0.0, 0.0, 1.7297108692683437E9, 0.0, 2024-10-24 00:44:29.268
85.0, -50361.25187411927, -51542.42980985997, -53352.60818631747, -58236.97843992453, -57679.257712275714, -50548.96182405494, 11461.326356092259, 37537.832562665055, 0.112, 0.9500000000000001, 0.218, 192.0, 0.0, 0.0, 0.0, 0.0, 0.0, 0.0, 0.0, 0.0, 0.0, 1.7297108692723544E9, 0.0, 2024-10-24 00:44:29.272
86.0, -50343.28107157721, -51543.592100571645, -53353.81518051805, -58249.67423077515, -57705.45395677733, -50569.8830568651, 11426.815262653263, 37526.07554508156, 0.112, 0.9500000000000001, 0.218, 192.0, 0.0, 0.0, 0.0, 0.0, 0.0, 0.0, 0.0, 0.0, 0.0, 1.7297108692774036E9, 0.0, 2024-10-24 00:44:29.277
87.0, -50369.36555735655, -51581.97004580141, -53390.36028270248, -58291.3602341843, -57748.682230553895, -50614.89947019809, 11801.028168324014, 37949.93167518755, 0.112, 0.9500000000000001, 0.218, 192.0, 0.0, 0.0, 0.0, 0.0, 0.0, 0.0, 0.0, 0.0, 0.0, 1.7297108692813797E9, 0.0, 2024-10-24 00:44:29.281
88.0, -50408.19053747541, -51602.91363035603, -53412.15323354641, -58306.1123855248, -57750.20214917686, -50623.1472639021, 12110.800994730114, 38287.890051351795, 0.11, 0.9520000000000001, 0.218, 192.0, 3.0, 112.0, 29.0, 192.0, 6.0, 208.0, 0.0, 0.0, 0.0, 1.7297108692854376E9, 0.0, 2024-10-24 00:44:29.285
89.0, -50391.33732215611, -51567.508467138825, -53379.85496280849, -58267.57797808385, -57695.93211363937, -50580.3883767591, 11830.420712282743, 37975.814995266795, 0.11, 0.9520000000000001, 0.218, 192.0, 0.0, 0.0, 0.0, 0.0, 0.0, 0.0, 0.0, 0.0, 0.0, 1.729710869288342E9, 0.0, 2024-10-24 00:44:29.288
90.0, -50366.77275499973, -51544.82144651669, -53360.677166065834, -58247.86373947427, -57680.2635407762, -50559.3330334822, 11438.326411047747, 37555.870420440486, 0.11, 0.9520000000000001, 0.218, 192.0, 0.0, 0.0, 0.0, 0.0, 0.0, 0.0, 0.0, 0.0, 0.0, 1.7297108692924976E9, 0.0, 2024-10-24 00:44:29.292
91.0, -50348.846655946574, -51550.14116169705, -53359.22430267624, -58262.370021625764, -57706.99622714475, -50579.02492034733, 11421.808471895274, 37561.57011527659, 0.11, 0.9520000000000001, 0.218, 192.0, 0.0, 0.0, 0.0, 0.0, 0.0, 0.0, 0.0, 0.0, 0.0, 1.7297108692963803E9, 0.0, 2024-10-24 00:44:29.296
92.0, -50373.92531322543, -51585.479269680895, -53386.962817545274, -58302.80432734542, -57743.586032818086, -50627.84113023772, 11796.602522921863, 37984.84510002674, 0.11, 0.9520000000000001, 0.218, 192.0, 0.0, 0.0, 0.0, 0.0, 0.0, 0.0, 0.0, 0.0, 0.0, 1.729710869300422E9, 0.0, 2024-10-24 00:44:29.300
93.0, -50399.339246671116, -51595.15757503004, -53402.832556108544, -58306.33590296935, -57756.661803324445, -50627.7517232599, 12097.479355034751, 38315.42740052073, 0.11, 0.9520000000000001, 0.218, 192.0, 0.0, 0.0, 0.0, 0.0, 0.0, 0.0, 0.0, 0.0, 0.0, 1.7297108693064272E9, 0.0, 2024-10-24 00:44:29.306
94.0, -50396.23235419182, -51569.20719971743, -53391.0531867806, -58274.73053630955, -57722.66480000792, -50594.0452926213, 11828.543165748497, 38013.81296084082, 0.11, 0.9520000000000001, 0.218, 192.0, 0.0, 0.0, 0.0, 0.0, 0.0, 0.0, 0.0, 0.0, 0.0, 1.7297108693093998E9, 0.0, 2024-10-24 00:44:29.309
95.0, -50359.262568862745, -51532.125655666074, -53353.65871830687, -58235.27970734593, -57670.49582844923, -50556.62847240311, 11436.001829624394, 37592.504929602736, 0.11, 0.9520000000000001, 0.218, 192.0, 0.0, 0.0, 0.0, 0.0, 0.0, 0.0, 0.0, 0.0, 0.0, 1.729710869313525E9, 0.0, 2024-10-24 00:44:29.313
96.0, -50345.069211133625, -51538.361792369105, -53351.28943339461, -58245.22623362854, -57692.489944993256, -50568.45254521997, 11439.30988780378, 37617.87415955951, 0.11, 0.9520000000000001, 0.218, 192.0, 0.0, 0.0, 0.0, 0.0, 0.0, 0.0, 0.0, 0.0, 0.0, 1.7297108693164127E9, 0.0, 2024-10-24 00:44:29.316
97.0, -50374.21588590335, -51572.202333474444, -53389.779137346646, -58279.06677473388, -57744.45775085184, -50608.283353839324, 11836.120407118846, 38063.47853702051, 0.11, 0.9520000000000001, 0.218, 192.0, 0.0, 0.0, 0.0, 0.0, 0.0, 0.0, 0.0, 0.0, 0.0, 1.7297108693205202E9, 0.0, 2024-10-24 00:44:29.320
98.0, -50403.653133350985, -51588.697920882456, -53408.04051256663, -58288.29804519392, -57746.26824215272, -50624.153092402594, 12131.185785673355, 38386.64005835534, 0.108, 0.9540000000000001, 0.218, 192.0, 3.0, 96.0, 29.0, 208.0, 6.0, 208.0, 0.0, 0.0, 0.0, 1.7297108693245473E9, 0.0, 2024-10-24 00:44:29.324
99.0, -50384.16241218596, -51549.15768494102, -53373.64117784992, -58239.83946321481, -57693.96516012731, -50566.23972251889, 11852.928918949237, 38074.609705759256, 0.108, 0.9540000000000001, 0.218, 192.0, 0.0, 0.0, 0.0, 0.0, 0.0, 0.0, 0.0, 0.0, 0.0, 1.7297108693284535E9, 0.0, 2024-10-24 00:44:29.328
100.0, -50357.317967095136, -51519.22869911536, -53347.55669207057, -58207.921172132636, -57665.80196211362, -50528.33116392269, 11471.831675986252, 37664.38813977101, 0.108, 0.9540000000000001, 0.218, 192.0, 0.0, 0.0, 0.0, 0.0, 0.0, 0.0, 0.0, 0.0, 0.0, 1.7297108693324895E9, 0.0, 2024-10-24 00:44:29.332
101.0, -50344.175141355416, -51529.17522539797, -53353.904587495876, -58223.857965929266, -57699.15076484094, -50553.34276596818, 11473.105725420204, 37689.042113905205, 0.108, 0.9540000000000001, 0.218, 192.0, 0.0, 0.0, 0.0, 0.0, 0.0, 0.0, 0.0, 0.0, 0.0, 1.7297108693374267E9, 0.0, 2024-10-24 00:44:29.337
102.0, -50376.83104000462, -51569.43071716198, -53394.49535542671, -58265.07458270486, -57750.55977708814, -50600.30378106878, 11858.852131229894, 38122.01775574896, 0.108, 0.9540000000000001, 0.218, 192.0, 0.0, 0.0, 0.0, 0.0, 0.0, 0.0, 0.0, 0.0, 0.0, 1.7297108693414717E9, 0.0, 2024-10-24 00:44:29.341
103.0, -50398.646342593, -51579.10902251113, -53402.38552121944, -58268.33793739533, -57739.026276949204, -50600.97433340244, 12164.244015722754, 38452.734166709684, 0.108, 0.9540000000000001, 0.218, 192.0, 0.0, 0.0, 0.0, 0.0, 0.0, 0.0, 0.0, 0.0, 0.0, 1.7297108693445492E9, 0.0, 2024-10-24 00:44:29.344
104.0, -50388.81157503266, -51551.370507642096, -53379.56439013057, -58236.1961288686, -57699.70955845232, -50562.46227770594, 11889.205800200201, 38142.916636814676, 0.108, 0.9540000000000001, 0.218, 192.0, 0.0, 0.0, 0.0, 0.0, 0.0, 0.0, 0.0, 0.0, 0.0, 1.729710869348416E9, 0.0, 2024-10-24 00:44:29.348
105.0, -50365.20813288786, -51531.4103998435, -53361.01244223266, -58217.37596003723, -57685.203276300825, -50541.96572804043, 11516.311647452314, 37740.67464359697, 0.108, 0.9540000000000001, 0.218, 192.0, 0.0, 0.0, 0.0, 0.0, 0.0, 0.0, 0.0, 0.0, 0.0, 1.7297108693524208E9, 0.0, 2024-10-24 00:44:29.352
106.0, -50353.09348739308, -51540.08287669216, -53366.063936479564, -58236.509053290974, -57712.695921980856, -50570.84418187669, 11526.302877223836, 37772.77174863479, 0.108, 0.9540000000000001, 0.218, 192.0, 0.0, 0.0, 0.0, 0.0, 0.0, 0.0, 0.0, 0.0, 0.0, 1.7297108693564105E9, 0.0, 2024-10-24 00:44:29.356
107.0, -50375.40052835948, -51568.35783342813, -53393.333064715036, -58270.975443241055, -57740.74736127226, -50607.5457462723, 11909.143556254336, 38203.33340207737, 0.108, 0.9540000000000001, 0.218, 192.0, 0.0, 0.0, 0.0, 0.0, 0.0, 0.0, 0.0, 0.0, 0.0, 1.7297108693604925E9, 0.0, 2024-10-24 00:44:29.360
108.0, -50403.250801950795, -51578.974912044396, -53407.77229163317, -58281.10078347931, -57737.3275443706, -50614.58654577572, 12204.901838886957, 38528.86420832446, 0.108, 0.9540000000000001, 0.218, 192.0, 0.0, 0.0, 0.0, 0.0, 0.0, 0.0, 0.0, 0.0, 0.0, 1.7297108693654892E9, 0.0, 2024-10-24 00:44:29.365
109.0, -50387.0457872207, -51549.5153128523, -53384.05709076609, -58250.03185868644, -57701.497698008745, -50576.49917322388, 11924.78977737305, 38217.43735282867, 0.11, 0.9500000000000001, 0.216, 192.0, 3.0, 112.0, 29.0, 176.0, 6.0, 192.0, 0.0, 0.0, 0.0, 1.729710869369477E9, 0.0, 2024-10-24 00:44:29.369
110.0, -50360.26839736324, -51529.35403935362, -53358.50904685367, -58230.921117177146, -57678.38599424196, -50549.498265921866, 11541.725580897997, 37806.79110369577, 0.11, 0.9500000000000001, 0.216, 192.0, 0.0, 0.0, 0.0, 0.0, 0.0, 0.0, 0.0, 0.0, 0.0, 1.729710869372472E9, 0.0, 2024-10-24 00:44:29.372
111.0, -50344.62217624452, -51539.837007503156, -53359.47017186525, -58250.702411020095, -57705.18573584387, -50575.359234256655, 11556.343621771768, 37844.85612450315, 0.11, 0.9500000000000001, 0.216, 192.0, 0.0, 0.0, 0.0, 0.0, 0.0, 0.0, 0.0, 0.0, 0.0, 1.7297108693765285E9, 0.0, 2024-10-24 00:44:29.376
112.0, -50369.45496433437, -51574.19163873096, -53392.3048844701, -58291.98608302905, -57749.84452126557, -50623.191967391016, 11946.202748561234, 38284.35847572786, 0.11, 0.9500000000000001, 0.216, 192.0, 0.0, 0.0, 0.0, 0.0, 0.0, 0.0, 0.0, 0.0, 0.0, 1.7297108693805113E9, 0.0, 2024-10-24 00:44:29.380
113.0, -50395.04771173569, -51588.36264471563, -53409.91805910088, -58302.223181989575, -57751.99028873328, -50626.947060459504, 12229.108778132055, 38595.02537191217, 0.11, 0.9500000000000001, 0.216, 192.0, 0.0, 0.0, 0.0, 0.0, 0.0, 0.0, 0.0, 0.0, 0.0, 1.72971086938451E9, 0.0, 2024-10-24 00:44:29.384
114.0, -50384.16241218596, -51562.45697289193, -53390.404986191395, -58275.06581247638, -57720.451977306846, -50598.76151070136, 11950.896614896848, 38283.82203386093, 0.11, 0.9500000000000001, 0.216, 192.0, 0.0, 0.0, 0.0, 0.0, 0.0, 0.0, 0.0, 0.0, 0.0, 1.72971086938858E9, 0.0, 2024-10-24 00:44:29.388
115.0, -50358.97199618483, -51536.37248711258, -53370.333119670526, -58253.00464069899, -57700.51422125271, -50578.15320231357, 11573.353299302256, 37877.91435455255, 0.11, 0.9500000000000001, 0.216, 192.0, 0.0, 0.0, 0.0, 0.0, 0.0, 0.0, 0.0, 0.0, 0.0, 1.7297108693934617E9, 0.0, 2024-10-24 00:44:29.393
116.0, -50335.636774973485, -51530.7621992543, -53362.73352655573, -58256.55856806738, -57707.66677947841, -50590.24549606389, 11583.970377918527, 37909.609128190175, 0.11, 0.9500000000000001, 0.216, 192.0, 0.0, 0.0, 0.0, 0.0, 0.0, 0.0, 0.0, 0.0, 0.0, 1.7297108693974931E9, 0.0, 2024-10-24 00:44:29.397
117.0, -50354.367536827034, -51557.11490596711, -53386.51578265617, -58282.53129512445, -57732.879547223994, -50623.37078134665, 11978.635129765884, 38350.743156760116, 0.11, 0.9500000000000001, 0.216, 192.0, 0.0, 0.0, 0.0, 0.0, 0.0, 0.0, 0.0, 0.0, 0.0, 1.729710869400604E9, 0.0, 2024-10-24 00:44:29.400
118.0, -50385.50351685328, -51573.99047303086, -53414.56722194758, -58293.0589667629, -57750.291556154676, -50633.451418096, 12268.604310584584, 38666.14862276895, 0.11, 0.9500000000000001, 0.216, 192.0, 0.0, 0.0, 0.0, 0.0, 0.0, 0.0, 0.0, 0.0, 0.0, 1.72971086940765E9, 0.0, 2024-10-24 00:44:29.407
119.0, -50372.628912047025, -51538.02651620228, -53398.18339326184, -58255.37392561125, -57721.837785463074, -50596.749853700385, 11991.733252016695, 38356.5546103185, 0.114, 0.9520000000000001, 0.212, 192.0, 3.0, 144.0, 29.0, 192.0, 6.0, 160.0, 0.0, 0.0, 0.0, 1.7297108694106395E9, 0.0, 2024-10-24 00:44:29.410
120.0, -50349.74072572479, -51508.61162049909, -53376.16692497336, -58223.25446882898, -57701.631808475475, -50555.89086483608, 11613.049997454882, 37949.037605409336, 0.114, 0.9520000000000001, 0.212, 192.0, 0.0, 0.0, 0.0, 0.0, 0.0, 0.0, 0.0, 0.0, 0.0, 1.7297108694135168E9, 0.0, 2024-10-24 00:44:29.413
121.0, -50339.52597850871, -51515.20538511341, -53377.19510521831, -58233.98330616752, -57717.45684354983, -50574.91219936755, 11629.63499184072, 37987.10262621673, 0.114, 0.9520000000000001, 0.212, 192.0, 0.0, 0.0, 0.0, 0.0, 0.0, 0.0, 0.0, 0.0, 0.0, 1.7297108694166386E9, 0.0, 2024-10-24 00:44:29.416
122.0, -50358.30144385117, -51544.441466860946, -53402.38552121944, -58261.69946929211, -57739.96505021633, -50611.92668818554, 12012.229801682211, 38417.82074187049, 0.114, 0.9520000000000001, 0.212, 192.0, 0.0, 0.0, 0.0, 0.0, 0.0, 0.0, 0.0, 0.0, 0.0, 1.729710869421549E9, 0.0, 2024-10-24 00:44:29.421
123.0, -50385.749386042284, -51560.95940601342, -53422.278573784664, -58268.4049926287, -57751.207977677346, -50615.12298764265, 12302.154279011998, 38737.76361200376, 0.114, 0.9520000000000001, 0.212, 192.0, 0.0, 0.0, 0.0, 0.0, 0.0, 0.0, 0.0, 0.0, 0.0, 1.7297108694256144E9, 0.0, 2024-10-24 00:44:29.425
124.0, -50374.864086492555, -51536.28308013476, -53402.005541563696, -58236.8443294578, -57714.26054409272, -50579.069623836236, 12036.481444416218, 38443.10056484945, 0.114, 0.9520000000000001, 0.212, 192.0, 0.0, 0.0, 0.0, 0.0, 0.0, 0.0, 0.0, 0.0, 0.0, 1.729710869428553E9, 0.0, 2024-10-24 00:44:29.428
125.0, -50355.708641494355, -51518.513443292795, -53383.65475936589, -58219.00763738247, -57696.245038061745, -50560.048289304774, 11653.439599685622, 38032.476667461, 0.114, 0.9520000000000001, 0.212, 192.0, 0.0, 0.0, 0.0, 0.0, 0.0, 0.0, 0.0, 0.0, 0.0, 1.7297108694326265E9, 0.0, 2024-10-24 00:44:29.432
126.0, -50341.04589713167, -51528.25880387531, -53383.14066924342, -58236.441998057606, -57719.46850055081, -50582.24357154889, 11669.443448715621, 38073.134490625205, 0.114, 0.9520000000000001, 0.212, 192.0, 0.0, 0.0, 0.0, 0.0, 0.0, 0.0, 0.0, 0.0, 0.0, 1.7297108694365833E9, 0.0, 2024-10-24 00:44:29.436
127.0, -50363.4870485648, -51557.20431294493, -53414.50016671421, -58268.2038269286, -57766.720088329326, -50615.68178125403, 12056.821531870548, 38510.89340578239, 0.114, 0.9520000000000001, 0.212, 192.0, 0.0, 0.0, 0.0, 0.0, 0.0, 0.0, 0.0, 0.0, 0.0, 1.7297108694405837E9, 0.0, 2024-10-24 00:44:29.440
128.0, -50393.661903579465, -51573.87871430859, -53434.661440212905, -58280.765507312484, -57769.447001152876, -50624.75658950288, 12349.472922023884, 38832.266787560795, 0.114, 0.9520000000000001, 0.212, 192.0, 0.0, 0.0, 0.0, 0.0, 0.0, 0.0, 0.0, 0.0, 0.0, 1.7297108694446878E9, 0.0, 2024-10-24 00:44:29.444
129.0, -50390.91263901146, -51553.113943709606, -53415.75186440371, -58256.04447794491, -57723.13418664148, -50592.65948446506, 12075.261721046178, 38526.45021992329, 0.106, 0.9540000000000001, 0.214, 192.0, 3.0, 80.0, 29.0, 208.0, 6.0, 176.0, 0.0, 0.0, 0.0, 1.7297108694485922E9, 0.0, 2024-10-24 00:44:29.448
130.0, -50372.830077747116, -51534.27142313378, -53393.198954248306, -58233.491567789504, -57697.80966017362, -50563.31164399524, 11698.254847318512, 38119.760229558975, 0.106, 0.9540000000000001, 0.214, 192.0, 0.0, 0.0, 0.0, 0.0, 0.0, 0.0, 0.0, 0.0, 0.0, 1.729710869453627E9, 0.0, 2024-10-24 00:44:29.453
131.0, -50349.5842635136, -51535.09843767863, -53383.31948319906, -58239.50418704798, -57700.89420090845, -50574.26399877835, 11696.779632184462, 38139.22859897955, 0.106, 0.9540000000000001, 0.214, 192.0, 0.0, 0.0, 0.0, 0.0, 0.0, 0.0, 0.0, 0.0, 0.0, 1.7297108694566069E9, 0.0, 2024-10-24 00:44:29.456
132.0, -50376.36165337106, -51572.06822300771, -53414.097835314016, -58279.29029217843, -57737.88633798198, -50617.69343825501, 12089.67859621985, 38578.12745310396, 0.106, 0.9540000000000001, 0.214, 192.0, 0.0, 0.0, 0.0, 0.0, 0.0, 0.0, 0.0, 0.0, 0.0, 1.729710869460827E9, 0.0, 2024-10-24 00:44:29.460
133.0, -50403.56372637317, -51590.19548776096, -53432.85094891202, -58291.96373128459, -57745.17300667441, -50623.393133091115, 12383.894608485058, 38899.880814538104, 0.106, 0.9540000000000001, 0.214, 192.0, 0.0, 0.0, 0.0, 0.0, 0.0, 0.0, 0.0, 0.0, 0.0, 1.7297108694649007E9, 0.0, 2024-10-24 00:44:29.464
134.0, -50401.55206937219, -51569.5201241398, -53419.35049526102, -58268.09206820632, -57714.05937839262, -50592.74889144288, 12116.791262244138, 38600.188624881346, 0.106, 0.9540000000000001, 0.214, 192.0, 0.0, 0.0, 0.0, 0.0, 0.0, 0.0, 0.0, 0.0, 0.0, 1.729710869468671E9, 0.0, 2024-10-24 00:44:29.468
135.0, -50375.24406614829, -51541.46868484839, -53392.86367808148, -58240.30884984838, -57692.489944993256, -50564.876266107116, 11726.060417420915, 38179.59584946583, 0.106, 0.9540000000000001, 0.214, 192.0, 0.0, 0.0, 0.0, 0.0, 0.0, 0.0, 0.0, 0.0, 0.0, 1.729710869472623E9, 0.0, 2024-10-24 00:44:29.472
136.0, -50354.85927520505, -51547.28013840677, -53390.2038204913, -58253.228158143545, -57721.636619762976, -50584.925780883525, 11733.928231469183, 38208.3178410909, 0.106, 0.9540000000000001, 0.214, 192.0, 0.0, 0.0, 0.0, 0.0, 0.0, 0.0, 0.0, 0.0, 0.0, 1.7297108694766548E9, 0.0, 2024-10-24 00:44:29.476
137.0, -50374.41705160344, -51580.092499267164, -53415.99773359272, -58287.5604376269, -57753.17493118942, -50622.00732493488, 12123.452082091819, 38648.24487546025, 0.106, 0.9540000000000001, 0.214, 192.0, 0.0, 0.0, 0.0, 0.0, 0.0, 0.0, 0.0, 0.0, 0.0, 1.729710869481642E9, 0.0, 2024-10-24 00:44:29.481
138.0, -50399.808633304674, -51595.38109247459, -53432.202748322816, -58296.38937668674, -57754.15840794545, -50630.813912250276, 12402.044224982767, 38956.72130068795, 0.106, 0.9540000000000001, 0.214, 192.0, 0.0, 0.0, 0.0, 0.0, 0.0, 0.0, 0.0, 0.0, 0.0, 1.7297108694847395E9, 0.0, 2024-10-24 00:44:29.484
139.0, -50384.05065346368, -51563.44044964796, -53409.73924514523, -58261.185379169634, -57714.5734685151, -50594.6934932105, 12135.186747930855, 38658.59373314306, 0.10400000000000001, 0.9560000000000001, 0.212, 192.0, 3.0, 64.0, 29.0, 224.0, 6.0, 160.0, 0.0, 0.0, 0.0, 1.7297108694896212E9, 0.0, 2024-10-24 00:44:29.489
140.0, -50350.56774026963, -51536.05956269021, -53385.219381477764, -58233.357457322774, -57688.6677966914, -50569.078394064716, 11765.600653362353, 38259.97272252711, 0.10400000000000001, 0.9560000000000001, 0.212, 192.0, 0.0, 0.0, 0.0, 0.0, 0.0, 0.0, 0.0, 0.0, 0.0, 1.7297108694939833E9, 0.0, 2024-10-24 00:44:29.493
141.0, -50323.700943434356, -51531.499806821324, -53379.363224430475, -58234.18447186762, -57704.358721299024, -50581.237743048405, 11776.41889767872, 38292.24864152058, 0.10400000000000001, 0.9560000000000001, 0.212, 192.0, 0.0, 0.0, 0.0, 0.0, 0.0, 0.0, 0.0, 0.0, 0.0, 1.7297108694967096E9, 0.0, 2024-10-24 00:44:29.496
142.0, -50343.325775066114, -51551.12463845309, -53407.302904999604, -58258.950204724104, -57741.395561861464, -50614.54184228681, 12181.611321164528, 38745.05028069619, 0.10400000000000001, 0.9560000000000001, 0.212, 192.0, 0.0, 0.0, 0.0, 0.0, 0.0, 0.0, 0.0, 0.0, 0.0, 1.7297108695007615E9, 0.0, 2024-10-24 00:44:29.500
143.0, -50373.97001671434, -51557.58429260067, -53429.76640817719, -58267.3544606393, -57747.18466367539, -50628.8022552493, 12471.692260705502, 39061.55098218334, 0.10400000000000001, 0.9560000000000001, 0.212, 192.0, 0.0, 0.0, 0.0, 0.0, 0.0, 0.0, 0.0, 0.0, 0.0, 1.7297108695048757E9, 0.0, 2024-10-24 00:44:29.504
144.0, -50369.81259224565, -51527.163568396994, -53413.42728298036, -58237.067846902355, -57715.84751794905, -50592.43596702051, 12186.014614822223, 38743.61976905105, 0.10400000000000001, 0.9560000000000001, 0.212, 192.0, 0.0, 0.0, 0.0, 0.0, 0.0, 0.0, 0.0, 0.0, 0.0, 1.7297108695108435E9, 0.0, 2024-10-24 00:44:29.510
145.0, -50344.041030888686, -51497.94983839391, -53390.539096658125, -58207.38473026571, -57695.12745083898, -50547.24073973188, 11811.399377751277, 38340.170781632754, 0.10400000000000001, 0.9560000000000001, 0.212, 192.0, 0.0, 0.0, 0.0, 0.0, 0.0, 0.0, 0.0, 0.0, 0.0, 1.7297108695139809E9, 0.0, 2024-10-24 00:44:29.513
146.0, -50330.58528072659, -51505.370617553075, -53397.244619994715, -58225.42258804114, -57722.93302094138, -50573.884019122605, 11834.064046628959, 38384.784863565554, 0.10400000000000001, 0.9560000000000001, 0.212, 192.0, 0.0, 0.0, 0.0, 0.0, 0.0, 0.0, 0.0, 0.0, 0.0, 1.7297108695178256E9, 0.0, 2024-10-24 00:44:29.517
147.0, -50348.086696635095, -51533.600870800125, -53421.27274528417, -58256.715030278574, -57753.48785561179, -50612.5972405192, 12226.270106586231, 38822.47672348937, 0.10400000000000001, 0.9560000000000001, 0.212, 192.0, 0.0, 0.0, 0.0, 0.0, 0.0, 0.0, 0.0, 0.0, 0.0, 1.729710869520867E9, 0.0, 2024-10-24 00:44:29.520
148.0, -50375.422880103935, -51551.77283904229, -53434.68379195736, -58263.085277448336, -57745.15065492996, -50615.61472602066, 12521.179022929553, 39143.850105267775, 0.10400000000000001, 0.9560000000000001, 0.212, 192.0, 0.0, 0.0, 0.0, 0.0, 0.0, 0.0, 0.0, 0.0, 0.0, 1.729710869524778E9, 0.0, 2024-10-24 00:44:29.524
149.0, -50367.64447303349, -51527.72236200838, -53409.627486422956, -58227.769521208946, -57700.22364857479, -50574.35340575617, 12223.722007718326, 38811.81494138419, 0.106, 0.9540000000000001, 0.214, 192.0, 3.0, 80.0, 29.0, 208.0, 6.0, 176.0, 0.0, 0.0, 0.0, 1.7297108695288343E9, 0.0, 2024-10-24 00:44:29.528
150.0, -50351.931196681406, -51513.03726590124, -53394.47300368226, -58211.22923031202, -57683.75041291123, -50556.986100314396, 11835.472206529643, 38391.1104072464, 0.106, 0.9540000000000001, 0.214, 192.0, 0.0, 0.0, 0.0, 0.0, 0.0, 0.0, 0.0, 0.0, 0.0, 1.7297108695328512E9, 0.0, 2024-10-24 00:44:29.532
151.0, -50332.284013305194, -51518.53579503725, -53392.66251238138, -58221.80160543938, -57714.148785370446, -50572.274693521824, 11831.672409972241, 38408.25419524362, 0.106, 0.9540000000000001, 0.214, 192.0, 0.0, 0.0, 0.0, 0.0, 0.0, 0.0, 0.0, 0.0, 0.0, 1.7297108695377505E9, 0.0, 2024-10-24 00:44:29.537
152.0, -50353.87579844902, -51549.403554130025, -53418.32231501607, -58254.278690132945, -57751.18562593289, -50605.01999914885, 12255.95322322288, 38885.754512042346, 0.106, 0.9540000000000001, 0.214, 192.0, 0.0, 0.0, 0.0, 0.0, 0.0, 0.0, 0.0, 0.0, 0.0, 1.7297108695407016E9, 0.0, 2024-10-24 00:44:29.540
153.0, -50393.05840647917, -51570.101269495644, -53440.09291411554, -58267.37681238375, -57759.96986150383, -50613.02192366385, 12571.15752353162, 39231.06661213239, 0.106, 0.9540000000000001, 0.214, 192.0, 0.0, 0.0, 0.0, 0.0, 0.0, 0.0, 0.0, 0.0, 0.0, 1.729710869548163E9, 0.0, 2024-10-24 00:44:29.548
154.0, -50387.62693257653, -51547.168379684495, -53416.78004464866, -58236.643163757704, -57712.60651500303, -50575.5380482123, 12273.834618787125, 38894.71756156893, 0.106, 0.9540000000000001, 0.214, 192.0, 0.0, 0.0, 0.0, 0.0, 0.0, 0.0, 0.0, 0.0, 0.0, 1.7297108695496073E9, 0.0, 2024-10-24 00:44:29.549
155.0, -50355.708641494355, -51519.78749272675, -53384.05709076609, -58208.52466923293, -57676.70961340781, -50542.4798181629, 11868.843361001416, 38454.79052719957, 0.106, 0.9540000000000001, 0.214, 192.0, 0.0, 0.0, 0.0, 0.0, 0.0, 0.0, 0.0, 0.0, 0.0, 1.7297108695527296E9, 0.0, 2024-10-24 00:44:29.552
156.0, -50331.43464701589, -51524.526062551275, -53379.40792791938, -58221.399274039184, -57699.06135786312, -50562.23876026139, 11904.896724807826, 38513.30739418357, 0.106, 0.9540000000000001, 0.214, 192.0, 0.0, 0.0, 0.0, 0.0, 0.0, 0.0, 0.0, 0.0, 0.0, 1.7297108695568588E9, 0.0, 2024-10-24 00:44:29.556
157.0, -50364.9846154433, -51565.74267932686, -53417.56235570459, -58264.336975137834, -57744.74832352976, -50609.57975501773, 12350.031715635267, 39011.14779843662, 0.106, 0.9540000000000001, 0.214, 192.0, 0.0, 0.0, 0.0, 0.0, 0.0, 0.0, 0.0, 0.0, 0.0, 1.7297108695607314E9, 0.0, 2024-10-24 00:44:29.560
158.0, -50399.51806062675, -51581.65712137904, -53436.13665534695, -58273.03180373095, -57747.631698564495, -50614.45243530899, 12639.620916798225, 39330.44246798068, 0.106, 0.9540000000000001, 0.214, 192.0, 0.0, 0.0, 0.0, 0.0, 0.0, 0.0, 0.0, 0.0, 0.0, 1.7297108695658906E9, 0.0, 2024-10-24 00:44:29.565
159.0, -50390.175031444436, -51551.95165299793, -53413.896669613925, -58238.92304169215, -57708.4714422788, -50574.44281273399, 12347.34950630063, 39001.84947274321, 0.10400000000000001, 0.9580000000000001, 0.214, 192.0, 3.0, 64.0, 29.0, 240.0, 6.0, 176.0, 0.0, 0.0, 0.0, 1.7297108695687475E9, 0.0, 2024-10-24 00:44:29.568
160.0, -50365.65516777697, -51526.20244338542, -53389.17564024635, -58215.65487571417, -57680.665872176396, -50552.5828066567, 11942.51471072611, 38565.38695876443, 0.10400000000000001, 0.9580000000000001, 0.214, 192.0, 0.0, 0.0, 0.0, 0.0, 0.0, 0.0, 0.0, 0.0, 0.0, 1.7297108695717738E9, 0.0, 2024-10-24 00:44:29.571
161.0, -50339.838902931086, -51525.39778058503, -53381.75486108719, -58224.88614617421, -57698.92724739639, -50567.40201323057, 11965.469952281708, 38615.09723843304, 0.10400000000000001, 0.9580000000000001, 0.214, 192.0, 0.0, 0.0, 0.0, 0.0, 0.0, 0.0, 0.0, 0.0, 0.0, 1.7297108695769956E9, 0.0, 2024-10-24 00:44:29.576
162.0, -50358.39085082899, -51554.723269310394, -53412.86848936898, -58258.43611460163, -57742.80372176215, -50606.115234627156, 12372.271701368298, 39074.13501431167, 0.10400000000000001, 0.9580000000000001, 0.214, 192.0, 0.0, 0.0, 0.0, 0.0, 0.0, 0.0, 0.0, 0.0, 0.0, 1.7297108695808272E9, 0.0, 2024-10-24 00:44:29.580
163.0, -50398.02049374825, -51579.600760889145, -53444.7644287067, -58276.96571075508, -57770.29636744218, -50626.187101148025, 12679.049394017387, 39410.03702998603, 0.10400000000000001, 0.9580000000000001, 0.214, 192.0, 0.0, 0.0, 0.0, 0.0, 0.0, 0.0, 0.0, 0.0, 0.0, 1.729710869586786E9, 0.0, 2024-10-24 00:44:29.586
164.0, -50388.36454014356, -51548.17420818499, -53416.44476848183, -58240.15238763719, -57707.17504110039, -50585.32811228372, 12392.276512655797, 39086.048494106355, 0.10400000000000001, 0.9580000000000001, 0.214, 192.0, 0.0, 0.0, 0.0, 0.0, 0.0, 0.0, 0.0, 0.0, 0.0, 1.7297108695898228E9, 0.0, 2024-10-24 00:44:29.589
165.0, -50350.92536818092, -51505.52707976426, -53376.904532540386, -58199.15928830615, -57659.09643877703, -50542.90450130755, 11969.269748839111, 38632.08456421907, 0.10400000000000001, 0.9580000000000001, 0.214, 192.0, 0.0, 0.0, 0.0, 0.0, 0.0, 0.0, 0.0, 0.0, 0.0, 1.7297108695938709E9, 0.0, 2024-10-24 00:44:29.593
166.0, -50334.13920809498, -51512.76904496778, -53380.36905293096, -58219.27585831593, -57696.736776439764, -50573.325225511224, 11990.481554327198, 38679.671428164416, 0.10400000000000001, 0.9580000000000001, 0.214, 192.0, 0.0, 0.0, 0.0, 0.0, 0.0, 0.0, 0.0, 0.0, 0.0, 1.729710869596889E9, 0.0, 2024-10-24 00:44:29.596
167.0, -50363.0847171646, -51545.78257152827, -53414.83544288104, -58259.33018437984, -57742.64725955096, -50619.30276385579, 12418.36099843514, 39161.99972176549, 0.10400000000000001, 0.9580000000000001, 0.214, 192.0, 0.0, 0.0, 0.0, 0.0, 0.0, 0.0, 0.0, 0.0, 0.0, 1.7297108695999095E9, 0.0, 2024-10-24 00:44:29.599
168.0, -50402.42378740595, -51563.19458045895, -53437.67892571437, -58272.31654790838, -57751.47619861081, -50629.62926979414, 12728.938487641632, 39500.405132818836, 0.10400000000000001, 0.9580000000000001, 0.214, 192.0, 0.0, 0.0, 0.0, 0.0, 0.0, 0.0, 0.0, 0.0, 0.0, 1.7297108696048465E9, 0.0, 2024-10-24 00:44:29.604
169.0, -50397.66286583697, -51538.83117900267, -53418.45642548281, -58243.572204538854, -57716.49571853825, -50592.771243187344, 12429.425111940518, 39163.56434387736, 0.10400000000000001, 0.9540000000000001, 0.216, 192.0, 3.0, 64.0, 29.0, 208.0, 6.0, 192.0, 0.0, 0.0, 0.0, 1.7297108696088507E9, 0.0, 2024-10-24 00:44:29.608
170.0, -50376.42870860442, -51517.55231828122, -53393.93656181533, -58218.78411993792, -57687.4160990019, -50558.05898404825, 12022.33279017601, 38724.754896730774, 0.10400000000000001, 0.9540000000000001, 0.216, 192.0, 0.0, 0.0, 0.0, 0.0, 0.0, 0.0, 0.0, 0.0, 0.0, 1.7297108696128895E9, 0.0, 2024-10-24 00:44:29.612
171.0, -50352.0876588926, -51525.62129802958, -53392.17077400336, -58235.41381781267, -57710.84072719106, -50579.02492034733, 12051.613575412463, 38778.55554563469, 0.10400000000000001, 0.9540000000000001, 0.216, 192.0, 0.0, 0.0, 0.0, 0.0, 0.0, 0.0, 0.0, 0.0, 0.0, 1.7297108696168823E9, 0.0, 2024-10-24 00:44:29.616
172.0, -50374.39469985899, -51561.16057171352, -53425.29605928613, -58274.41761188718, -57755.320698657124, -50623.527243557844, 12499.319016852263, 39279.25697317803, 0.10400000000000001, 0.9540000000000001, 0.216, 192.0, 0.0, 0.0, 0.0, 0.0, 0.0, 0.0, 0.0, 0.0, 0.0, 1.7297108696219845E9, 0.0, 2024-10-24 00:44:29.621
173.0, -50412.99616253331, -51586.08276678119, -53455.22504511179, -58288.14158298273, -57764.19434120588, -50631.082133183736, 12783.47674411258, 39592.00258159669, 0.10400000000000001, 0.9540000000000001, 0.216, 192.0, 0.0, 0.0, 0.0, 0.0, 0.0, 0.0, 0.0, 0.0, 0.0, 1.729710869625088E9, 0.0, 2024-10-24 00:44:29.625
174.0, -50410.15749098748, -51567.73198458338, -53438.349478048025, -58259.88897799123, -57726.19637563186, -50593.12887109863, 12485.550342267794, 39258.0675194344, 0.10400000000000001, 0.9540000000000001, 0.216, 192.0, 0.0, 0.0, 0.0, 0.0, 0.0, 0.0, 0.0, 0.0, 0.0, 1.729710869628055E9, 0.0, 2024-10-24 00:44:29.628
175.0, -50383.335397641116, -51544.03913546076, -53409.31456200058, -58233.42451255614, -57696.55796248412, -50564.161010284544, 12103.223753359765, 38844.96257841141, 0.10400000000000001, 0.9540000000000001, 0.216, 192.0, 0.0, 0.0, 0.0, 0.0, 0.0, 0.0, 0.0, 0.0, 0.0, 1.7297108696329243E9, 0.0, 2024-10-24 00:44:29.632
176.0, -50365.141077654494, -51547.01191747331, -53405.4030067209, -58242.879300460736, -57711.354817313535, -50582.46708899344, 12149.424809148886, 38917.02460253532, 0.10400000000000001, 0.9540000000000001, 0.216, 192.0, 0.0, 0.0, 0.0, 0.0, 0.0, 0.0, 0.0, 0.0, 0.0, 1.7297108696368308E9, 0.0, 2024-10-24 00:44:29.636
177.0, -50383.82713601913, -51575.33157769818, -53434.75084719072, -58273.076507219856, -57751.677364310905, -50618.11812139966, 12580.522904458394, 39400.09050370342, 0.10400000000000001, 0.9540000000000001, 0.216, 192.0, 0.0, 0.0, 0.0, 0.0, 0.0, 0.0, 0.0, 0.0, 0.0, 1.7297108696408515E9, 0.0, 2024-10-24 00:44:29.640
178.0, -50417.31004921318, -51589.30141798275, -53458.0190131687, -58281.883094535246, -57761.93681501589, -50623.1472639021, 12902.7456525261, 39748.19657185037, 0.10400000000000001, 0.9540000000000001, 0.216, 192.0, 0.0, 0.0, 0.0, 0.0, 0.0, 0.0, 0.0, 0.0, 0.0, 1.7297108696450205E9, 0.0, 2024-10-24 00:44:29.645
179.0, -50400.88151703853, -51549.18003668547, -53426.30188778662, -58239.48183530353, -57709.07493937909, -50575.649806934576, 12590.983520863478, 39397.47534960215, 0.10200000000000001, 0.9560000000000001, 0.21, 192.0, 3.0, 48.0, 29.0, 224.0, 6.0, 144.0, 0.0, 0.0, 0.0, 1.729710869648918E9, 0.0, 2024-10-24 00:44:29.648
180.0, -50380.250856906285, -51517.21704211439, -53403.57016367557, -58218.44884377108, -57688.645444946946, -50551.800495600764, 12184.628806665994, 38959.11293734467, 0.10200000000000001, 0.9560000000000001, 0.21, 192.0, 0.0, 0.0, 0.0, 0.0, 0.0, 0.0, 0.0, 0.0, 0.0, 1.7297108696528456E9, 0.0, 2024-10-24 00:44:29.652
181.0, -50357.09444965058, -51507.56108850969, -53402.27376249716, -58230.11645437676, -57714.774634215195, -50573.10170806667, 12200.386786506986, 38999.994277953425, 0.10200000000000001, 0.9560000000000001, 0.21, 192.0, 0.0, 0.0, 0.0, 0.0, 0.0, 0.0, 0.0, 0.0, 0.0, 1.729710869656396E9, 0.0, 2024-10-24 00:44:29.656
182.0, -50376.741633026795, -51519.18399562645, -53430.14638783293, -58260.87245474726, -57750.023335221216, -50611.81492946326, 12610.20602109504, 39462.362463755904, 0.10200000000000001, 0.9560000000000001, 0.21, 192.0, 0.0, 0.0, 0.0, 0.0, 0.0, 0.0, 0.0, 0.0, 0.0, 1.7297108696618683E9, 0.0, 2024-10-24 00:44:29.661
183.0, -50417.53356665773, -51514.78070196876, -53452.38637356596, -58269.522579851466, -57749.129265443, -50616.66525801006, 12931.08766449543, 39811.899043547994, 0.10200000000000001, 0.9560000000000001, 0.21, 192.0, 0.0, 0.0, 0.0, 0.0, 0.0, 0.0, 0.0, 0.0, 0.0, 1.7297108696648424E9, 0.0, 2024-10-24 00:44:29.664
184.0, -50396.76879605875, -51476.067480572165, -53418.29996327162, -58226.584878752816, -57704.76105269922, -50572.29704526628, 12634.636477784692, 39481.98729538766, 0.10200000000000001, 0.9560000000000001, 0.21, 192.0, 0.0, 0.0, 0.0, 0.0, 0.0, 0.0, 0.0, 0.0, 0.0, 1.7297108696709528E9, 0.0, 2024-10-24 00:44:29.670
185.0, -50363.82232473163, -51444.03743076771, -53390.36028270248, -58195.94063710459, -57678.073069819584, -50540.825789073206, 12247.012525440756, 39064.7696333849, 0.10200000000000001, 0.9560000000000001, 0.21, 192.0, 0.0, 0.0, 0.0, 0.0, 0.0, 0.0, 0.0, 0.0, 0.0, 1.7297108696738443E9, 0.0, 2024-10-24 00:44:29.673
186.0, -50339.86125467554, -51442.00342202228, -53385.10762275549, -58206.04362559839, -57694.25573280522, -50558.304853237256, 12259.57420582464, 39103.21463384803, 0.10200000000000001, 0.9560000000000001, 0.21, 192.0, 0.0, 0.0, 0.0, 0.0, 0.0, 0.0, 0.0, 0.0, 0.0, 1.7297108696768723E9, 0.0, 2024-10-24 00:44:29.676
187.0, -50361.92242645293, -51472.781774137235, -53414.43311148085, -58241.33703009332, -57730.68907626737, -50599.744987457394, 12676.009556771465, 39571.26016274216, 0.10200000000000001, 0.9560000000000001, 0.21, 192.0, 0.0, 0.0, 0.0, 0.0, 0.0, 0.0, 0.0, 0.0, 0.0, 1.7297108696809888E9, 0.0, 2024-10-24 00:44:29.680
188.0, -50392.72313031234, -51492.54071623573, -53434.52732974617, -58254.32339362185, -57737.931041470896, -50612.15020563009, 12989.537476246058, 39912.41483836351, 0.10200000000000001, 0.9560000000000001, 0.21, 192.0, 0.0, 0.0, 0.0, 0.0, 0.0, 0.0, 0.0, 0.0, 0.0, 1.7297108696839273E9, 0.0, 2024-10-24 00:44:29.683
189.0, -50386.35288314258, -51465.897436845, -53412.53321320215, -58222.740378706505, -57703.48700326527, -50579.002568602875, 12702.764594884467, 39588.18043329483, 0.106, 0.9580000000000001, 0.212, 192.0, 3.0, 80.0, 29.0, 240.0, 6.0, 160.0, 0.0, 0.0, 0.0, 1.7297108696879137E9, 0.0, 2024-10-24 00:44:29.687
190.0, -50363.21882763134, -51437.86834929805, -53389.354454201995, -58197.95229410557, -57677.26840701919, -50553.92391132402, 12291.403089928996, 39143.78305003441, 0.106, 0.9580000000000001, 0.212, 192.0, 0.0, 0.0, 0.0, 0.0, 0.0, 0.0, 0.0, 0.0, 0.0, 1.7297108696929996E9, 0.0, 2024-10-24 00:44:29.692
191.0, -50355.10514439406, -51446.87610231354, -53399.43509095134, -58217.82299492634, -57714.32759932609, -50572.96759759994, 12317.82285187517, 39192.174576780155, 0.106, 0.9580000000000001, 0.212, 192.0, 0.0, 0.0, 0.0, 0.0, 0.0, 0.0, 0.0, 0.0, 0.0, 1.7297108696970253E9, 0.0, 2024-10-24 00:44:29.697
192.0, -50380.92140923994, -51476.02277708326, -53432.94035588984, -58253.27286163245, -57753.1302277005, -50614.87711845364, 12743.154197115207, 39668.669065078386, 0.106, 0.9580000000000001, 0.212, 192.0, 0.0, 0.0, 0.0, 0.0, 0.0, 0.0, 0.0, 0.0, 0.0, 1.7297108697009563E9, 0.0, 2024-10-24 00:44:29.700
193.0, -50417.04182827972, -51491.69134994643, -53451.58171076557, -58264.71695479357, -57752.884358511496, -50627.05881918178, 13057.10679973445, 40012.617708756654, 0.106, 0.9580000000000001, 0.212, 192.0, 0.0, 0.0, 0.0, 0.0, 0.0, 0.0, 0.0, 0.0, 0.0, 1.7297108697051065E9, 0.0, 2024-10-24 00:44:29.705
194.0, -50407.587040375125, -51457.49318092981, -53425.6089837085, -58223.76855895145, -57712.80768070313, -50572.073527821725, 12733.788816188433, 39655.01214921619, 0.106, 0.9580000000000001, 0.212, 192.0, 0.0, 0.0, 0.0, 0.0, 0.0, 0.0, 0.0, 0.0, 0.0, 1.7297108697090328E9, 0.0, 2024-10-24 00:44:29.709
195.0, -50377.948627227386, -51425.28431716971, -53394.383596704436, -58190.911494602144, -57675.86024711851, -50530.29811743476, 12332.485596237851, 39222.59530098383, 0.106, 0.9580000000000001, 0.212, 192.0, 0.0, 0.0, 0.0, 0.0, 0.0, 0.0, 0.0, 0.0, 0.0, 1.729710869711956E9, 0.0, 2024-10-24 00:44:29.711
196.0, -50365.94574045488, -51434.35912541856, -53397.57989616155, -58211.340989034295, -57694.70276769433, -50560.71884163843, 12369.58949203366, 39281.648609834745, 0.106, 0.9580000000000001, 0.212, 192.0, 0.0, 0.0, 0.0, 0.0, 0.0, 0.0, 0.0, 0.0, 0.0, 1.7297108697169402E9, 0.0, 2024-10-24 00:44:29.716
197.0, -50386.196420931396, -51471.28420725873, -53430.77223667768, -58252.937585465625, -57748.16814043142, -50608.61863000615, 12808.220125224607, 39770.4365575834, 0.106, 0.9580000000000001, 0.212, 192.0, 0.0, 0.0, 0.0, 0.0, 0.0, 0.0, 0.0, 0.0, 0.0, 1.7297108697209709E9, 0.0, 2024-10-24 00:44:29.720
198.0, -50429.42469470796, -51498.21805932737, -53460.83533297007, -58273.6576525757, -57758.98638474779, -50622.767284246365, 13110.30395153808, 40100.638878421654, 0.106, 0.9580000000000001, 0.212, 192.0, 0.0, 0.0, 0.0, 0.0, 0.0, 0.0, 0.0, 0.0, 0.0, 1.7297108697260797E9, 0.0, 2024-10-24 00:44:29.726
199.0, -50419.63463063653, -51473.698195659905, -53435.24258556874, -58244.08629466132, -57708.24792483425, -50585.998664617386, 12811.706997359634, 39766.50265055927, 0.10400000000000001, 0.9560000000000001, 0.20600000000000002, 192.0, 3.0, 64.0, 29.0, 224.0, 6.0, 112.0, 0.0, 0.0, 0.0, 1.7297108697301085E9, 0.0, 2024-10-24 00:44:29.730
200.0, -50393.237220434814, -51452.06170702716, -53413.270820769176, -58226.83074794183, -57691.014729859206, -50573.6381499336, 12433.180205009008, 39358.963293905654, 0.10400000000000001, 0.9560000000000001, 0.20600000000000002, 192.0, 0.0, 0.0, 0.0, 0.0, 0.0, 0.0, 0.0, 0.0, 0.0, 1.7297108697329748E9, 0.0, 2024-10-24 00:44:29.732
201.0, -50370.41608934595, -51454.47569542834, -53407.727588144255, -58237.51488179146, -57708.6726079789, -50585.37281577264, 12466.104324591675, 39416.47433238916, 0.10400000000000001, 0.9560000000000001, 0.20600000000000002, 192.0, 0.0, 0.0, 0.0, 0.0, 0.0, 0.0, 0.0, 0.0, 0.0, 1.7297108697369442E9, 0.0, 2024-10-24 00:44:29.736
202.0, -50396.746444314296, -51490.23848655683, -53442.48455077226, -58273.143562453224, -57754.270166667724, -50618.34163884421, 12899.638760046812, 39901.44013183596, 0.10400000000000001, 0.9560000000000001, 0.20600000000000002, 192.0, 0.0, 0.0, 0.0, 0.0, 0.0, 0.0, 0.0, 0.0, 0.0, 1.7297108697399993E9, 0.0, 2024-10-24 00:44:29.739
203.0, -50434.0515058102, -51507.874012932065, -53468.25611212923, -58285.12409748127, -57771.682175598406, -50632.825569251254, 13218.732263890775, 40250.037938360925, 0.10400000000000001, 0.9560000000000001, 0.20600000000000002, 192.0, 0.0, 0.0, 0.0, 0.0, 0.0, 0.0, 0.0, 0.0, 0.0, 1.7297108697439773E9, 0.0, 2024-10-24 00:44:29.743
204.0, -50425.468435939365, -51476.31334976117, -53443.043344383645, -58245.71797200656, -57722.50833779673, -50587.07154835124, 12911.731053797133, 39908.168006917, 0.10400000000000001, 0.9560000000000001, 0.20600000000000002, 192.0, 0.0, 0.0, 0.0, 0.0, 0.0, 0.0, 0.0, 0.0, 0.0, 1.729710869749007E9, 0.0, 2024-10-24 00:44:29.749
205.0, -50388.45394712138, -51446.496122657794, -53400.887954340935, -58214.358474535766, -57673.58036918406, -50557.56724567023, 12493.149935382598, 39457.60154218692, 0.10400000000000001, 0.9560000000000001, 0.20600000000000002, 192.0, 0.0, 0.0, 0.0, 0.0, 0.0, 0.0, 0.0, 0.0, 0.0, 1.7297108697530506E9, 0.0, 2024-10-24 00:44:29.753
206.0, -50368.11385966705, -51455.593282651105, -53402.497279941716, -58232.463387544565, -57706.90682016693, -50582.24357154889, 12541.00502026141, 39529.10477269945, 0.10400000000000001, 0.9560000000000001, 0.20600000000000002, 192.0, 0.0, 0.0, 0.0, 0.0, 0.0, 0.0, 0.0, 0.0, 0.0, 1.7297108697570782E9, 0.0, 2024-10-24 00:44:29.757
207.0, -50382.17310692944, -51477.16271605047, -53427.64299245393, -58254.9492424666, -57741.842596750575, -50604.77412995984, 12987.436412267258, 40027.77219149735, 0.10400000000000001, 0.9560000000000001, 0.20600000000000002, 192.0, 0.0, 0.0, 0.0, 0.0, 0.0, 0.0, 0.0, 0.0, 0.0, 1.7297108697610304E9, 0.0, 2024-10-24 00:44:29.761
208.0, -50413.97963928934, -51488.42799525595, -53446.10553337402, -58257.51969307896, -57747.67640205341, -50603.43302529252, 13281.987700699294, 40350.30786398743, 0.10400000000000001, 0.9560000000000001, 0.20600000000000002, 192.0, 0.0, 0.0, 0.0, 0.0, 0.0, 0.0, 0.0, 0.0, 0.0, 1.7297108697639992E9, 0.0, 2024-10-24 00:44:29.763
209.0, -50411.275078210245, -51468.46788745736, -53430.325201788575, -58230.45173054359, -57711.24305859126, -50575.87332437913, 12961.776609632565, 39993.90929864756, 0.10200000000000001, 0.9480000000000001, 0.20800000000000002, 192.0, 3.0, 48.0, 29.0, 160.0, 6.0, 128.0, 0.0, 0.0, 0.0, 1.7297108697679868E9, 0.0, 2024-10-24 00:44:29.767
210.0, -50388.141022699005, -51445.08796275711, -53402.497279941716, -58202.51204997445, -57675.144991295936, -50545.83257983119, 12579.67353816909, 39580.11145354646, 0.10200000000000001, 0.9480000000000001, 0.20800000000000002, 192.0, 0.0, 0.0, 0.0, 0.0, 0.0, 0.0, 0.0, 0.0, 0.0, 1.729710869772143E9, 0.0, 2024-10-24 00:44:29.772
211.0, -50374.931141725916, -51446.630233124524, -53405.604172421, -58212.79385242389, -57706.92917191138, -50565.010376573846, 12630.16612889363, 39655.34742538303, 0.10200000000000001, 0.9480000000000001, 0.20800000000000002, 192.0, 0.0, 0.0, 0.0, 0.0, 0.0, 0.0, 0.0, 0.0, 0.0, 1.729710869777103E9, 0.0, 2024-10-24 00:44:29.777
212.0, -50397.52875537024, -51475.08400381613, -53434.95201289082, -58242.879300460736, -57747.13996018648, -50601.26490608036, 13060.839541058487, 40137.11692537271, 0.10200000000000001, 0.9480000000000001, 0.20800000000000002, 192.0, 0.0, 0.0, 0.0, 0.0, 0.0, 0.0, 0.0, 0.0, 0.0, 1.7297108697810142E9, 0.0, 2024-10-24 00:44:29.781
213.0, -50431.25753775329, -51488.785623167234, -53450.55353052063, -58248.66840227466, -57741.3285066281, -50611.88198469663, 13378.83780942414, 40482.697246396216, 0.10200000000000001, 0.9480000000000001, 0.20800000000000002, 192.0, 0.0, 0.0, 0.0, 0.0, 0.0, 0.0, 0.0, 0.0, 0.0, 1.729710869785044E9, 0.0, 2024-10-24 00:44:29.785
214.0, -50419.58992714762, -51455.101544273086, -53423.61967845198, -58207.25061979898, -57703.4199480319, -50564.04925156227, 13060.638375358389, 40129.96436714702, 0.10200000000000001, 0.9480000000000001, 0.20800000000000002, 192.0, 0.0, 0.0, 0.0, 0.0, 0.0, 0.0, 0.0, 0.0, 0.0, 1.7297108697890587E9, 0.0, 2024-10-24 00:44:29.789
215.0, -50386.12936569803, -51419.9869537338, -53390.874372824954, -58173.119506015726, -57666.38310746945, -50523.480835375885, 12653.79192278289, 39691.177271744884, 0.10200000000000001, 0.9480000000000001, 0.20800000000000002, 192.0, 0.0, 0.0, 0.0, 0.0, 0.0, 0.0, 0.0, 0.0, 0.0, 1.7297108697921386E9, 0.0, 2024-10-24 00:44:29.792
216.0, -50371.377214357526, -51422.803273535166, -53394.78592810463, -58190.68797715759, -57699.530744496675, -50549.498265921866, 12700.775289627945, 39761.227638867815, 0.10200000000000001, 0.9480000000000001, 0.20800000000000002, 192.0, 0.0, 0.0, 0.0, 0.0, 0.0, 0.0, 0.0, 0.0, 0.0, 1.7297108697962916E9, 0.0, 2024-10-24 00:44:29.796
217.0, -50392.43255763443, -51448.731297103324, -53425.78779766415, -58228.35066656479, -57737.39459960397, -50596.99572288939, 13133.795634960608, 40244.85233364729, 0.10200000000000001, 0.9480000000000001, 0.20800000000000002, 192.0, 0.0, 0.0, 0.0, 0.0, 0.0, 0.0, 0.0, 0.0, 0.0, 1.7297108698001409E9, 0.0, 2024-10-24 00:44:29.800
218.0, -50427.34598247361, -51463.081117043635, -53448.072486886085, -58243.23692837202, -57739.40625660495, -50608.573926517245, 13441.959135765926, 40580.352017921454, 0.10200000000000001, 0.9480000000000001, 0.20800000000000002, 192.0, 0.0, 0.0, 0.0, 0.0, 0.0, 0.0, 0.0, 0.0, 0.0, 1.7297108698041475E9, 0.0, 2024-10-24 00:44:29.804
219.0, -50422.78622660473, -51437.64483185349, -53434.169701834886, -58220.080521116324, -57711.28776208017, -50577.795574402284, 13140.992896675218, 40242.93008362414, 0.10200000000000001, 0.9480000000000001, 0.20800000000000002, 192.0, 0.0, 0.0, 0.0, 0.0, 0.0, 0.0, 0.0, 0.0, 0.0, 1.7297108698091345E9, 0.0, 2024-10-24 00:44:29.809
220.0, -50394.95830475787, -51413.907279241954, -53412.57791669106, -58202.17677380762, -57691.148840325935, -50557.50019043687, 12739.28734532444, 39809.663869102464, 0.10400000000000001, 0.9460000000000001, 0.21, 192.0, 3.0, 64.0, 29.0, 144.0, 6.0, 144.0, 0.0, 0.0, 0.0, 1.7297108698131373E9, 0.0, 2024-10-24 00:44:29.813
221.0, -50368.96322595635, -51420.277526411715, -53410.07452131206, -58219.56643099385, -57718.26150635022, -50580.030748847814, 12771.876188740276, 39865.02914011826, 0.10400000000000001, 0.9460000000000001, 0.21, 192.0, 0.0, 0.0, 0.0, 0.0, 0.0, 0.0, 0.0, 0.0, 0.0, 1.7297108698171675E9, 0.0, 2024-10-24 00:44:29.817
222.0, -50388.7445197993, -51455.3474134621, -53436.33782104705, -58258.01143145698, -57750.44801836587, -50621.2473656234, 13194.480621156767, 40337.209741736624, 0.10400000000000001, 0.9460000000000001, 0.21, 192.0, 0.0, 0.0, 0.0, 0.0, 0.0, 0.0, 0.0, 0.0, 0.0, 1.7297108698201685E9, 0.0, 2024-10-24 00:44:29.820
223.0, -50425.69195338392, -51481.81187889718, -53459.33776609156, -58276.71984156607, -57759.634585337, -50635.66424079707, 13496.072709092226, 40665.26629510716, 0.10400000000000001, 0.9460000000000001, 0.21, 192.0, 0.0, 0.0, 0.0, 0.0, 0.0, 0.0, 0.0, 0.0, 0.0, 1.7297108698245225E9, 0.0, 2024-10-24 00:44:29.824
224.0, -50416.818310835166, -51459.75070711979, -53434.035591368156, -58246.790855740415, -57721.65897150743, -50597.06277812276, 13182.142458217439, 40315.4167908927, 0.10400000000000001, 0.9460000000000001, 0.21, 192.0, 0.0, 0.0, 0.0, 0.0, 0.0, 0.0, 0.0, 0.0, 0.0, 1.7297108698287945E9, 0.0, 2024-10-24 00:44:29.828
225.0, -50388.632761077024, -51434.02384925173, -53404.3524747315, -58219.320561804845, -57689.18188681387, -50567.26790276384, 12799.525296631491, 39898.84732947914, 0.10400000000000001, 0.9460000000000001, 0.21, 192.0, 0.0, 0.0, 0.0, 0.0, 0.0, 0.0, 0.0, 0.0, 0.0, 1.7297108698321395E9, 0.0, 2024-10-24 00:44:29.832
226.0, -50363.196475886885, -51437.08603824211, -53400.57502991856, -58230.854061943784, -57714.774634215195, -50589.37377803013, 12856.410486270248, 39978.62070544013, 0.10400000000000001, 0.9460000000000001, 0.21, 192.0, 0.0, 0.0, 0.0, 0.0, 0.0, 0.0, 0.0, 0.0, 0.0, 1.729710869838008E9, 0.0, 2024-10-24 00:44:29.838
227.0, -50386.77756628723, -51468.37848047954, -53430.10168434402, -58261.475951847555, -57752.63848932249, -50626.20945289248, 13311.20143070238, 40483.27839175206, 0.10400000000000001, 0.9460000000000001, 0.21, 192.0, 0.0, 0.0, 0.0, 0.0, 0.0, 0.0, 0.0, 0.0, 0.0, 1.7297108698411276E9, 0.0, 2024-10-24 00:44:29.841
228.0, -50419.16524400297, -51485.18699230993, -53443.5127310172, -58263.979347226545, -57744.56950957412, -50623.3484296022, 13623.052969342825, 40820.633270816004, 0.10400000000000001, 0.9460000000000001, 0.21, 192.0, 0.0, 0.0, 0.0, 0.0, 0.0, 0.0, 0.0, 0.0, 0.0, 1.7297108698454452E9, 0.0, 2024-10-24 00:44:29.845
229.0, -50409.57634563164, -51460.980053064835, -53417.025913837664, -58228.10479737578, -57704.8728114215, -50581.12598432613, 13311.357892913567, 40472.840127091426, 0.10400000000000001, 0.9460000000000001, 0.21, 192.0, 0.0, 0.0, 0.0, 0.0, 0.0, 0.0, 0.0, 0.0, 0.0, 1.7297108698493755E9, 0.0, 2024-10-24 00:44:29.849
230.0, -50379.91558073945, -51431.29693642818, -53388.19216349032, -58195.71711966004, -57675.972005840784, -50547.79953334326, 12907.797146772999, 40038.433973602536, 0.10400000000000001, 0.9500000000000001, 0.212, 192.0, 3.0, 64.0, 29.0, 176.0, 6.0, 160.0, 0.0, 0.0, 0.0, 1.729710869853139E9, 0.0, 2024-10-24 00:44:29.853
231.0, -50367.97974920032, -51438.27068069824, -53390.58380014703, -58208.88229714421, -57697.60849447352, -50568.96663534244, 12932.406417418291, 40086.311410225804, 0.10400000000000001, 0.9500000000000001, 0.212, 192.0, 0.0, 0.0, 0.0, 0.0, 0.0, 0.0, 0.0, 0.0, 0.0, 1.729710869856195E9, 0.0, 2024-10-24 00:44:29.856
232.0, -50391.985522745315, -51472.80412588169, -53420.78100690616, -58239.660649259175, -57735.829977492096, -50600.192022346506, 13373.4063355215, 40575.70285507475, 0.10400000000000001, 0.9500000000000001, 0.212, 192.0, 0.0, 0.0, 0.0, 0.0, 0.0, 0.0, 0.0, 0.0, 0.0, 1.7297108698602831E9, 0.0, 2024-10-24 00:44:29.860
233.0, -50423.099151027105, -51486.282227788244, -53436.78485593616, -58240.979402182034, -57735.38294260299, -50597.6439234786, 13671.355089110744, 40897.79149267572, 0.10400000000000001, 0.9500000000000001, 0.212, 192.0, 0.0, 0.0, 0.0, 0.0, 0.0, 0.0, 0.0, 0.0, 0.0, 1.7297108698651736E9, 0.0, 2024-10-24 00:44:29.865
234.0, -50416.17011024596, -51456.42029719595, -53408.487547455734, -58202.91438137465, -57683.19161929985, -50555.153257269056, 13361.850483638107, 40548.79135475056, 0.10400000000000001, 0.9500000000000001, 0.212, 192.0, 0.0, 0.0, 0.0, 0.0, 0.0, 0.0, 0.0, 0.0, 0.0, 1.7297108698692703E9, 0.0, 2024-10-24 00:44:29.869
235.0, -50384.385929630516, -51431.408695150465, -53383.09596575451, -58176.76284036194, -57666.69603189183, -50530.23106220139, 12963.989432333641, 40117.11211408521, 0.10400000000000001, 0.9500000000000001, 0.212, 192.0, 0.0, 0.0, 0.0, 0.0, 0.0, 0.0, 0.0, 0.0, 0.0, 1.7297108698731942E9, 0.0, 2024-10-24 00:44:29.873
236.0, -50375.44523184839, -51443.81391332316, -53388.46038442378, -58196.588837693795, -57689.3159972806, -50560.62943466061, 13013.699712002244, 40188.21301319754, 0.10400000000000001, 0.9500000000000001, 0.212, 192.0, 0.0, 0.0, 0.0, 0.0, 0.0, 0.0, 0.0, 0.0, 0.0, 1.7297108698761976E9, 0.0, 2024-10-24 00:44:29.876
237.0, -50405.01658976276, -51479.12966956254, -53422.61384995149, -58235.19030036811, -57730.13028265599, -50605.62349624914, 13451.61508937062, 40673.87171672246, 0.10400000000000001, 0.9500000000000001, 0.212, 192.0, 0.0, 0.0, 0.0, 0.0, 0.0, 0.0, 0.0, 0.0, 0.0, 1.7297108698802E9, 0.0, 2024-10-24 00:44:29.880
238.0, -50445.249729782314, -51498.68744596094, -53449.681812486866, -58249.2495476305, -57745.66474505243, -50612.23961260791, 13750.793188904905, 40997.39086596857, 0.10400000000000001, 0.9500000000000001, 0.212, 192.0, 0.0, 0.0, 0.0, 0.0, 0.0, 0.0, 0.0, 0.0, 0.0, 1.7297108698842013E9, 0.0, 2024-10-24 00:44:29.884
239.0, -50437.31486050068, -51468.8478671131, -53428.067675598584, -58218.56060249336, -57702.28000906468, -50572.699376666475, 13442.540281121765, 40649.86594317746, 0.10400000000000001, 0.9500000000000001, 0.212, 192.0, 0.0, 0.0, 0.0, 0.0, 0.0, 0.0, 0.0, 0.0, 0.0, 1.7297108698881943E9, 0.0, 2024-10-24 00:44:29.888
240.0, -50412.83970032212, -51440.57291037714, -53403.9054398424, -58198.354625505766, -57682.409308243914, -50551.9793095564, 13051.407104898348, 40224.78046712643, 0.11, 0.9580000000000001, 0.218, 192.0, 3.0, 112.0, 29.0, 240.0, 6.0, 208.0, 0.0, 0.0, 0.0, 1.729710869892235E9, 0.0, 2024-10-24 00:44:29.892
241.0, -50398.914563526465, -51447.50195115828, -53411.795605635125, -58220.90753566117, -57721.94954418535, -50580.52248722583, 13101.050329333584, 40296.48486333905, 0.11, 0.9580000000000001, 0.218, 192.0, 0.0, 0.0, 0.0, 0.0, 0.0, 0.0, 0.0, 0.0, 0.0, 1.7297108698973305E9, 0.0, 2024-10-24 00:44:29.897
242.0, -50421.95921205988, -51475.70985266088, -53444.943242662346, -58259.86662624677, -57765.35663191756, -50629.964545960975, 13523.498299538887, 40768.53135449068, 0.11, 0.9580000000000001, 0.218, 192.0, 0.0, 0.0, 0.0, 0.0, 0.0, 0.0, 0.0, 0.0, 0.0, 1.7297108699011908E9, 0.0, 2024-10-24 00:44:29.901
243.0, -50453.34106127513, -51492.80893716919, -53462.51171380421, -58275.445792132115, -57765.98248076231, -50644.04614496782, 13829.471329387587, 41099.225413706954, 0.11, 0.9580000000000001, 0.218, 192.0, 0.0, 0.0, 0.0, 0.0, 0.0, 0.0, 0.0, 0.0, 0.0, 1.729710869904192E9, 0.0, 2024-10-24 00:44:29.904
244.0, -50434.61029942159, -51460.42125945345, -53428.648820954426, -58237.559585280374, -57714.014674903716, -50595.498156010886, 13519.854965192673, 40753.175706049886, 0.11, 0.9580000000000001, 0.218, 192.0, 0.0, 0.0, 0.0, 0.0, 0.0, 0.0, 0.0, 0.0, 0.0, 1.7297108699082117E9, 0.0, 2024-10-24 00:44:29.908
245.0, -50413.68906661142, -51445.53499764622, -53412.220288779776, -58224.99790489649, -57699.0166543742, -50579.87428663663, 13131.091073881516, 40331.93473004517, 0.11, 0.9580000000000001, 0.218, 192.0, 0.0, 0.0, 0.0, 0.0, 0.0, 0.0, 0.0, 0.0, 0.0, 1.7297108699122353E9, 0.0, 2024-10-24 00:44:29.912
246.0, -50402.08851123912, -51458.76723036376, -53422.59149820704, -58249.80834124188, -57737.37224785951, -50610.92085968505, 13185.986958263751, 40408.22123387113, 0.11, 0.9580000000000001, 0.218, 192.0, 0.0, 0.0, 0.0, 0.0, 0.0, 0.0, 0.0, 0.0, 0.0, 1.7297108699162478E9, 0.0, 2024-10-24 00:44:29.916
247.0, -50420.97573530385, -51487.466870244374, -53447.804265952625, -58279.089126478335, -57771.19043722039, -50638.905243743095, 13596.096765529725, 40866.96843707185, 0.11, 0.9580000000000001, 0.218, 192.0, 0.0, 0.0, 0.0, 0.0, 0.0, 0.0, 0.0, 0.0, 0.0, 1.729710869920254E9, 0.0, 2024-10-24 00:44:29.920
248.0, -50468.808468438205, -51519.63103051556, -53478.73908027877, -58301.172650000175, -57786.81430659465, -50658.351261419215, 13905.333150068898, 41198.93654572208, 0.11, 0.9580000000000001, 0.218, 192.0, 0.0, 0.0, 0.0, 0.0, 0.0, 0.0, 0.0, 0.0, 0.0, 1.7297108699252079E9, 0.0, 2024-10-24 00:44:29.925
249.0, -50463.309939302206, -51498.5533354942, -53456.119114889996, -58269.27671066245, -57741.44026535038, -50617.78284523283, 13608.926666847072, 40862.52043992525, 0.11, 0.9580000000000001, 0.218, 192.0, 0.0, 0.0, 0.0, 0.0, 0.0, 0.0, 0.0, 0.0, 0.0, 1.7297108699292123E9, 0.0, 2024-10-24 00:44:29.929
250.0, -50432.86686335407, -51469.71958514686, -53422.837367396045, -58237.984268425025, -57704.80575618813, -50585.439871006, 13222.040322070161, 40442.55351335448, 0.106, 0.9580000000000001, 0.214, 192.0, 3.0, 80.0, 29.0, 240.0, 6.0, 176.0, 0.0, 0.0, 0.0, 1.729710869932276E9, 0.0, 2024-10-24 00:44:29.932
251.0, -50407.65409560849, -51472.46884971486, -53418.90346037191, -58244.198053383596, -57724.09531165306, -50598.06860662325, 13268.621357515021, 40513.29678455553, 0.106, 0.9580000000000001, 0.214, 192.0, 0.0, 0.0, 0.0, 0.0, 0.0, 0.0, 0.0, 0.0, 0.0, 1.7297108699363008E9, 0.0, 2024-10-24 00:44:29.936
252.0, -50426.42956095094, -51500.78850993973, -53441.14344610494, -58268.8520275178, -57747.54229158667, -50626.07534242575, 13692.142211454178, 40985.99147629637, 0.106, 0.9580000000000001, 0.214, 192.0, 0.0, 0.0, 0.0, 0.0, 0.0, 0.0, 0.0, 0.0, 0.0, 1.7297108699402905E9, 0.0, 2024-10-24 00:44:29.940
253.0, -50461.342985790136, -51517.86524270359, -53459.94126319185, -58273.30002466441, -57751.00681197725, -50624.53307205833, 13991.432069710741, 41308.90712844219, 0.106, 0.9580000000000001, 0.214, 192.0, 0.0, 0.0, 0.0, 0.0, 0.0, 0.0, 0.0, 0.0, 0.0, 1.729710869944236E9, 0.0, 2024-10-24 00:44:29.944
254.0, -50455.956215376405, -51489.92556213446, -53440.47289377128, -58238.63246901423, -57711.55598301363, -50583.91995238304, 13690.309368408844, 40968.49006038786, 0.106, 0.9580000000000001, 0.214, 192.0, 0.0, 0.0, 0.0, 0.0, 0.0, 0.0, 0.0, 0.0, 0.0, 1.7297108699483387E9, 0.0, 2024-10-24 00:44:29.948
255.0, -50417.62297363555, -51454.43099193943, -53405.73828288774, -58201.61798019624, -57672.909816850406, -50546.30196646476, 13290.637825803498, 40534.79916272154, 0.106, 0.9580000000000001, 0.214, 192.0, 0.0, 0.0, 0.0, 0.0, 0.0, 0.0, 0.0, 0.0, 0.0, 1.729710869953261E9, 0.0, 2024-10-24 00:44:29.953
0.0, -50385.45881336437, -51449.80418083718, -53393.31071297058, -58203.51787847494, -57684.644482689444, -50556.31554798073, 13315.023579004239, 40579.860279543434, 0.106, 0.9580000000000001, 0.214, 192.0, 0.0, 0.0, 0.0, 0.0, 0.0, 0.0, 0.0, 0.0, 0.0, 1.7297108699573207E9, 0.0, 2024-10-24 00:44:29.957
1.0, -50413.57730788914, -51482.348320764104, -53430.68282969986, -58241.35938183778, -57730.35380010054, -50600.30378106878, 13744.177072546134, 41056.62298877513, 0.106, 0.9580000000000001, 0.214, 192.0, 0.0, 0.0, 0.0, 0.0, 0.0, 0.0, 0.0, 0.0, 0.0, 1.7297108699602983E9, 0.0, 2024-10-24 00:44:29.960
2.0, -50458.14668633303, -51502.353132051605, -53463.808114982625, -58257.407934356685, -57750.13509394349, -50612.30666784128, 14048.49607330514, 41385.46185320161, 0.106, 0.9580000000000001, 0.214, 192.0, 0.0, 0.0, 0.0, 0.0, 0.0, 0.0, 0.0, 0.0, 0.0, 1.7297108699644005E9, 0.0, 2024-10-24 00:44:29.964
3.0, -50439.393572735025, -51463.86342809957, -53435.421399524384, -58217.510070503966, -57710.170174857405, -50566.59735043017, 13730.318990983844, 41029.06328786174, 0.106, 0.9580000000000001, 0.214, 192.0, 0.0, 0.0, 0.0, 0.0, 0.0, 0.0, 0.0, 0.0, 0.0, 1.729710869968295E9, 0.0, 2024-10-24 00:44:29.968
4.0, -50411.05156076569, -51431.542805617195, -53409.51572770068, -58191.09030855779, -57682.52106696619, -50542.52452165181, 13321.080901751626, 40584.80001506806, 0.108, 0.9540000000000001, 0.216, 192.0, 3.0, 96.0, 29.0, 208.0, 6.0, 192.0, 0.0, 0.0, 0.0, 1.7297108699723475E9, 0.0, 2024-10-24 00:44:29.972
5.0, -50388.699816310385, -51431.63221259502, -53406.475890454756, -58204.076672086325, -57697.38497702897, -50563.98219632891, 13364.197416805913, 40648.07780362103, 0.108, 0.9540000000000001, 0.216, 192.0, 0.0, 0.0, 0.0, 0.0, 0.0, 0.0, 0.0, 0.0, 0.0, 1.729710869976307E9, 0.0, 2024-10-24 00:44:29.976
6.0, -50414.62783987854, -51464.13164903303, -53439.48941701525, -58242.029934171434, -57742.69196303988, -50604.95294391549, 13812.618114068284, 41143.99595785093, 0.108, 0.9540000000000001, 0.216, 192.0, 0.0, 0.0, 0.0, 0.0, 0.0, 0.0, 0.0, 0.0, 0.0, 1.7297108699813533E9, 0.0, 2024-10-24 00:44:29.981
7.0, -50454.52570373127, -51485.20934405438, -53470.357176108024, -58262.25826290349, -57761.86975978253, -50624.6001272917, 14132.315115012541, 41487.922249784744, 0.108, 0.9540000000000001, 0.216, 192.0, 0.0, 0.0, 0.0, 0.0, 0.0, 0.0, 0.0, 0.0, 0.0, 1.7297108699853528E9, 0.0, 2024-10-24 00:44:29.985
8.0, -50444.44506698192, -51450.45238142638, -53442.28338507216, -58228.46242528706, -57705.61041898852, -50583.98700761641, 13813.132204190757, 41129.24380651043, 0.108, 0.9540000000000001, 0.216, 192.0, 0.0, 0.0, 0.0, 0.0, 0.0, 0.0, 0.0, 0.0, 0.0, 1.7297108699883573E9, 0.0, 2024-10-24 00:44:29.988
9.0, -50420.3498864591, -51419.450511866875, -53416.265954526185, -58205.4401284981, -57681.82816288807, -50558.95305382646, 13414.779414508273, 40695.3070396551, 0.108, 0.9540000000000001, 0.216, 192.0, 0.0, 0.0, 0.0, 0.0, 0.0, 0.0, 0.0, 0.0, 0.0, 1.7297108699923484E9, 0.0, 2024-10-24 00:44:29.992
10.0, -50401.52971762773, -51423.362067146554, -53419.75282666121, -58226.00373339698, -57717.7250644833, -50589.8431646637, 13469.295319234769, 40770.81123242513, 0.108, 0.9540000000000001, 0.216, 192.0, 0.0, 0.0, 0.0, 0.0, 0.0, 0.0, 0.0, 0.0, 0.0, 1.729710869996353E9, 0.0, 2024-10-24 00:44:29.996
11.0, -50413.06321776667, -51449.67007037045, -53440.89757691593, -58255.28451863343, -57741.28380313919, -50623.61665053567, 13896.615969731329, 41247.32807246782, 0.108, 0.9540000000000001, 0.216, 192.0, 0.0, 0.0, 0.0, 0.0, 0.0, 0.0, 0.0, 0.0, 0.0, 1.7297108700003564E9, 0.0, 2024-10-24 00:44:30.000
12.0, -50452.49169498583, -51477.16271605047, -53465.976234194786, -58275.62460608776, -57757.086486469096, -50636.35714487519, 14198.073947200055, 41572.18832638125, 0.108, 0.9540000000000001, 0.216, 192.0, 0.0, 0.0, 0.0, 0.0, 0.0, 0.0, 0.0, 0.0, 0.0, 1.7297108700043738E9, 0.0, 2024-10-24 00:44:30.004
13.0, -50451.99995660782, -51456.88968382951, -53447.7148589748, -58251.1494459092, -57722.73185524128, -50604.70707472647, 13895.051347619457, 41228.574958869816, 0.108, 0.9540000000000001, 0.216, 192.0, 0.0, 0.0, 0.0, 0.0, 0.0, 0.0, 0.0, 0.0, 0.0, 1.7297108700093555E9, 0.0, 2024-10-24 00:44:30.009
14.0, -50427.12246502906, -51432.660392839956, -53422.74796041822, -58227.45659678657, -57697.67554970689, -50577.05796683526, 13509.57316274323, 40806.90929972044, 0.114, 0.9540000000000001, 0.214, 192.0, 3.0, 144.0, 29.0, 208.0, 6.0, 176.0, 0.0, 0.0, 0.0, 1.7297108700135033E9, 0.0, 2024-10-24 00:44:30.013
15.0, -50405.10599674058, -51434.64969809648, -53422.546794718124, -58236.5984602688, -57722.62009651901, -50590.24549606389, 13583.088050256736, 40901.21130957738, 0.114, 0.9540000000000001, 0.214, 192.0, 0.0, 0.0, 0.0, 0.0, 0.0, 0.0, 0.0, 0.0, 0.0, 1.729710870016364E9, 0.0, 2024-10-24 00:44:30.016
16.0, -50423.9038138275, -51465.09277404461, -53453.77218172219, -58268.62851007325, -57767.94943427437, -50635.68659254153, 14006.29597977352, 41371.9166960617, 0.114, 0.9540000000000001, 0.214, 192.0, 0.0, 0.0, 0.0, 0.0, 0.0, 0.0, 0.0, 0.0, 0.0, 1.7297108700203643E9, 0.0, 2024-10-24 00:44:30.020
17.0, -50449.943596117926, -51479.152021306996, -53464.858646972025, -58270.282539162945, -57759.83575103709, -50635.3513163747, 14295.661663491925, 41683.14238585739, 0.114, 0.9540000000000001, 0.214, 192.0, 0.0, 0.0, 0.0, 0.0, 0.0, 0.0, 0.0, 0.0, 0.0, 1.729710870024428E9, 0.0, 2024-10-24 00:44:30.024
18.0, -50440.66762216898, -51450.2959192152, -53435.73432394676, -58232.08340788882, -57707.10798586703, -50591.92187689804, 13979.00449979359, 41323.83809373833, 0.114, 0.9540000000000001, 0.214, 192.0, 0.0, 0.0, 0.0, 0.0, 0.0, 0.0, 0.0, 0.0, 0.0, 1.7297108700284119E9, 0.0, 2024-10-24 00:44:30.028
19.0, -50416.19246199042, -51426.96069800386, -53410.320390501074, -58206.55771572086, -57685.89618037894, -50561.925835839014, 13572.135695473635, 40879.910097111475, 0.114, 0.9540000000000001, 0.214, 192.0, 0.0, 0.0, 0.0, 0.0, 0.0, 0.0, 0.0, 0.0, 0.0, 1.7297108700323925E9, 0.0, 2024-10-24 00:44:30.032
20.0, -50405.68714209642, -51445.08796275711, -53422.47973948476, -58230.96582066606, -57723.11183489703, -50593.598257732185, 13649.003344655437, 40977.69897910344, 0.114, 0.9540000000000001, 0.214, 192.0, 0.0, 0.0, 0.0, 0.0, 0.0, 0.0, 0.0, 0.0, 0.0, 1.7297108700373983E9, 0.0, 2024-10-24 00:44:30.037
21.0, -50428.128293529546, -51477.76621315077, -53448.988908408755, -58262.32531813686, -57744.52480608521, -50626.14239765912, 14083.253035933143, 41456.92038022523, 0.114, 0.9540000000000001, 0.214, 192.0, 0.0, 0.0, 0.0, 0.0, 0.0, 0.0, 0.0, 0.0, 0.0, 1.7297108700414789E9, 0.0, 2024-10-24 00:44:30.041
22.0, -50467.08738411515, -51495.62525697056, -53467.94318770686, -58271.64599557472, -57751.36443988854, -50627.90818547108, 14369.243606238797, 41764.972122308274, 0.114, 0.9540000000000001, 0.214, 192.0, 0.0, 0.0, 0.0, 0.0, 0.0, 0.0, 0.0, 0.0, 0.0, 1.7297108700444548E9, 0.0, 2024-10-24 00:44:30.044
23.0, -50465.120430603085, -51469.60782642458, -53449.92768167588, -58239.95122193709, -57716.383959815976, -50587.85385940717, 14064.589329312961, 41419.280042562496, 0.114, 0.9540000000000001, 0.214, 192.0, 0.0, 0.0, 0.0, 0.0, 0.0, 0.0, 0.0, 0.0, 0.0, 1.7297108700484784E9, 0.0, 2024-10-24 00:44:30.048
24.0, -50431.615165664574, -51444.01507902326, -53417.875280126966, -58211.966837879045, -57683.57159895559, -50561.14352478308, 13681.748650282461, 40998.910784591535, 0.12, 0.9560000000000001, 0.216, 192.0, 3.0, 192.0, 29.0, 224.0, 6.0, 192.0, 0.0, 0.0, 0.0, 1.7297108700524242E9, 0.0, 2024-10-24 00:44:30.052
25.0, -50414.426674178445, -51451.36880294905, -53417.62941093796, -58227.16602410866, -57709.07493937909, -50589.19496407449, 13741.137235300212, 41076.94072448501, 0.12, 0.9560000000000001, 0.216, 192.0, 0.0, 0.0, 0.0, 0.0, 0.0, 0.0, 0.0, 0.0, 0.0, 1.729710870056632E9, 0.0, 2024-10-24 00:44:30.056
26.0, -50433.6044709211, -51482.70594867539, -53445.211463595806, -58257.49734133451, -57745.77650377471, -50620.08507491172, 14177.08565915652, 41557.614988996385, 0.12, 0.9560000000000001, 0.216, 192.0, 0.0, 0.0, 0.0, 0.0, 0.0, 0.0, 0.0, 0.0, 0.0, 1.7297108700604343E9, 0.0, 2024-10-24 00:44:30.060
27.0, -50472.384747551056, -51502.59900124062, -53466.69149001736, -58268.315585650875, -57755.320698657124, -50624.66718252507, 14476.91195928001, 41878.362521930045, 0.12, 0.9560000000000001, 0.216, 192.0, 0.0, 0.0, 0.0, 0.0, 0.0, 0.0, 0.0, 0.0, 0.0, 1.7297108700644364E9, 0.0, 2024-10-24 00:44:30.064
28.0, -50460.89595090103, -51472.088870059124, -53439.757637948715, -58233.67038174515, -57710.55015451314, -50584.70226343897, 14141.099350583478, 41501.31094471347, 0.12, 0.9560000000000001, 0.216, 192.0, 0.0, 0.0, 0.0, 0.0, 0.0, 0.0, 0.0, 0.0, 0.0, 1.729710870069548E9, 0.0, 2024-10-24 00:44:30.069
29.0, -50435.1020377996, -51444.59622437909, -53412.689675413334, -58207.25061979898, -57683.102212322025, -50554.952091568965, 13733.045903807391, 41055.527753296825, 0.12, 0.9560000000000001, 0.216, 192.0, 0.0, 0.0, 0.0, 0.0, 0.0, 0.0, 0.0, 0.0, 0.0, 1.729710870072474E9, 0.0, 2024-10-24 00:44:30.072
30.0, -50421.914508570975, -51450.00534653728, -53417.13767255994, -58224.59557349629, -57709.119642868005, -50579.60606570316, 13781.72800323105, 41124.125257030166, 0.12, 0.9560000000000001, 0.216, 192.0, 0.0, 0.0, 0.0, 0.0, 0.0, 0.0, 0.0, 0.0, 0.0, 1.7297108700765517E9, 0.0, 2024-10-24 00:44:30.076
31.0, -50444.46741872638, -51478.21324803987, -53447.75956246371, -58261.76652452547, -57744.12247468501, -50627.5505575598, 14242.620973899482, 41628.514722408625, 0.12, 0.9560000000000001, 0.216, 192.0, 0.0, 0.0, 0.0, 0.0, 0.0, 0.0, 0.0, 0.0, 0.0, 1.7297108700805485E9, 0.0, 2024-10-24 00:44:30.080
32.0, -50481.50425928882, -51491.04314935722, -53473.173495909396, -58272.67417581966, -57760.506303370756, -50638.704078042996, 14528.522137227314, 41932.9454818899, 0.12, 0.9560000000000001, 0.216, 192.0, 0.0, 0.0, 0.0, 0.0, 0.0, 0.0, 0.0, 0.0, 0.0, 1.7297108700844939E9, 0.0, 2024-10-24 00:44:30.084
33.0, -50463.578160235666, -51450.5417884042, -53441.25520482722, -58230.96582066606, -57708.40438704543, -50591.40778677557, 14190.072022685055, 41553.703433716706, 0.12, 0.9560000000000001, 0.216, 192.0, 0.0, 0.0, 0.0, 0.0, 0.0, 0.0, 0.0, 0.0, 0.0, 1.729710870088493E9, 0.0, 2024-10-24 00:44:30.088
34.0, -50438.38774423453, -51420.277526411715, -53416.46712022628, -58206.870640143236, -57684.17509605588, -50560.472972449425, 13793.552076047907, 41121.107771528696, 0.116, 0.9520000000000001, 0.214, 192.0, 3.0, 160.0, 29.0, 192.0, 6.0, 176.0, 0.0, 0.0, 0.0, 1.7297108700924845E9, 0.0, 2024-10-24 00:44:30.092
35.0, -50420.707514370384, -51425.77605554772, -53418.45642548281, -58225.93667816361, -57712.271238836205, -50586.602161717674, 13856.494588434052, 41203.63041205769, 0.116, 0.9520000000000001, 0.214, 192.0, 0.0, 0.0, 0.0, 0.0, 0.0, 0.0, 0.0, 0.0, 0.0, 1.7297108700975168E9, 0.0, 2024-10-24 00:44:30.097
36.0, -50439.41592447948, -51453.983957050325, -53447.178417107876, -58261.34184138082, -57745.86591075253, -50630.702153528, 14314.9288672124, 41707.55049080259, 0.116, 0.9520000000000001, 0.214, 192.0, 0.0, 0.0, 0.0, 0.0, 0.0, 0.0, 0.0, 0.0, 0.0, 1.7297108701004982E9, 0.0, 2024-10-24 00:44:30.100
37.0, -50472.317692317694, -51466.0986025451, -53469.37369935199, -58271.57894034135, -57756.14771320197, -50643.5544065898, 14622.6006296397, 42035.02589881729, 0.116, 0.9520000000000001, 0.214, 192.0, 0.0, 0.0, 0.0, 0.0, 0.0, 0.0, 0.0, 0.0, 0.0, 1.7297108701046457E9, 0.0, 2024-10-24 00:44:30.104
38.0, -50448.401325750514, -51426.46895962584, -53440.7634664492, -58230.228213099035, -57721.23428836278, -50596.01224613336, 14283.569369741605, 41652.85577212045, 0.116, 0.9520000000000001, 0.214, 192.0, 0.0, 0.0, 0.0, 0.0, 0.0, 0.0, 0.0, 0.0, 0.0, 1.7297108701086304E9, 0.0, 2024-10-24 00:44:30.108
39.0, -50419.54522365871, -51402.530241314205, -53413.673152169365, -58205.70834943156, -57688.8689623915, -50564.317472495735, 13898.672330221216, 41229.55843562585, 0.116, 0.9520000000000001, 0.214, 192.0, 0.0, 0.0, 0.0, 0.0, 0.0, 0.0, 0.0, 0.0, 0.0, 1.7297108701125011E9, 0.0, 2024-10-24 00:44:30.112
40.0, -50402.91552578396, -51416.164805431945, -53416.57887894856, -58227.076617130835, -57714.23819234827, -50595.274638566334, 13959.670240839749, 41309.287108097924, 0.116, 0.9520000000000001, 0.214, 192.0, 0.0, 0.0, 0.0, 0.0, 0.0, 0.0, 0.0, 0.0, 0.0, 1.7297108701165738E9, 0.0, 2024-10-24 00:44:30.116
41.0, -50417.95824980238, -51446.987861035814, -53444.67502172888, -58258.52552157945, -57749.799817776664, -50627.46115058198, 14399.910199631477, 41791.63775344345, 0.116, 0.9520000000000001, 0.214, 192.0, 0.0, 0.0, 0.0, 0.0, 0.0, 0.0, 0.0, 0.0, 0.0, 1.729710870120541E9, 0.0, 2024-10-24 00:44:30.120
42.0, -50451.552921718714, -51467.5961694236, -53466.28915861716, -58269.63433857374, -57756.61709983553, -50635.753647774894, 14712.454642350036, 42123.270585926846, 0.116, 0.9520000000000001, 0.214, 192.0, 0.0, 0.0, 0.0, 0.0, 0.0, 0.0, 0.0, 0.0, 0.0, 1.7297108701256044E9, 0.0, 2024-10-24 00:44:30.125
43.0, -50440.89113961353, -51441.51168364426, -53444.943242662346, -58237.000791668994, -57718.44032030587, -50604.41650204855, 14391.237722782818, 41761.01586353968, 0.116, 0.9520000000000001, 0.214, 192.0, 0.0, 0.0, 0.0, 0.0, 0.0, 0.0, 0.0, 0.0, 0.0, 1.729710870128564E9, 0.0, 2024-10-24 00:44:30.128
44.0, -50413.95728754489, -51418.89171825549, -53423.463216240794, -58213.41970126864, -57701.85532592003, -50577.61676044664, 14006.988883851634, 41341.27245441347, 0.114, 0.9540000000000001, 0.216, 192.0, 3.0, 144.0, 29.0, 208.0, 6.0, 192.0, 0.0, 0.0, 0.0, 1.7297108701325684E9, 0.0, 2024-10-24 00:44:30.132
45.0, -50388.565705843655, -51417.81883452163, -53415.79656789262, -58219.298210060384, -57709.07493937909, -50586.06571985075, 14060.297794377542, 41413.15566458174, 0.114, 0.9540000000000001, 0.216, 192.0, 0.0, 0.0, 0.0, 0.0, 0.0, 0.0, 0.0, 0.0, 0.0, 1.72971087013666E9, 0.0, 2024-10-24 00:44:30.136
46.0, -50410.80569157669, -51450.832361082124, -53447.46898978579, -58254.16693141067, -57751.00681197725, -50624.153092402594, 14500.671863636002, 41897.24974599478, 0.114, 0.9540000000000001, 0.216, 192.0, 0.0, 0.0, 0.0, 0.0, 0.0, 0.0, 0.0, 0.0, 0.0, 1.7297108701405437E9, 0.0, 2024-10-24 00:44:30.140
47.0, -50444.13214255955, -51469.94310259141, -53470.647748785945, -58262.794704770415, -57761.28861442669, -50626.99176394842, 14804.633236483722, 42218.31020335081, 0.114, 0.9540000000000001, 0.216, 192.0, 0.0, 0.0, 0.0, 0.0, 0.0, 0.0, 0.0, 0.0, 0.0, 1.7297108701445231E9, 0.0, 2024-10-24 00:44:30.144
48.0, -50432.21866276487, -51444.88679705701, -53445.837312440555, -58229.244736343, -57715.35577957104, -50584.61285646116, 14485.606787873125, 41854.3791001295, 0.114, 0.9540000000000001, 0.216, 192.0, 0.0, 0.0, 0.0, 0.0, 0.0, 0.0, 0.0, 0.0, 0.0, 1.7297108701485236E9, 0.0, 2024-10-24 00:44:30.148
49.0, -50410.13513924303, -51423.51852935774, -53423.61967845198, -58208.27880004392, -57685.18092455637, -50561.41174571655, 14079.095611464456, 41407.67948719019, 0.114, 0.9540000000000001, 0.216, 192.0, 0.0, 0.0, 0.0, 0.0, 0.0, 0.0, 0.0, 0.0, 0.0, 1.7297108701535563E9, 0.0, 2024-10-24 00:44:30.153
50.0, -50393.41603439046, -51431.07341898363, -53425.85485289751, -58227.12132061974, -57712.405349302935, -50588.189135574, 14118.837013105991, 41465.01171171805, 0.114, 0.9540000000000001, 0.216, 192.0, 0.0, 0.0, 0.0, 0.0, 0.0, 0.0, 0.0, 0.0, 0.0, 1.7297108701565711E9, 0.0, 2024-10-24 00:44:30.156
51.0, -50418.96407830287, -51459.7954106087, -53457.59433002405, -58259.307832635386, -57748.99515497627, -50624.13074065814, 14546.917622914032, 41935.53828424672, 0.114, 0.9540000000000001, 0.216, 192.0, 0.0, 0.0, 0.0, 0.0, 0.0, 0.0, 0.0, 0.0, 0.0, 1.729710870160539E9, 0.0, 2024-10-24 00:44:30.160
52.0, -50453.83279965315, -51472.40179448149, -53478.761432023224, -58267.57797808385, -57750.47037011032, -50633.652583796094, 14835.702161276598, 42241.466610606505, 0.114, 0.9540000000000001, 0.216, 192.0, 0.0, 0.0, 0.0, 0.0, 0.0, 0.0, 0.0, 0.0, 0.0, 1.729710870164536E9, 0.0, 2024-10-24 00:44:30.164
53.0, -50445.383840249044, -51441.31051794416, -53456.186170123365, -58234.38563756772, -57714.148785370446, -50602.09192062521, 14498.302578723738, 41858.514172853735, 0.114, 0.9540000000000001, 0.216, 192.0, 0.0, 0.0, 0.0, 0.0, 0.0, 0.0, 0.0, 0.0, 0.0, 1.7297108701685636E9, 0.0, 2024-10-24 00:44:30.168
54.0, -50421.22160449286, -51420.32222990063, -53435.93548964686, -58214.38082628022, -57697.49673575124, -50579.136679069605, 14128.448263221773, 41447.532647554, 0.114, 0.9560000000000001, 0.218, 192.0, 3.0, 144.0, 29.0, 224.0, 6.0, 208.0, 0.0, 0.0, 0.0, 1.7297108701725836E9, 0.0, 2024-10-24 00:44:30.172
55.0, -50398.288714681716, -51421.37276189003, -53432.87330065648, -58221.4439775281, -57716.85334644954, -50581.304798281766, 14196.799897766103, 41534.07860208495, 0.114, 0.9560000000000001, 0.218, 192.0, 0.0, 0.0, 0.0, 0.0, 0.0, 0.0, 0.0, 0.0, 0.0, 1.7297108701766107E9, 0.0, 2024-10-24 00:44:30.176
56.0, -50416.237165479324, -51449.55831164817, -53456.29792884564, -58253.94341396611, -57743.630736307, -50622.63317377963, 14614.46459465797, 41992.244659929835, 0.114, 0.9560000000000001, 0.218, 192.0, 0.0, 0.0, 0.0, 0.0, 0.0, 0.0, 0.0, 0.0, 0.0, 1.7297108701826901E9, 0.0, 2024-10-24 00:44:30.182
57.0, -50455.397421765025, -51466.52328568975, -53479.11905993451, -58266.72861179455, -57751.74441954427, -50634.32313612976, 14911.072243579894, 42302.55392820286, 0.114, 0.9560000000000001, 0.218, 192.0, 0.0, 0.0, 0.0, 0.0, 0.0, 0.0, 0.0, 0.0, 0.0, 1.7297108701856704E9, 0.0, 2024-10-24 00:44:30.185
58.0, -50448.535436217244, -51440.30468944368, -53460.90238820343, -58238.63246901423, -57723.24594536376, -50600.63905723561, 14595.398556637592, 41942.42262153896, 0.114, 0.9560000000000001, 0.218, 192.0, 0.0, 0.0, 0.0, 0.0, 0.0, 0.0, 0.0, 0.0, 0.0, 1.7297108701896112E9, 0.0, 2024-10-24 00:44:30.189
59.0, -50422.115674271074, -51413.706113541855, -53438.081257114565, -58214.202012324575, -57699.955427641326, -50576.610931946154, 14193.402432608895, 41501.467406924654, 0.114, 0.9560000000000001, 0.218, 192.0, 0.0, 0.0, 0.0, 0.0, 0.0, 0.0, 0.0, 0.0, 0.0, 1.7297108701926167E9, 0.0, 2024-10-24 00:44:30.192
60.0, -50409.26342120927, -51416.07539845412, -53438.081257114565, -58227.23307934202, -57710.05841613513, -50601.846051436194, 14243.738561122247, 41569.17084087978, 0.114, 0.9560000000000001, 0.218, 192.0, 0.0, 0.0, 0.0, 0.0, 0.0, 0.0, 0.0, 0.0, 0.0, 1.7297108701966364E9, 0.0, 2024-10-24 00:44:30.196
61.0, -50429.98348831934, -51444.48446565682, -53463.182266137876, -58261.408896614186, -57741.17204441691, -50646.63894732463, 14693.053328162829, 42057.04236710577, 0.114, 0.9560000000000001, 0.218, 192.0, 0.0, 0.0, 0.0, 0.0, 0.0, 0.0, 0.0, 0.0, 0.0, 1.7297108702006097E9, 0.0, 2024-10-24 00:44:30.200
62.0, -50458.549017733225, -51459.84011409761, -53485.48930710427, -58270.61781532977, -57754.91836725693, -50651.53397936034, 14991.113840474349, 42368.983312724034, 0.114, 0.9560000000000001, 0.218, 192.0, 0.0, 0.0, 0.0, 0.0, 0.0, 0.0, 0.0, 0.0, 0.0, 1.7297108702046576E9, 0.0, 2024-10-24 00:44:30.204
63.0, -50440.04177332423, -51426.647773581484, -53457.236702112765, -58228.887108431714, -57710.572506257595, -50592.10069085368, 14672.221502330483, 42003.286421690755, 0.114, 0.9560000000000001, 0.218, 192.0, 0.0, 0.0, 0.0, 0.0, 0.0, 0.0, 0.0, 0.0, 0.0, 1.7297108702086966E9, 0.0, 2024-10-24 00:44:30.208
64.0, -50414.96311604537, -51403.62547679251, -53434.32616404607, -58205.32836977582, -57686.41027050141, -50566.59735043017, 14265.173884054886, 41555.04453838403, 0.116, 0.9480000000000001, 0.222, 192.0, 3.0, 160.0, 29.0, 160.0, 6.0, 240.0, 0.0, 0.0, 0.0, 1.7297108702126927E9, 0.0, 2024-10-24 00:44:30.212
65.0, -50393.97482800184, -51407.58173556111, -53436.181358835864, -58219.7899484384, -57713.92526792589, -50591.81011817576, 14316.73935851328, 41623.3738211839, 0.116, 0.9480000000000001, 0.222, 192.0, 0.0, 0.0, 0.0, 0.0, 0.0, 0.0, 0.0, 0.0, 0.0, 1.7297108702157102E9, 0.0, 2024-10-24 00:44:30.215
66.0, -50421.08749402613, -51442.13753248901, -53470.55834180812, -58256.87149248976, -57758.114666714035, -50631.32800237274, 14754.028887036908, 42102.14818741658, 0.116, 0.9480000000000001, 0.222, 192.0, 0.0, 0.0, 0.0, 0.0, 0.0, 0.0, 0.0, 0.0, 0.0, 1.7297108702206E9, 0.0, 2024-10-24 00:44:30.220
67.0, -50452.22347405237, -51461.47179144285, -53488.99853098375, -58266.34863213881, -57755.253643423755, -50636.603014064196, 15053.877538904851, 42417.77717086997, 0.116, 0.9480000000000001, 0.222, 192.0, 0.0, 0.0, 0.0, 0.0, 0.0, 0.0, 0.0, 0.0, 0.0, 1.7297108702248747E9, 0.0, 2024-10-24 00:44:30.224
68.0, -50436.42079072247, -51434.91791902995, -53461.30471960363, -58231.85989044427, -57704.60459048803, -50595.16287984406, 14737.935631029086, 42054.874247893604, 0.116, 0.9480000000000001, 0.222, 192.0, 0.0, 0.0, 0.0, 0.0, 0.0, 0.0, 0.0, 0.0, 0.0, 1.7297108702286777E9, 0.0, 2024-10-24 00:44:30.228
69.0, -50405.84360430761, -51410.75568327376, -53436.80720768061, -58204.635465697706, -57681.40347974342, -50563.5351614398, 14336.967687245333, 41613.58375711248, 0.116, 0.9480000000000001, 0.222, 192.0, 0.0, 0.0, 0.0, 0.0, 0.0, 0.0, 0.0, 0.0, 0.0, 1.7297108702326887E9, 0.0, 2024-10-24 00:44:30.232
70.0, -50393.12546171254, -51423.25030842428, -53443.78095195067, -58225.0426083854, -57714.484061537274, -50592.9947606319, 14400.46899324286, 41694.58647901851, 0.116, 0.9480000000000001, 0.222, 192.0, 0.0, 0.0, 0.0, 0.0, 0.0, 0.0, 0.0, 0.0, 0.0, 1.7297108702367632E9, 0.0, 2024-10-24 00:44:30.236
71.0, -50414.49372941181, -51455.90620707348, -53472.614702298015, -58260.24660590251, -57747.11760844202, -50629.91984247206, 14842.072408446362, 42176.467737730476, 0.116, 0.9480000000000001, 0.222, 192.0, 0.0, 0.0, 0.0, 0.0, 0.0, 0.0, 0.0, 0.0, 0.0, 1.7297108702406888E9, 0.0, 2024-10-24 00:44:30.240
72.0, -50445.16032280449, -51467.70792814588, -53491.85955427403, -58266.03570771644, -57747.698753797864, -50629.13753141613, 15127.995923518649, 42473.991808175066, 0.116, 0.9480000000000001, 0.222, 192.0, 0.0, 0.0, 0.0, 0.0, 0.0, 0.0, 0.0, 0.0, 0.0, 1.7297108702439013E9, 0.0, 2024-10-24 00:44:30.243
73.0, -50435.63847966653, -51441.01994526624, -53468.904312718434, -58234.206823612076, -57708.78436670118, -50589.19496407449, 14800.162887592662, 42099.71184727095, 0.116, 0.9480000000000001, 0.222, 192.0, 0.0, 0.0, 0.0, 0.0, 0.0, 0.0, 0.0, 0.0, 0.0, 1.7297108702489579E9, 0.0, 2024-10-24 00:44:30.248
74.0, -50409.5986973761, -51419.56227058915, -53444.160931606406, -58212.97266637954, -57684.75624141172, -50568.519600453335, 14411.868382915067, 41671.60888571845, 0.11, 0.9500000000000001, 0.222, 192.0, 3.0, 112.0, 29.0, 176.0, 6.0, 240.0, 0.0, 0.0, 0.0, 1.7297108702527437E9, 0.0, 2024-10-24 00:44:30.252
75.0, -50393.21486869036, -51427.43008463742, -53447.04430664114, -58230.18350961012, -57707.86794517851, -50593.41944377655, 14484.57860762818, 41762.28991297363, 0.11, 0.9500000000000001, 0.222, 192.0, 0.0, 0.0, 0.0, 0.0, 0.0, 0.0, 0.0, 0.0, 0.0, 1.7297108702567506E9, 0.0, 2024-10-24 00:44:30.256
76.0, -50408.30229619769, -51454.20747449488, -53473.55347556514, -58259.39723961321, -57742.49079733978, -50630.76920876136, 14901.930380097674, 42220.23245337397, 0.11, 0.9500000000000001, 0.222, 192.0, 0.0, 0.0, 0.0, 0.0, 0.0, 0.0, 0.0, 0.0, 0.0, 1.7297108702606509E9, 0.0, 2024-10-24 00:44:30.260
77.0, -50454.637462453546, -51483.01887309777, -53504.555345124645, -58280.31847242337, -57754.38192539, -50646.236615924434, 15191.631339982909, 42523.85855005486, 0.11, 0.9500000000000001, 0.222, 192.0, 0.0, 0.0, 0.0, 0.0, 0.0, 0.0, 0.0, 0.0, 0.0, 1.7297108702647817E9, 0.0, 2024-10-24 00:44:30.264
78.0, -50437.73954364533, -51450.40767793747, -53472.41353659792, -58240.53236729293, -57710.863078935516, -50593.06181586526, 14872.627243116767, 42157.13347877663, 0.11, 0.9500000000000001, 0.222, 192.0, 0.0, 0.0, 0.0, 0.0, 0.0, 0.0, 0.0, 0.0, 0.0, 1.729710870268715E9, 0.0, 2024-10-24 00:44:30.268
79.0, -50406.02241826325, -51416.25421240977, -53441.366963549495, -58209.95518087807, -57676.03906107415, -50565.926798096516, 14461.310441650206, 41704.89063321241, 0.11, 0.9500000000000001, 0.222, 192.0, 0.0, 0.0, 0.0, 0.0, 0.0, 0.0, 0.0, 0.0, 0.0, 1.7297108702717605E9, 0.0, 2024-10-24 00:44:30.271
80.0, -50394.26540067976, -51427.85476778207, -53447.40193455243, -58229.803529954384, -57704.04579687665, -50595.11817635515, 14542.380218789605, 41801.807797170615, 0.11, 0.9500000000000001, 0.222, 192.0, 0.0, 0.0, 0.0, 0.0, 0.0, 0.0, 0.0, 0.0, 0.0, 1.729710870275771E9, 0.0, 2024-10-24 00:44:30.275
81.0, -50410.91745029896, -51454.118067517054, -53474.96163546582, -58257.49734133451, -57745.37417237451, -50629.36104886068, 14981.882570014308, 42281.34212271478, 0.11, 0.9500000000000001, 0.222, 192.0, 0.0, 0.0, 0.0, 0.0, 0.0, 0.0, 0.0, 0.0, 0.0, 1.7297108702807803E9, 0.0, 2024-10-24 00:44:30.280
82.0, -50447.66371818349, -51467.77498337925, -53497.15691770994, -58262.14650418121, -57751.632660822, -50629.51751107186, 15274.086925278536, 42587.35985605238, 0.11, 0.9500000000000001, 0.222, 192.0, 0.0, 0.0, 0.0, 0.0, 0.0, 0.0, 0.0, 0.0, 0.0, 1.729710870284718E9, 0.0, 2024-10-24 00:44:30.284
83.0, -50439.17005529047, -51434.98497426331, -53473.08408893157, -58223.90266941818, -57707.711482967316, -50584.031711105315, 14944.331639329392, 42210.6659067471, 0.11, 0.9500000000000001, 0.222, 192.0, 0.0, 0.0, 0.0, 0.0, 0.0, 0.0, 0.0, 0.0, 0.0, 1.7297108702887464E9, 0.0, 2024-10-24 00:44:30.288
84.0, -50409.330476442636, -51404.74306401528, -53443.37862055047, -58195.09127081529, -57670.42877321587, -50560.83060036071, 14536.792282675779, 41763.139279262934, 0.11, 0.9500000000000001, 0.222, 192.0, 0.0, 0.0, 0.0, 0.0, 0.0, 0.0, 0.0, 0.0, 0.0, 1.7297108702927518E9, 0.0, 2024-10-24 00:44:30.292
85.0, -50395.695912324896, -51409.995723962274, -53448.74303921974, -58213.10677684627, -57701.16242184192, -50594.55938274376, 14601.724100318444, 41843.60555930204, 0.114, 0.9500000000000001, 0.222, 192.0, 3.0, 144.0, 29.0, 176.0, 6.0, 240.0, 0.0, 0.0, 0.0, 1.7297108702967474E9, 0.0, 2024-10-24 00:44:30.296
86.0, -50411.297429954706, -51430.46992188334, -53476.25803664423, -58238.90068994769, -57747.76580903123, -50620.867385967664, 15028.150681036794, 42308.00775384995, 0.114, 0.9500000000000001, 0.222, 192.0, 0.0, 0.0, 0.0, 0.0, 0.0, 0.0, 0.0, 0.0, 0.0, 1.7297108702997973E9, 0.0, 2024-10-24 00:44:30.299
87.0, -50446.70259317191, -51444.93150054592, -53497.31337992113, -58247.23789062952, -57753.75607654525, -50626.254156381394, 15313.64951296443, 42604.61540277188, 0.114, 0.9500000000000001, 0.222, 192.0, 0.0, 0.0, 0.0, 0.0, 0.0, 0.0, 0.0, 0.0, 0.0, 1.7297108703047836E9, 0.0, 2024-10-24 00:44:30.304
88.0, -50430.989316819825, -51412.20854666335, -53464.41161208291, -58209.77636692243, -57693.13814558246, -50586.84803090669, 14982.173142692227, 42221.21593013, 0.114, 0.9500000000000001, 0.222, 192.0, 0.0, 0.0, 0.0, 0.0, 0.0, 0.0, 0.0, 0.0, 0.0, 1.7297108703088439E9, 0.0, 2024-10-24 00:44:30.308
89.0, -50402.49084263931, -51390.9296859419, -53441.12109436049, -58188.475154456515, -57669.44529645983, -50566.08326030771, 14589.40828912357, 41784.03816032865, 0.114, 0.9500000000000001, 0.222, 192.0, 0.0, 0.0, 0.0, 0.0, 0.0, 0.0, 0.0, 0.0, 0.0, 1.7297108703128688E9, 0.0, 2024-10-24 00:44:30.312
90.0, -50385.391758131, -51403.60312504806, -53443.33391706156, -58207.76470992145, -57701.117718353, -50583.316455282744, 14668.42170577308, 41878.47428065232, 0.114, 0.9500000000000001, 0.222, 192.0, 0.0, 0.0, 0.0, 0.0, 0.0, 0.0, 0.0, 0.0, 0.0, 1.729710870316798E9, 0.0, 2024-10-24 00:44:30.316
91.0, -50409.37517993154, -51436.81781730865, -53460.365946336504, -58243.52750104994, -57735.31588736962, -50617.514624299365, 15096.569370814488, 42346.72097524655, 0.114, 0.9500000000000001, 0.222, 192.0, 0.0, 0.0, 0.0, 0.0, 0.0, 0.0, 0.0, 0.0, 0.0, 1.7297108703208663E9, 0.0, 2024-10-24 00:44:30.320
92.0, -50449.518912973275, -51459.32602397514, -53479.11905993451, -58261.07362044736, -57746.98349797529, -50632.53499657333, 15378.111943973536, 42640.78052530057, 0.114, 0.9500000000000001, 0.222, 192.0, 0.0, 0.0, 0.0, 0.0, 0.0, 0.0, 0.0, 0.0, 0.0, 1.7297108703248887E9, 0.0, 2024-10-24 00:44:30.324
93.0, -50440.779380891254, -51431.185177705906, -53457.035536412666, -58230.45173054359, -57704.17990734338, -50597.21924033395, 15065.947480910718, 42280.1798320031, 0.114, 0.9500000000000001, 0.222, 192.0, 0.0, 0.0, 0.0, 0.0, 0.0, 0.0, 0.0, 0.0, 0.0, 1.729710870330812E9, 0.0, 2024-10-24 00:44:30.330
94.0, -50413.06321776667, -51404.474843081814, -53433.49914950123, -58206.311846531855, -57683.75041291123, -50573.01230108885, 14681.162200112607, 41856.01077747474, 0.114, 0.9500000000000001, 0.222, 192.0, 0.0, 0.0, 0.0, 0.0, 0.0, 0.0, 0.0, 0.0, 0.0, 1.7297108703338466E9, 0.0, 2024-10-24 00:44:30.333
95.0, -50400.92622052744, -51414.24255540879, -53439.62352748198, -58224.26029732946, -57716.36160807152, -50595.47580426643, 14755.235881237493, 41949.5528280202, 0.11800000000000001, 0.9460000000000001, 0.218, 192.0, 3.0, 176.0, 29.0, 144.0, 6.0, 208.0, 0.0, 0.0, 0.0, 1.7297108703377883E9, 0.0, 2024-10-24 00:44:30.337
96.0, -50414.40432243399, -51437.91305278696, -53460.27653935868, -58251.30590812039, -57744.770675274216, -50622.54376680181, 15171.850046139962, 42405.46135967509, 0.11800000000000001, 0.9460000000000001, 0.218, 192.0, 0.0, 0.0, 0.0, 0.0, 0.0, 0.0, 0.0, 0.0, 0.0, 1.7297108703407843E9, 0.0, 2024-10-24 00:44:30.340
97.0, -50455.48682874285, -51465.36099497807, -53491.568981596116, -58272.69652756411, -57762.741477816286, -50642.190950178025, 15464.903767693493, 42709.73565694519, 0.11800000000000001, 0.9460000000000001, 0.218, 192.0, 0.0, 0.0, 0.0, 0.0, 0.0, 0.0, 0.0, 0.0, 0.0, 1.7297108703449676E9, 0.0, 2024-10-24 00:44:30.344
98.0, -50441.204064035905, -51436.571948119636, -53464.18809463836, -58237.827806213834, -57709.27610507919, -50599.767339201855, 15159.19895877826, 42355.75108000649, 0.11800000000000001, 0.9460000000000001, 0.218, 192.0, 0.0, 0.0, 0.0, 0.0, 0.0, 0.0, 0.0, 0.0, 0.0, 1.729710870348865E9, 0.0, 2024-10-24 00:44:30.348
99.0, -50414.51608115627, -51413.08026469711, -53436.51663500269, -58215.31959954734, -57677.20135178582, -50577.460298235455, 14768.132837788206, 41924.11654283006, 0.11800000000000001, 0.9460000000000001, 0.218, 192.0, 0.0, 0.0, 0.0, 0.0, 0.0, 0.0, 0.0, 0.0, 0.0, 1.7297108703528323E9, 0.0, 2024-10-24 00:44:30.352
100.0, -50395.51709836926, -51417.908241499455, -53437.321297803086, -58231.5916695108, -57703.241134076256, -50606.38345556062, 14817.127861634239, 41988.3107529057, 0.11800000000000001, 0.9460000000000001, 0.218, 192.0, 0.0, 0.0, 0.0, 0.0, 0.0, 0.0, 0.0, 0.0, 0.0, 1.7297108703559062E9, 0.0, 2024-10-24 00:44:30.355
101.0, -50407.11765374156, -51437.46601789785, -53457.88490270197, -58252.24468138751, -57734.60063154705, -50626.65648778158, 15232.579735825031, 42439.48071473607, 0.11800000000000001, 0.9460000000000001, 0.218, 192.0, 0.0, 0.0, 0.0, 0.0, 0.0, 0.0, 0.0, 0.0, 0.0, 1.7297108703598154E9, 0.0, 2024-10-24 00:44:30.359
102.0, -50446.233206538345, -51455.146247762, -53481.48834484677, -58259.39723961321, -57743.720143284816, -50625.8518249812, 15514.099957239623, 42730.99216592219, 0.11800000000000001, 0.9460000000000001, 0.218, 192.0, 0.0, 0.0, 0.0, 0.0, 0.0, 0.0, 0.0, 0.0, 0.0, 1.7297108703649364E9, 0.0, 2024-10-24 00:44:30.364
103.0, -50441.98637509184, -51427.72065731534, -53462.95874869332, -58228.17185260914, -57714.46170979282, -50593.79942343228, 15188.658557970353, 42356.533391062425, 0.11800000000000001, 0.9460000000000001, 0.218, 192.0, 0.0, 0.0, 0.0, 0.0, 0.0, 0.0, 0.0, 0.0, 0.0, 1.7297108703700607E9, 0.0, 2024-10-24 00:44:30.370
104.0, -50410.04573226521, -51395.28827611069, -53431.66630645589, -58195.87358187122, -57679.88356112046, -50560.56237942725, 14784.717832174043, 41914.1923682919, 0.11800000000000001, 0.9460000000000001, 0.218, 192.0, 0.0, 0.0, 0.0, 0.0, 0.0, 0.0, 0.0, 0.0, 0.0, 1.7297108703739083E9, 0.0, 2024-10-24 00:44:30.373
105.0, -50394.846546035595, -51403.31255237014, -53434.90730940191, -58213.017369868445, -57701.005959630726, -50590.91604839755, 14855.774027797464, 42003.68875309095, 0.11800000000000001, 0.9540000000000001, 0.214, 192.0, 3.0, 176.0, 29.0, 208.0, 6.0, 176.0, 0.0, 0.0, 0.0, 1.729710870376891E9, 0.0, 2024-10-24 00:44:30.376
106.0, -50416.25951722378, -51432.01219225075, -53462.332899848574, -58245.06977141736, -57732.96895420182, -50629.808083749784, 15269.504817665198, 42455.43986027716, 0.11800000000000001, 0.9540000000000001, 0.214, 192.0, 0.0, 0.0, 0.0, 0.0, 0.0, 0.0, 0.0, 0.0, 0.0, 1.7297108703809628E9, 0.0, 2024-10-24 00:44:30.380
107.0, -50455.41977350948, -51446.58552963562, -53482.44946985835, -58252.91523372117, -57733.70656176884, -50634.367839618666, 15559.004611850336, 42753.32155863304, 0.11800000000000001, 0.9540000000000001, 0.214, 192.0, 0.0, 0.0, 0.0, 0.0, 0.0, 0.0, 0.0, 0.0, 0.0, 1.7297108703839023E9, 0.0, 2024-10-24 00:44:30.383
108.0, -50437.96306108988, -51414.01903796423, -53458.264882357704, -58217.085387359315, -57700.96125614182, -50591.5418972423, 15241.341619651512, 42387.26703968848, 0.11800000000000001, 0.9540000000000001, 0.214, 192.0, 0.0, 0.0, 0.0, 0.0, 0.0, 0.0, 0.0, 0.0, 0.0, 1.7297108703878715E9, 0.0, 2024-10-24 00:44:30.387
109.0, -50411.94563054391, -51385.25234285025, -53435.33199254656, -58188.36339573424, -57675.144991295936, -50556.04732704727, 14829.108396662283, 41936.030022624735, 0.11800000000000001, 0.9540000000000001, 0.214, 192.0, 0.0, 0.0, 0.0, 0.0, 0.0, 0.0, 0.0, 0.0, 0.0, 1.7297108703929431E9, 0.0, 2024-10-24 00:44:30.392
110.0, -50398.69104608191, -51393.34367434307, -53440.875225171476, -58207.652951199176, -57703.732872454275, -50586.51275473985, 14902.153897542226, 42025.392296957056, 0.11800000000000001, 0.9540000000000001, 0.214, 192.0, 0.0, 0.0, 0.0, 0.0, 0.0, 0.0, 0.0, 0.0, 0.0, 1.729710870396882E9, 0.0, 2024-10-24 00:44:30.396
111.0, -50427.34598247361, -51426.156035203465, -53475.29691163265, -58245.248585372996, -57749.106913698546, -50629.42810409405, 15320.980885145771, 42481.79256698997, 0.11800000000000001, 0.9540000000000001, 0.214, 192.0, 0.0, 0.0, 0.0, 0.0, 0.0, 0.0, 0.0, 0.0, 0.0, 1.729710870400923E9, 0.0, 2024-10-24 00:44:30.400
112.0, -50463.17582883547, -51448.93246280342, -53495.79346129817, -58258.57022506836, -57746.84938750856, -50637.92176698706, 15613.431109599009, 42784.524593892645, 0.11800000000000001, 0.9540000000000001, 0.214, 192.0, 0.0, 0.0, 0.0, 0.0, 0.0, 0.0, 0.0, 0.0, 0.0, 1.7297108704049044E9, 0.0, 2024-10-24 00:44:30.404
113.0, -50443.88627337054, -51425.08315146961, -53469.99954819674, -58224.50616651848, -57707.80088994514, -50593.66531296555, 15269.773038598662, 42393.57023162487, 0.11800000000000001, 0.9540000000000001, 0.214, 192.0, 0.0, 0.0, 0.0, 0.0, 0.0, 0.0, 0.0, 0.0, 0.0, 1.7297108704079432E9, 0.0, 2024-10-24 00:44:30.407
114.0, -50415.85718582359, -51400.02684593521, -53441.27755657167, -58198.265218527944, -57676.57550294108, -50563.91514109554, 14860.065562732883, 41943.69667097291, 0.11800000000000001, 0.9540000000000001, 0.214, 192.0, 0.0, 0.0, 0.0, 0.0, 0.0, 0.0, 0.0, 0.0, 0.0, 1.7297108704119954E9, 0.0, 2024-10-24 00:44:30.411
115.0, -50405.57538337415, -51412.74498853028, -53441.83635018305, -58217.62182922624, -57697.18381132887, -50588.05502510727, 14923.008075119029, 42022.50892192232, 0.114, 0.9500000000000001, 0.216, 192.0, 3.0, 144.0, 29.0, 176.0, 6.0, 192.0, 0.0, 0.0, 0.0, 1.7297108704158564E9, 0.0, 2024-10-24 00:44:30.415
116.0, -50436.48784595583, -51450.25121572628, -53478.49321108976, -58259.508998335485, -57743.96601247383, -50635.127798930145, 15354.217929150813, 42490.53209907199, 0.114, 0.9500000000000001, 0.216, 192.0, 0.0, 0.0, 0.0, 0.0, 0.0, 0.0, 0.0, 0.0, 0.0, 1.7297108704209075E9, 0.0, 2024-10-24 00:44:30.420
117.0, -50473.23411384036, -51470.3007305027, -53497.80511829915, -58271.601292085805, -57744.52480608521, -50644.31436590128, 15633.435920886508, 42779.40604441238, 0.114, 0.9500000000000001, 0.216, 192.0, 0.0, 0.0, 0.0, 0.0, 0.0, 0.0, 0.0, 0.0, 0.0, 1.7297108704249003E9, 0.0, 2024-10-24 00:44:30.424
118.0, -50457.67729969946, -51445.35618369057, -53469.08312667407, -58239.83946321481, -57707.04093063366, -50603.030693892324, 15297.444498234332, 42395.51483339248, 0.114, 0.9500000000000001, 0.216, 192.0, 0.0, 0.0, 0.0, 0.0, 0.0, 0.0, 0.0, 0.0, 0.0, 1.7297108704289243E9, 0.0, 2024-10-24 00:44:30.428
119.0, -50432.41982846497, -51423.11619795754, -53442.39514379444, -58218.00180888198, -57675.43556397386, -50576.94620811298, 14897.303568995425, 41957.48769730183, 0.114, 0.9500000000000001, 0.216, 192.0, 0.0, 0.0, 0.0, 0.0, 0.0, 0.0, 0.0, 0.0, 0.0, 1.729710870432924E9, 0.0, 2024-10-24 00:44:30.432
120.0, -50412.325610199645, -51425.105503214065, -53439.53412050416, -58230.25056484349, -57697.38497702897, -50598.26977232334, 14955.954546446152, 42034.422401717, 0.114, 0.9500000000000001, 0.216, 192.0, 0.0, 0.0, 0.0, 0.0, 0.0, 0.0, 0.0, 0.0, 0.0, 1.7297108704369373E9, 0.0, 2024-10-24 00:44:30.436
121.0, -50438.968889590375, -51454.78861985071, -53470.53599006367, -58262.97351872606, -57735.114721669524, -50631.842092495215, 15379.52010387422, 42496.61177356384, 0.114, 0.9500000000000001, 0.216, 192.0, 0.0, 0.0, 0.0, 0.0, 0.0, 0.0, 0.0, 0.0, 0.0, 1.7297108704399176E9, 0.0, 2024-10-24 00:44:30.439
122.0, -50474.73168071886, -51475.19576253841, -53494.0276734862, -58277.23393168854, -57744.4801025963, -50643.82262752326, 15668.215235258966, 42796.214556242776, 0.114, 0.9500000000000001, 0.216, 192.0, 0.0, 0.0, 0.0, 0.0, 0.0, 0.0, 0.0, 0.0, 0.0, 1.7297108704440243E9, 0.0, 2024-10-24 00:44:30.444
123.0, -50455.196256064926, -51442.80808482267, -53464.52337080519, -58240.01827717046, -57703.33054105408, -50601.35431305818, 15354.508501828732, 42432.77519139948, 0.114, 0.9500000000000001, 0.216, 192.0, 0.0, 0.0, 0.0, 0.0, 0.0, 0.0, 0.0, 0.0, 0.0, 1.7297108704479823E9, 0.0, 2024-10-24 00:44:30.447
124.0, -50431.92809008695, -51418.9364217444, -53441.85870192751, -58215.72193094754, -57674.20621802881, -50578.95786511396, 14964.291747127982, 42002.14648272353, 0.114, 0.9500000000000001, 0.216, 192.0, 0.0, 0.0, 0.0, 0.0, 0.0, 0.0, 0.0, 0.0, 0.0, 1.7297108704530048E9, 0.0, 2024-10-24 00:44:30.453
125.0, -50422.02626729325, -51424.814930536144, -53450.598234009536, -58228.79770145389, -57696.64736946194, -50598.11331011216, 15037.337248007923, 42093.051027423266, 0.116, 0.9460000000000001, 0.214, 192.0, 3.0, 160.0, 29.0, 144.0, 6.0, 176.0, 0.0, 0.0, 0.0, 1.729710870457002E9, 0.0, 2024-10-24 00:44:30.457
126.0, -50443.61805243708, -51449.4912564148, -53478.96259772332, -58256.357402367285, -57732.23134663479, -50628.06464768227, 15467.451866561398, 42560.02367258354, 0.116, 0.9460000000000001, 0.214, 192.0, 0.0, 0.0, 0.0, 0.0, 0.0, 0.0, 0.0, 0.0, 0.0, 1.7297108704610388E9, 0.0, 2024-10-24 00:44:30.461
127.0, -50476.855096442116, -51464.75749787778, -53500.30851367814, -58263.73347803754, -57745.37417237451, -50638.18998792052, 15745.619326307695, 42846.50598126721, 0.116, 0.9460000000000001, 0.214, 192.0, 0.0, 0.0, 0.0, 0.0, 0.0, 0.0, 0.0, 0.0, 0.0, 1.7297108704640656E9, 0.0, 2024-10-24 00:44:30.464
128.0, -50460.359509034104, -51433.26388994025, -53472.92762672039, -58226.36136130826, -57701.29653230865, -50597.10748161167, 15408.53266817721, 42459.32906381239, 0.116, 0.9460000000000001, 0.214, 192.0, 0.0, 0.0, 0.0, 0.0, 0.0, 0.0, 0.0, 0.0, 0.0, 1.729710870467945E9, 0.0, 2024-10-24 00:44:30.467
129.0, -50429.49174994132, -51402.2843721252, -53445.569091507095, -58201.215648796046, -57673.870941861984, -50574.308702267255, 15011.677445373232, 42021.43603818846, 0.116, 0.9460000000000001, 0.214, 192.0, 0.0, 0.0, 0.0, 0.0, 0.0, 0.0, 0.0, 0.0, 0.0, 1.7297108704721348E9, 0.0, 2024-10-24 00:44:30.472
