%OpenBCI Raw EXG Data
%Number of channels = 8
%Sample Rate = 250 Hz
%Board = OpenBCI_GUI$BoardCytonSerial
Sample Index, EXG Channel 0, EXG Channel 1, EXG Channel 2, EXG Channel 3, EXG Channel 4, EXG Channel 5, EXG Channel 6, EXG Channel 7, Accel Channel 0, Accel Channel 1, Accel Channel 2, Other, Other, Other, Other, Other, Other, Other, Analog Channel 0, Analog Channel 1, Analog Channel 2, Timestamp, Other, Timestamp (Formatted)
0.0, 0.0, 0.0, 0.0, 0.0, 0.0, 0.0, 0.0, 0.0, -0.198, 0.798, 0.512, 192.0, 249.0, 208.0, 24.0, 240.0, 16.0, 0.0, 0.0, 0.0, 0.0, 1.729705563122394E9, 0.0, 2024-10-23 23:16:03.122
1.0, -42635.63962407585, -50468.60730273811, -21695.54194158816, -18957.810873724327, -9892.90444766336, -9271.45889657246, -187500.02235174447, -187500.02235174447, -0.198, 0.798, 0.512, 192.0, 0.0, 0.0, 0.0, 0.0, 0.0, 0.0, 0.0, 0.0, 0.0, 1.7297055631353843E9, 0.0, 2024-10-23 23:16:03.135
2.0, -42722.096171628975, -50628.17640640455, -21694.29024389866, -19418.726196137213, -9892.703281963264, -9295.93405675102, -187500.02235174447, -187500.02235174447, -0.198, 0.798, 0.512, 192.0, 0.0, 0.0, 0.0, 0.0, 0.0, 0.0, 0.0, 0.0, 0.0, 1.729705563139382E9, 0.0, 2024-10-23 23:16:03.139
3.0, -42632.73389729666, -50502.98428571037, -21631.392435001428, -19231.128004923823, -9876.319453277523, -9254.337460319693, -187500.02235174447, -187500.02235174447, -0.198, 0.798, 0.512, 192.0, 0.0, 0.0, 0.0, 0.0, 0.0, 0.0, 0.0, 0.0, 0.0, 1.7297055631443903E9, 0.0, 2024-10-23 23:16:03.144
4.0, -42481.323180356405, -50244.620471551476, -21583.917329778353, -18586.2354738993, -9869.90450261885, -9193.875991568088, -187500.02235174447, -187500.02235174447, -0.198, 0.798, 0.512, 192.0, 0.0, 0.0, 0.0, 0.0, 0.0, 0.0, 0.0, 0.0, 0.0, 1.7297055631604304E9, 0.0, 2024-10-23 23:16:03.160
5.0, -42476.83047972089, -50209.32706705655, -21603.94449281031, -18384.712145890255, -9873.033746842593, -9191.730224100378, -187500.02235174447, -187500.02235174447, -0.198, 0.798, 0.512, 192.0, 0.0, 0.0, 0.0, 0.0, 0.0, 0.0, 0.0, 0.0, 0.0, 1.729705563160462E9, 0.0, 2024-10-23 23:16:03.160
6.0, -42637.1148392099, -50481.392500566544, -21654.101807368017, -18965.052838927848, -9876.699432933263, -9246.916681160532, -187500.02235174447, -187500.02235174447, -0.198, 0.798, 0.512, 192.0, 0.0, 0.0, 0.0, 0.0, 0.0, 0.0, 0.0, 0.0, 0.0, 1.729705563160478E9, 0.0, 2024-10-23 23:16:03.160
7.0, -42721.71619197323, -50640.671031555066, -21646.524565997668, -19424.828222373515, -9875.201866054758, -9270.967158194442, -187500.02235174447, -187500.02235174447, -0.198, 0.798, 0.512, 192.0, 0.0, 0.0, 0.0, 0.0, 0.0, 0.0, 0.0, 0.0, 0.0, 1.7297055631631968E9, 0.0, 2024-10-23 23:16:03.163
8.0, -42636.15371419832, -50518.585803340175, -21590.667556603858, -19234.033731703013, -9862.439019970778, -9236.947803133466, -187500.02235174447, -187500.02235174447, -0.196, 0.79, 0.53, 192.0, 249.0, 224.0, 24.0, 176.0, 16.0, 144.0, 0.0, 0.0, 0.0, 1.7297055631668005E9, 0.0, 2024-10-23 23:16:03.166
9.0, -42488.676904282205, -50257.74094554674, -21551.127320662417, -18589.744697778788, -9858.974499580205, -9183.8177065632, -187500.02235174447, -187500.02235174447, -0.196, 0.79, 0.53, 192.0, 0.0, 0.0, 0.0, 0.0, 0.0, 0.0, 0.0, 0.0, 0.0, 1.7297055631674032E9, 0.0, 2024-10-23 23:16:03.167
10.0, -42477.411625076726, -50207.87420366695, -21572.78616103961, -18385.360346479458, -9859.823865869506, -9176.620444848591, -187500.02235174447, -187500.02235174447, -0.196, 0.79, 0.53, 192.0, 0.0, 0.0, 0.0, 0.0, 0.0, 0.0, 0.0, 0.0, 0.0, 1.7297055631732469E9, 0.0, 2024-10-23 23:16:03.173
11.0, -42636.08665896495, -50476.162192364005, -21632.442966990828, -18960.694248759064, -9870.664461930332, -9235.092608343675, -187500.02235174447, -187500.02235174447, -0.196, 0.79, 0.53, 192.0, 0.0, 0.0, 0.0, 0.0, 0.0, 0.0, 0.0, 0.0, 0.0, 1.7297055631843123E9, 0.0, 2024-10-23 23:16:03.184
12.0, -42728.600529265466, -50642.056839711295, -21645.742254941735, -19427.488079963696, -9879.851028901461, -9274.565789051747, -187500.02235174447, -187500.02235174447, -0.196, 0.79, 0.53, 192.0, 0.0, 0.0, 0.0, 0.0, 0.0, 0.0, 0.0, 0.0, 0.0, 1.7297055631843345E9, 0.0, 2024-10-23 23:16:03.184
13.0, -42641.80870554551, -50521.0221434858, -21598.155390996384, -19239.219336416645, -9862.439019970778, -9245.396762537572, -187500.02235174447, -187500.02235174447, -0.196, 0.79, 0.53, 192.0, 0.0, 0.0, 0.0, 0.0, 0.0, 0.0, 0.0, 0.0, 0.0, 1.72970556318443E9, 0.0, 2024-10-23 23:16:03.184
14.0, -42490.86737523882, -50256.82452402407, -21563.867815001944, -18591.15285767947, -9854.392391966867, -9194.300674712738, -187500.02235174447, -187500.02235174447, -0.196, 0.79, 0.53, 192.0, 0.0, 0.0, 0.0, 0.0, 0.0, 0.0, 0.0, 0.0, 0.0, 1.7297055631883867E9, 0.0, 2024-10-23 23:16:03.188
15.0, -42476.53990704297, -50207.69538971131, -21587.80653331358, -18380.822942355033, -9852.470141943711, -9183.638892607558, -187500.02235174447, -187500.02235174447, -0.196, 0.79, 0.53, 192.0, 0.0, 0.0, 0.0, 0.0, 0.0, 0.0, 0.0, 0.0, 0.0, 1.7297055631915028E9, 0.0, 2024-10-23 23:16:03.191
16.0, -42637.00308048762, -50474.37405280758, -21655.66642947989, -18958.682591758086, -9863.71306940473, -9243.720381703422, -187500.02235174447, -187500.02235174447, -0.196, 0.79, 0.53, 192.0, 0.0, 0.0, 0.0, 0.0, 0.0, 0.0, 0.0, 0.0, 0.0, 1.7297055631954176E9, 0.0, 2024-10-23 23:16:03.195
17.0, -42735.90954970235, -50639.329926887745, -21674.061915166607, -19422.41423397234, -9869.882150874395, -9278.343233864694, -187500.02235174447, -187500.02235174447, -0.196, 0.79, 0.53, 192.0, 0.0, 0.0, 0.0, 0.0, 0.0, 0.0, 0.0, 0.0, 0.0, 1.7297055632004137E9, 0.0, 2024-10-23 23:16:03.200
18.0, -42651.419955661295, -50514.33897189367, -21630.833641390043, -19235.553650325972, -9855.398220467356, -9246.179073593506, -187500.02235174447, -187500.02235174447, -0.20400000000000001, 0.778, 0.54, 192.0, 249.0, 160.0, 24.0, 80.0, 16.0, 224.0, 0.0, 0.0, 0.0, 1.7297055632053292E9, 0.0, 2024-10-23 23:16:03.205
19.0, -42498.71283754264, -50250.38722162095, -21599.809420086076, -18585.34140412109, -9851.397258209856, -9185.62819786408, -187500.02235174447, -187500.02235174447, -0.20400000000000001, 0.778, 0.54, 192.0, 0.0, 0.0, 0.0, 0.0, 0.0, 0.0, 0.0, 0.0, 0.0, 1.7297055632076151E9, 0.0, 2024-10-23 23:16:03.207
20.0, -42486.21821239212, -50199.60405821849, -21628.643170433425, -18376.889035330896, -9850.167912264815, -9179.05678499422, -187500.02235174447, -187500.02235174447, -0.20400000000000001, 0.778, 0.54, 192.0, 0.0, 0.0, 0.0, 0.0, 0.0, 0.0, 0.0, 0.0, 0.0, 1.7297055632114472E9, 0.0, 2024-10-23 23:16:03.211
21.0, -42651.79993531704, -50471.5130295173, -21696.547770088648, -18953.206414366534, -9864.249511271657, -9240.121750846118, -187500.02235174447, -187500.02235174447, -0.20400000000000001, 0.778, 0.54, 192.0, 0.0, 0.0, 0.0, 0.0, 0.0, 0.0, 0.0, 0.0, 0.0, 1.7297055632165444E9, 0.0, 2024-10-23 23:16:03.216
22.0, -42737.85415146997, -50636.02186870836, -21702.470982369305, -19425.543478196083, -9873.592540453976, -9279.527876320824, -187500.02235174447, -187500.02235174447, -0.20400000000000001, 0.778, 0.54, 192.0, 0.0, 0.0, 0.0, 0.0, 0.0, 0.0, 0.0, 0.0, 0.0, 1.7297055632457824E9, 0.0, 2024-10-23 23:16:03.245
23.0, -42644.20034220223, -50512.23790791487, -21645.8093101751, -19241.38745562881, -9865.076525816505, -9254.15864636405, -187500.02235174447, -187500.02235174447, -0.20400000000000001, 0.778, 0.54, 192.0, 0.0, 0.0, 0.0, 0.0, 0.0, 0.0, 0.0, 0.0, 0.0, 1.729705563245813E9, 0.0, 2024-10-23 23:16:03.245
24.0, -42490.84502349437, -50248.3085093866, -21598.423611929848, -18593.119811191536, -9852.559548921532, -9195.530020657781, -187500.02235174447, -187500.02235174447, -0.20400000000000001, 0.778, 0.54, 192.0, 0.0, 0.0, 0.0, 0.0, 0.0, 0.0, 0.0, 0.0, 0.0, 1.7297055632458289E9, 0.0, 2024-10-23 23:16:03.245
25.0, -42476.562258787424, -50201.772177430656, -21615.701510393803, -18387.97550058073, -9858.66157515783, -9185.158811230518, -187500.02235174447, -187500.02235174447, -0.20400000000000001, 0.778, 0.54, 192.0, 0.0, 0.0, 0.0, 0.0, 0.0, 0.0, 0.0, 0.0, 0.0, 1.7297055632458427E9, 0.0, 2024-10-23 23:16:03.245
26.0, -42637.9642054992, -50476.296302830735, -21671.156188387416, -18971.89247273117, -9870.776220652608, -9249.665945728535, -187500.02235174447, -187500.02235174447, -0.20400000000000001, 0.778, 0.54, 192.0, 0.0, 0.0, 0.0, 0.0, 0.0, 0.0, 0.0, 0.0, 0.0, 1.7297055632458565E9, 0.0, 2024-10-23 23:16:03.245
27.0, -42728.7346397322, -50639.28522339884, -21668.18340637486, -19439.334504525006, -9877.437040500288, -9277.002129197375, -187500.02235174447, -187500.02235174447, -0.20400000000000001, 0.778, 0.54, 192.0, 0.0, 0.0, 0.0, 0.0, 0.0, 0.0, 0.0, 0.0, 0.0, 1.7297055632458696E9, 0.0, 2024-10-23 23:16:03.245
28.0, -42641.24991193413, -50515.85889051663, -21605.46441143327, -19253.792673801505, -9859.399182724856, -9241.172282835518, -187500.02235174447, -187500.02235174447, -0.20800000000000002, 0.782, 0.546, 192.0, 249.0, 128.0, 24.0, 112.0, 17.0, 16.0, 0.0, 0.0, 0.0, 1.7297055632458827E9, 0.0, 2024-10-23 23:16:03.245
29.0, -42486.68759902568, -50252.0636024551, -21556.15646316486, -18605.860305531063, -9848.200958752746, -9182.297787940239, -187500.02235174447, -187500.02235174447, -0.20800000000000002, 0.782, 0.546, 192.0, 0.0, 0.0, 0.0, 0.0, 0.0, 0.0, 0.0, 0.0, 0.0, 1.729705563268144E9, 0.0, 2024-10-23 23:16:03.268
30.0, -42473.38831107477, -50205.01318037667, -21572.339126150506, -18401.095974575994, -9851.509016932132, -9165.265758665295, -187500.02235174447, -187500.02235174447, -0.20800000000000002, 0.782, 0.546, 192.0, 0.0, 0.0, 0.0, 0.0, 0.0, 0.0, 0.0, 0.0, 0.0, 1.7297055632681723E9, 0.0, 2024-10-23 23:16:03.268
31.0, -42631.348089140425, -50471.35656730611, -21628.263190777685, -18979.983804223994, -9858.974499580205, -9222.195651792963, -187500.02235174447, -187500.02235174447, -0.20800000000000002, 0.782, 0.546, 192.0, 0.0, 0.0, 0.0, 0.0, 0.0, 0.0, 0.0, 0.0, 0.0, 1.7297055632681866E9, 0.0, 2024-10-23 23:16:03.268
32.0, -42726.94650017578, -50638.88289199864, -21636.198060059316, -19450.912708152857, -9864.473028716211, -9260.484190044903, -187500.02235174447, -187500.02235174447, -0.20800000000000002, 0.782, 0.546, 192.0, 0.0, 0.0, 0.0, 0.0, 0.0, 0.0, 0.0, 0.0, 0.0, 1.7297055632681997E9, 0.0, 2024-10-23 23:16:03.268
33.0, -42643.97682475768, -50518.71991380691, -21582.71033557777, -19265.683801851726, -9848.04449654156, -9230.309335030239, -187500.02235174447, -187500.02235174447, -0.20800000000000002, 0.782, 0.546, 192.0, 0.0, 0.0, 0.0, 0.0, 0.0, 0.0, 0.0, 0.0, 0.0, 1.7297055632682111E9, 0.0, 2024-10-23 23:16:03.268
34.0, -42485.391197847275, -50249.42609660937, -21535.54815477707, -18607.82725904313, -9830.811301566519, -9162.896473753033, -187500.02235174447, -187500.02235174447, -0.20800000000000002, 0.782, 0.546, 192.0, 0.0, 0.0, 0.0, 0.0, 0.0, 0.0, 0.0, 0.0, 0.0, 1.7297055632682228E9, 0.0, 2024-10-23 23:16:03.268
35.0, -42471.91309594073, -50200.27461055215, -21558.615155054948, -18393.16110529436, -9831.504205644633, -9149.66424103549, -187500.02235174447, -187500.02235174447, -0.20800000000000002, 0.782, 0.546, 192.0, 0.0, 0.0, 0.0, 0.0, 0.0, 0.0, 0.0, 0.0, 0.0, 1.729705563271546E9, 0.0, 2024-10-23 23:16:03.271
36.0, -42638.05361247702, -50476.09513713064, -21627.793804144123, -18972.85359774275, -9850.682002387286, -9214.976038333898, -187500.02235174447, -187500.02235174447, -0.20800000000000002, 0.782, 0.546, 192.0, 0.0, 0.0, 0.0, 0.0, 0.0, 0.0, 0.0, 0.0, 0.0, 1.729705563275524E9, 0.0, 2024-10-23 23:16:03.275
37.0, -42726.76768622013, -50637.67589779805, -21634.991065858732, -19438.932173124813, -9853.677136144297, -9248.190730594484, -187500.02235174447, -187500.02235174447, -0.20800000000000002, 0.782, 0.546, 192.0, 0.0, 0.0, 0.0, 0.0, 0.0, 0.0, 0.0, 0.0, 0.0, 1.729705563279521E9, 0.0, 2024-10-23 23:16:03.279
38.0, -42637.67363282128, -50513.60136432664, -21586.644242601902, -19246.796577786994, -9838.254432470136, -9213.322009244206, -187500.02235174447, -187500.02235174447, -0.20800000000000002, 0.776, 0.554, 192.0, 249.0, 128.0, 24.0, 64.0, 17.0, 80.0, 0.0, 0.0, 0.0, 1.7297055632835336E9, 0.0, 2024-10-23 23:16:03.283
39.0, -42481.65845652324, -50246.632128552454, -21551.26143112915, -18588.023613455727, -9829.067865499004, -9150.245386391329, -187500.02235174447, -187500.02235174447, -0.20800000000000002, 0.776, 0.554, 192.0, 0.0, 0.0, 0.0, 0.0, 0.0, 0.0, 0.0, 0.0, 0.0, 1.7297055632887003E9, 0.0, 2024-10-23 23:16:03.288
40.0, -42482.1278431568, -50211.29402056862, -21595.115553750464, -18385.62856741292, -9852.224272754702, -9159.00727021781, -187500.02235174447, -187500.02235174447, -0.20800000000000002, 0.776, 0.554, 192.0, 0.0, 0.0, 0.0, 0.0, 0.0, 0.0, 0.0, 0.0, 0.0, 1.729705563291679E9, 0.0, 2024-10-23 23:16:03.291
41.0, -42641.62989158987, -50480.498430788335, -21661.254365593715, -18969.970222708016, -9861.276729259102, -9214.908983100531, -187500.02235174447, -187500.02235174447, -0.20800000000000002, 0.776, 0.554, 192.0, 0.0, 0.0, 0.0, 0.0, 0.0, 0.0, 0.0, 0.0, 0.0, 1.729705563295625E9, 0.0, 2024-10-23 23:16:03.295
42.0, -42722.31968907353, -50632.87027274016, -21667.311688341106, -19424.425890973318, -9853.073639044003, -9230.10816933014, -187500.02235174447, -187500.02235174447, -0.20800000000000002, 0.776, 0.554, 192.0, 0.0, 0.0, 0.0, 0.0, 0.0, 0.0, 0.0, 0.0, 0.0, 1.7297055632996423E9, 0.0, 2024-10-23 23:16:03.299
43.0, -42639.037089233054, -50513.690771304464, -21631.392435001428, -19232.402054357775, -9850.011450053627, -9209.119881286608, -187500.02235174447, -187500.02235174447, -0.20800000000000002, 0.776, 0.554, 192.0, 0.0, 0.0, 0.0, 0.0, 0.0, 0.0, 0.0, 0.0, 0.0, 1.729705563312184E9, 0.0, 2024-10-23 23:16:03.312
44.0, -42485.74882575856, -50246.69918378582, -21596.300196206594, -18583.687375031397, -9845.295231973558, -9155.140418427041, -187500.02235174447, -187500.02235174447, -0.20800000000000002, 0.776, 0.554, 192.0, 0.0, 0.0, 0.0, 0.0, 0.0, 0.0, 0.0, 0.0, 0.0, 1.7297055633122163E9, 0.0, 2024-10-23 23:16:03.312
45.0, -42474.37178783081, -50196.07248259455, -21620.976522085253, -18373.379811451414, -9850.23496749818, -9150.223034646873, -187500.02235174447, -187500.02235174447, -0.20800000000000002, 0.776, 0.554, 192.0, 0.0, 0.0, 0.0, 0.0, 0.0, 0.0, 0.0, 0.0, 0.0, 1.7297055633122308E9, 0.0, 2024-10-23 23:16:03.312
46.0, -42634.14205719734, -50465.47805851437, -21678.644022779947, -18956.939155690572, -9862.796647882062, -9215.065445311719, -187500.02235174447, -187500.02235174447, -0.20800000000000002, 0.776, 0.554, 192.0, 0.0, 0.0, 0.0, 0.0, 0.0, 0.0, 0.0, 0.0, 0.0, 1.7297055633165581E9, 0.0, 2024-10-23 23:16:03.316
47.0, -42721.962061162245, -50625.74006625892, -21674.28543261116, -19421.341350238486, -9861.008508325638, -9246.715515460433, -187500.02235174447, -187500.02235174447, -0.20800000000000002, 0.776, 0.554, 192.0, 0.0, 0.0, 0.0, 0.0, 0.0, 0.0, 0.0, 0.0, 0.0, 1.7297055633231528E9, 0.0, 2024-10-23 23:16:03.323
48.0, -42633.69502230824, -50502.17962290998, -21616.014434816174, -19233.05025494698, -9854.146522777859, -9220.072236069707, -187500.02235174447, -187500.02235174447, -0.212, 0.774, 0.554, 192.0, 249.0, 96.0, 24.0, 48.0, 17.0, 80.0, 0.0, 0.0, 0.0, 1.7297055633235612E9, 0.0, 2024-10-23 23:16:03.323
49.0, -42477.411625076726, -50234.56218654659, -21562.92904173482, -18581.183979652404, -9845.451694184745, -9159.454305106916, -187500.02235174447, -187500.02235174447, -0.212, 0.774, 0.554, 192.0, 0.0, 0.0, 0.0, 0.0, 0.0, 0.0, 0.0, 0.0, 0.0, 1.729705563327554E9, 0.0, 2024-10-23 23:16:03.327
50.0, -42468.64974125025, -50189.61282844697, -21580.184588454318, -18374.475046929725, -9846.748095363153, -9145.462113077892, -187500.02235174447, -187500.02235174447, -0.212, 0.774, 0.554, 192.0, 0.0, 0.0, 0.0, 0.0, 0.0, 0.0, 0.0, 0.0, 0.0, 1.7297055633315744E9, 0.0, 2024-10-23 23:16:03.331
51.0, -42630.34226063994, -50461.968834634885, -21635.66161819239, -18956.134492890178, -9857.4769327017, -9202.235543994373, -187500.02235174447, -187500.02235174447, -0.212, 0.774, 0.554, 192.0, 0.0, 0.0, 0.0, 0.0, 0.0, 0.0, 0.0, 0.0, 0.0, 1.7297055633356028E9, 0.0, 2024-10-23 23:16:03.335
52.0, -42719.32455531652, -50626.522377314854, -21632.062987335084, -19426.214030529743, -9856.381697223389, -9231.628087953102, -187500.02235174447, -187500.02235174447, -0.212, 0.774, 0.554, 192.0, 0.0, 0.0, 0.0, 0.0, 0.0, 0.0, 0.0, 0.0, 0.0, 1.7297055633395877E9, 0.0, 2024-10-23 23:16:03.339
53.0, -42626.609519315905, -50499.787986253265, -21562.07967544552, -19236.447720104185, -9831.32539168899, -9196.893477069554, -187500.02235174447, -187500.02235174447, -0.212, 0.774, 0.554, 192.0, 0.0, 0.0, 0.0, 0.0, 0.0, 0.0, 0.0, 0.0, 0.0, 1.7297055633446386E9, 0.0, 2024-10-23 23:16:03.344
54.0, -42468.49327903906, -50228.75073298821, -21502.758145661133, -18576.557168550156, -9818.316676416001, -9135.157958883996, -187500.02235174447, -187500.02235174447, -0.212, 0.774, 0.554, 192.0, 0.0, 0.0, 0.0, 0.0, 0.0, 0.0, 0.0, 0.0, 0.0, 1.729705563348616E9, 0.0, 2024-10-23 23:16:03.348
55.0, -42458.9714359011, -50184.427223733335, -21521.421852281317, -18366.49547415918, -9827.458539898222, -9132.118121638076, -187500.02235174447, -187500.02235174447, -0.212, 0.774, 0.554, 192.0, 0.0, 0.0, 0.0, 0.0, 0.0, 0.0, 0.0, 0.0, 0.0, 1.729705563351604E9, 0.0, 2024-10-23 23:16:03.351
56.0, -42615.29953662152, -50455.956215376405, -21571.869739516944, -18948.758417219928, -9833.068827756504, -9189.450346165937, -187500.02235174447, -187500.02235174447, -0.212, 0.774, 0.554, 192.0, 0.0, 0.0, 0.0, 0.0, 0.0, 0.0, 0.0, 0.0, 0.0, 1.7297055633556693E9, 0.0, 2024-10-23 23:16:03.355
57.0, -42709.579194734004, -50628.04229593781, -21568.829902271023, -19424.537649695594, -9838.701467359242, -9221.435692481482, -187500.02235174447, -187500.02235174447, -0.212, 0.774, 0.554, 192.0, 0.0, 0.0, 0.0, 0.0, 0.0, 0.0, 0.0, 0.0, 0.0, 1.729705563360685E9, 0.0, 2024-10-23 23:16:03.360
58.0, -42624.843731503934, -50509.66745730251, -21506.356776518438, -19248.741179554603, -9826.810339309019, -9192.49018341186, -187500.02235174447, -187500.02235174447, -0.21, 0.774, 0.552, 192.0, 249.0, 112.0, 24.0, 48.0, 17.0, 64.0, 0.0, 0.0, 0.0, 1.7297055633646653E9, 0.0, 2024-10-23 23:16:03.364
59.0, -42466.50397378254, -50234.02574467966, -21449.985677002154, -18583.888540731496, -9809.867717011895, -9133.012191416286, -187500.02235174447, -187500.02235174447, -0.21, 0.774, 0.552, 192.0, 0.0, 0.0, 0.0, 0.0, 0.0, 0.0, 0.0, 0.0, 0.0, 1.7297055633676853E9, 0.0, 2024-10-23 23:16:03.367
60.0, -42466.68278773818, -50190.730415669736, -21481.903968084334, -18367.903634059865, -9824.351647418935, -9136.923746695966, -187500.02235174447, -187500.02235174447, -0.21, 0.774, 0.552, 192.0, 0.0, 0.0, 0.0, 0.0, 0.0, 0.0, 0.0, 0.0, 0.0, 1.7297055633727756E9, 0.0, 2024-10-23 23:16:03.372
61.0, -42636.176065942775, -50469.233151582855, -21551.529652062614, -18954.592222522762, -9842.747133105651, -9200.425052693494, -187500.02235174447, -187500.02235174447, -0.21, 0.774, 0.552, 192.0, 0.0, 0.0, 0.0, 0.0, 0.0, 0.0, 0.0, 0.0, 0.0, 1.729705563375672E9, 0.0, 2024-10-23 23:16:03.375
62.0, -42734.43433456831, -50642.77209553386, -21564.806588269068, -19434.08184457801, -9850.95022332075, -9236.768989177823, -187500.02235174447, -187500.02235174447, -0.21, 0.774, 0.552, 192.0, 0.0, 0.0, 0.0, 0.0, 0.0, 0.0, 0.0, 0.0, 0.0, 1.7297055633787384E9, 0.0, 2024-10-23 23:16:03.378
63.0, -42648.78244981557, -50526.207748199435, -21516.392709778873, -19254.53028136853, -9833.292345201058, -9207.979942319387, -187500.02235174447, -187500.02235174447, -0.21, 0.774, 0.552, 192.0, 0.0, 0.0, 0.0, 0.0, 0.0, 0.0, 0.0, 0.0, 0.0, 1.729705563383643E9, 0.0, 2024-10-23 23:16:03.383
64.0, -42485.9276397142, -50251.057773954606, -21471.8680348239, -18591.15285767947, -9816.03679848156, -9137.974278685366, -187500.02235174447, -187500.02235174447, -0.21, 0.774, 0.552, 192.0, 0.0, 0.0, 0.0, 0.0, 0.0, 0.0, 0.0, 0.0, 0.0, 1.7297055633876212E9, 0.0, 2024-10-23 23:16:03.387
65.0, -42474.774119231006, -50197.32418028405, -21506.312073029527, -18369.06592477154, -9829.023162010093, -9129.52531928126, -187500.02235174447, -187500.02235174447, -0.21, 0.774, 0.552, 192.0, 0.0, 0.0, 0.0, 0.0, 0.0, 0.0, 0.0, 0.0, 0.0, 1.7297055633916247E9, 0.0, 2024-10-23 23:16:03.391
66.0, -42629.80581877301, -50461.63355846806, -21568.628736570925, -18947.99845790845, -9836.131016746882, -9182.253084451328, -187500.02235174447, -187500.02235174447, -0.21, 0.774, 0.552, 192.0, 0.0, 0.0, 0.0, 0.0, 0.0, 0.0, 0.0, 0.0, 0.0, 1.7297055633956683E9, 0.0, 2024-10-23 23:16:03.395
67.0, -42724.80073270807, -50627.46115058198, -21582.106838477474, -19419.016768815134, -9845.272880229102, -9220.362808747626, -187500.02235174447, -187500.02235174447, -0.21, 0.774, 0.552, 192.0, 0.0, 0.0, 0.0, 0.0, 0.0, 0.0, 0.0, 0.0, 0.0, 1.7297055634007783E9, 0.0, 2024-10-23 23:16:03.400
68.0, -42646.167295714295, -50512.439073614965, -21539.25854435665, -19244.337885896908, -9843.551795906043, -9206.907058585532, -187500.02235174447, -187500.02235174447, -0.20600000000000002, 0.77, 0.552, 192.0, 249.0, 144.0, 24.0, 16.0, 17.0, 64.0, 0.0, 0.0, 0.0, 1.72970556340466E9, 0.0, 2024-10-23 23:16:03.404
69.0, -42481.949029201154, -50236.32797435856, -21488.67654665429, -18580.20050289637, -9829.872528299395, -9143.696325265924, -187500.02235174447, -187500.02235174447, -0.20600000000000002, 0.77, 0.552, 192.0, 0.0, 0.0, 0.0, 0.0, 0.0, 0.0, 0.0, 0.0, 0.0, 1.729705563408672E9, 0.0, 2024-10-23 23:16:03.408
70.0, -42469.32029358391, -50184.51663071116, -21514.24694231116, -18361.77925607911, -9838.880281314883, -9138.600127530113, -187500.02235174447, -187500.02235174447, -0.20600000000000002, 0.77, 0.552, 192.0, 0.0, 0.0, 0.0, 0.0, 0.0, 0.0, 0.0, 0.0, 0.0, 1.729705563412801E9, 0.0, 2024-10-23 23:16:03.412
71.0, -42629.738763539644, -50458.481962499856, -21574.998983740687, -18943.863385184217, -9857.365173979422, -9205.051863795741, -187500.02235174447, -187500.02235174447, -0.20600000000000002, 0.77, 0.552, 192.0, 0.0, 0.0, 0.0, 0.0, 0.0, 0.0, 0.0, 0.0, 0.0, 1.7297055634168112E9, 0.0, 2024-10-23 23:16:03.416
72.0, -42720.97858440621, -50627.3493918597, -21575.378963396426, -19419.106175792956, -9858.885092602384, -9231.829253653199, -187500.02235174447, -187500.02235174447, -0.20600000000000002, 0.77, 0.552, 192.0, 0.0, 0.0, 0.0, 0.0, 0.0, 0.0, 0.0, 0.0, 0.0, 1.729705563420776E9, 0.0, 2024-10-23 23:16:03.420
73.0, -42633.67267056378, -50507.14171017906, -21513.866962655422, -19236.671237548737, -9833.962897534717, -9196.334683458172, -187500.02235174447, -187500.02235174447, -0.20600000000000002, 0.77, 0.552, 192.0, 0.0, 0.0, 0.0, 0.0, 0.0, 0.0, 0.0, 0.0, 0.0, 1.7297055634236948E9, 0.0, 2024-10-23 23:16:03.423
74.0, -42471.68957849617, -50235.59036679153, -21459.39576141784, -18576.110133661048, -9817.981400249171, -9133.749798983312, -187500.02235174447, -187500.02235174447, -0.20600000000000002, 0.77, 0.552, 192.0, 0.0, 0.0, 0.0, 0.0, 0.0, 0.0, 0.0, 0.0, 0.0, 1.729705563427926E9, 0.0, 2024-10-23 23:16:03.427
75.0, -42456.04335737746, -50181.36503474296, -21478.595909904947, -18352.995020508173, -9827.860871298417, -9123.691513978423, -187500.02235174447, -187500.02235174447, -0.20600000000000002, 0.77, 0.552, 192.0, 0.0, 0.0, 0.0, 0.0, 0.0, 0.0, 0.0, 0.0, 0.0, 1.7297055634329844E9, 0.0, 2024-10-23 23:16:03.432
76.0, -42623.43557160325, -50458.526665988764, -21538.811509467545, -18933.64863796814, -9843.730609861686, -9184.845886808143, -187500.02235174447, -187500.02235174447, -0.20600000000000002, 0.77, 0.552, 192.0, 0.0, 0.0, 0.0, 0.0, 0.0, 0.0, 0.0, 0.0, 0.0, 1.7297055634361017E9, 0.0, 2024-10-23 23:16:03.436
77.0, -42721.35856406195, -50637.07240069776, -21542.320733347027, -19415.84282110248, -9851.956051821238, -9215.959515089931, -187500.02235174447, -187500.02235174447, -0.20600000000000002, 0.77, 0.552, 192.0, 0.0, 0.0, 0.0, 0.0, 0.0, 0.0, 0.0, 0.0, 0.0, 1.729705563439788E9, 0.0, 2024-10-23 23:16:03.439
78.0, -42641.696946823235, -50525.47014063241, -21486.039040808566, -19238.593487571896, -9831.303039944534, -9183.281264696272, -187500.02235174447, -187500.02235174447, -0.21, 0.772, 0.548, 192.0, 249.0, 112.0, 24.0, 32.0, 17.0, 32.0, 0.0, 0.0, 0.0, 1.7297055634438355E9, 0.0, 2024-10-23 23:16:03.443
79.0, -42487.335799614884, -50253.96350073379, -21437.602810573913, -18576.423058083423, -9819.523670616589, -9120.942249410422, -187500.02235174447, -187500.02235174447, -0.21, 0.772, 0.548, 192.0, 0.0, 0.0, 0.0, 0.0, 0.0, 0.0, 0.0, 0.0, 0.0, 1.7297055634478557E9, 0.0, 2024-10-23 23:16:03.447
80.0, -42470.81786046241, -50195.55839247208, -21453.561956115005, -18350.558680362545, -9820.37303690589, -9107.017112614765, -187500.02235174447, -187500.02235174447, -0.21, 0.772, 0.548, 192.0, 0.0, 0.0, 0.0, 0.0, 0.0, 0.0, 0.0, 0.0, 0.0, 1.7297055634518473E9, 0.0, 2024-10-23 23:16:03.451
81.0, -42635.08083046447, -50469.38961379405, -21515.029253367098, -18932.03931236736, -9832.577089378488, -9169.736107556357, -187500.02235174447, -187500.02235174447, -0.21, 0.772, 0.548, 192.0, 0.0, 0.0, 0.0, 0.0, 0.0, 0.0, 0.0, 0.0, 0.0, 1.729705563455737E9, 0.0, 2024-10-23 23:16:03.455
82.0, -42729.47224729923, -50637.67589779805, -21519.700767958257, -19419.687321148795, -9836.935679547272, -9210.282171998284, -187500.02235174447, -187500.02235174447, -0.21, 0.772, 0.548, 192.0, 0.0, 0.0, 0.0, 0.0, 0.0, 0.0, 0.0, 0.0, 0.0, 1.7297055634599345E9, 0.0, 2024-10-23 23:16:03.459
83.0, -42643.48508637966, -50518.36228589562, -21467.44238942175, -19247.824758031937, -9827.525595131588, -9194.993578790854, -187500.02235174447, -187500.02235174447, -0.21, 0.772, 0.548, 192.0, 0.0, 0.0, 0.0, 0.0, 0.0, 0.0, 0.0, 0.0, 0.0, 1.7297055634638329E9, 0.0, 2024-10-23 23:16:03.463
84.0, -42487.73813101508, -50247.6603087974, -21425.06348193449, -18592.15868617996, -9812.996961235638, -9137.907223451999, -187500.02235174447, -187500.02235174447, -0.21, 0.772, 0.548, 192.0, 0.0, 0.0, 0.0, 0.0, 0.0, 0.0, 0.0, 0.0, 0.0, 1.7297055634688091E9, 0.0, 2024-10-23 23:16:03.468
85.0, -42478.059825665936, -50200.140500085414, -21459.59692711794, -18378.297195231582, -9832.062999256015, -9148.412543345994, -187500.02235174447, -187500.02235174447, -0.21, 0.772, 0.548, 192.0, 0.0, 0.0, 0.0, 0.0, 0.0, 0.0, 0.0, 0.0, 0.0, 1.7297055634718523E9, 0.0, 2024-10-23 23:16:03.471
86.0, -42641.071097978485, -50472.92118941798, -21527.501526773158, -18960.917766203616, -9842.165987749815, -9211.01977956531, -187500.02235174447, -187500.02235174447, -0.21, 0.772, 0.548, 192.0, 0.0, 0.0, 0.0, 0.0, 0.0, 0.0, 0.0, 0.0, 0.0, 1.7297055634758787E9, 0.0, 2024-10-23 23:16:03.475
87.0, -42738.07766891452, -50645.92369150206, -21539.236192612196, -19445.61534471695, -9850.302022731546, -9242.714553202934, -187500.02235174447, -187500.02235174447, -0.21, 0.772, 0.548, 192.0, 0.0, 0.0, 0.0, 0.0, 0.0, 0.0, 0.0, 0.0, 0.0, 1.7297055634800036E9, 0.0, 2024-10-23 23:16:03.480
88.0, -42652.42578416178, -50525.40308539905, -21490.263520510616, -19265.169711729253, -9838.5226534036, -9216.071273812207, -187500.02235174447, -187500.02235174447, -0.212, 0.778, 0.548, 192.0, 249.0, 96.0, 24.0, 80.0, 17.0, 32.0, 0.0, 0.0, 0.0, 1.729705563484022E9, 0.0, 2024-10-23 23:16:03.484
89.0, -42487.93929671518, -50243.99462270673, -21443.682485065758, -18597.34429089359, -9823.345818918446, -9153.24052014834, -187500.02235174447, -187500.02235174447, -0.212, 0.778, 0.548, 192.0, 0.0, 0.0, 0.0, 0.0, 0.0, 0.0, 0.0, 0.0, 0.0, 1.7297055634878387E9, 0.0, 2024-10-23 23:16:03.487
90.0, -42476.18227913169, -50191.66918893685, -21473.902043569335, -18373.335107962503, -9835.5722231355, -9148.390191601538, -187500.02235174447, -187500.02235174447, -0.212, 0.778, 0.548, 192.0, 0.0, 0.0, 0.0, 0.0, 0.0, 0.0, 0.0, 0.0, 0.0, 1.729705563490808E9, 0.0, 2024-10-23 23:16:03.490
91.0, -42639.327661910975, -50462.460573012904, -21538.833861212, -18953.966373678013, -9850.592595409466, -9214.573706933703, -187500.02235174447, -187500.02235174447, -0.212, 0.778, 0.548, 192.0, 0.0, 0.0, 0.0, 0.0, 0.0, 0.0, 0.0, 0.0, 0.0, 1.7297055634958427E9, 0.0, 2024-10-23 23:16:03.495
92.0, -42724.24193909668, -50625.18127264753, -21535.25758209915, -19425.789347385093, -9846.077543029493, -9241.552262491257, -187500.02235174447, -187500.02235174447, -0.212, 0.778, 0.548, 192.0, 0.0, 0.0, 0.0, 0.0, 0.0, 0.0, 0.0, 0.0, 0.0, 1.7297055634999168E9, 0.0, 2024-10-23 23:16:03.499
93.0, -42635.93019675377, -50504.839480500166, -21478.48415118267, -19243.42146437424, -9834.61109812392, -9211.422110965505, -187500.02235174447, -187500.02235174447, -0.212, 0.778, 0.548, 192.0, 0.0, 0.0, 0.0, 0.0, 0.0, 0.0, 0.0, 0.0, 0.0, 1.72970556350396E9, 0.0, 2024-10-23 23:16:03.503
94.0, -42477.344569843364, -50229.42128532187, -21430.20438315921, -18581.5863110526, -9825.737455575163, -9148.032563690253, -187500.02235174447, -187500.02235174447, -0.212, 0.778, 0.548, 192.0, 0.0, 0.0, 0.0, 0.0, 0.0, 0.0, 0.0, 0.0, 0.0, 1.729705563507829E9, 0.0, 2024-10-23 23:16:03.507
95.0, -42466.16869761571, -50180.649778920386, -21455.774778816078, -18356.548947876567, -9837.203900480736, -9139.896528708521, -187500.02235174447, -187500.02235174447, -0.212, 0.778, 0.548, 192.0, 0.0, 0.0, 0.0, 0.0, 0.0, 0.0, 0.0, 0.0, 0.0, 1.7297055635117989E9, 0.0, 2024-10-23 23:16:03.511
96.0, -42632.21980717419, -50456.40325026551, -21516.035081867587, -18934.140376346157, -9850.458484942734, -9201.363825960616, -187500.02235174447, -187500.02235174447, -0.212, 0.778, 0.548, 192.0, 0.0, 0.0, 0.0, 0.0, 0.0, 0.0, 0.0, 0.0, 0.0, 1.7297055635168371E9, 0.0, 2024-10-23 23:16:03.516
97.0, -42721.26915708413, -50624.8012929918, -21510.06716609802, -19415.306379235553, -9845.697563373753, -9227.49301522887, -187500.02235174447, -187500.02235174447, -0.212, 0.778, 0.548, 192.0, 0.0, 0.0, 0.0, 0.0, 0.0, 0.0, 0.0, 0.0, 0.0, 1.7297055635203505E9, 0.0, 2024-10-23 23:16:03.520
98.0, -42629.336432139455, -50502.49254733235, -21444.733017055158, -19233.72080728064, -9824.977496263684, -9184.957645530421, -187500.02235174447, -187500.02235174447, -0.214, 0.78, 0.546, 192.0, 249.0, 80.0, 24.0, 96.0, 17.0, 16.0, 0.0, 0.0, 0.0, 1.729705563523826E9, 0.0, 2024-10-23 23:16:03.523
99.0, -42477.16575588772, -50236.26091912519, -21399.157810110788, -18572.62326152602, -9820.350685161435, -9123.155072111496, -187500.02235174447, -187500.02235174447, -0.214, 0.78, 0.546, 192.0, 0.0, 0.0, 0.0, 0.0, 0.0, 0.0, 0.0, 0.0, 0.0, 1.7297055635278788E9, 0.0, 2024-10-23 23:16:03.527
100.0, -42460.51370626852, -50180.35920624247, -21412.7029672507, -18342.892032014373, -9818.763711305108, -9106.19009806992, -187500.02235174447, -187500.02235174447, -0.214, 0.78, 0.546, 192.0, 0.0, 0.0, 0.0, 0.0, 0.0, 0.0, 0.0, 0.0, 0.0, 1.7297055635318768E9, 0.0, 2024-10-23 23:16:03.531
101.0, -42622.899129736325, -50452.02230835227, -21469.38699118936, -18917.041291837846, -9825.983324764173, -9158.560235328703, -187500.02235174447, -187500.02235174447, -0.214, 0.78, 0.546, 192.0, 0.0, 0.0, 0.0, 0.0, 0.0, 0.0, 0.0, 0.0, 0.0, 1.7297055635393045E9, 0.0, 2024-10-23 23:16:03.539
102.0, -42718.251671582664, -50621.6496970236, -21472.449180179738, -19395.145105736865, -9823.725798574185, -9179.660282094514, -187500.02235174447, -187500.02235174447, -0.214, 0.78, 0.546, 192.0, 0.0, 0.0, 0.0, 0.0, 0.0, 0.0, 0.0, 0.0, 0.0, 1.7297055635399296E9, 0.0, 2024-10-23 23:16:03.539
103.0, -42635.59492058694, -50505.174756666995, -21420.72724351016, -19214.163030882246, -9805.911458243307, -9142.019944431775, -187500.02235174447, -187500.02235174447, -0.214, 0.78, 0.546, 192.0, 0.0, 0.0, 0.0, 0.0, 0.0, 0.0, 0.0, 0.0, 0.0, 1.7297055635448995E9, 0.0, 2024-10-23 23:16:03.544
104.0, -42482.75369200155, -50236.46208482529, -21380.248234301598, -18553.557223505642, -9792.053376681015, -9076.685795388914, -187500.02235174447, -187500.02235174447, -0.214, 0.78, 0.546, 192.0, 0.0, 0.0, 0.0, 0.0, 0.0, 0.0, 0.0, 0.0, 0.0, 1.729705563547881E9, 0.0, 2024-10-23 23:16:03.547
105.0, -42468.85090695035, -50183.801374888586, -21406.980920670143, -18333.750168532155, -9796.859001738907, -9071.455487186371, -187500.02235174447, -187500.02235174447, -0.214, 0.78, 0.546, 192.0, 0.0, 0.0, 0.0, 0.0, 0.0, 0.0, 0.0, 0.0, 0.0, 1.729705563550951E9, 0.0, 2024-10-23 23:16:03.550
106.0, -42631.05751646251, -50455.73269793185, -21473.29854646904, -18912.16861154659, -9805.173850676281, -9136.029676917753, -187500.02235174447, -187500.02235174447, -0.214, 0.78, 0.546, 192.0, 0.0, 0.0, 0.0, 0.0, 0.0, 0.0, 0.0, 0.0, 0.0, 1.7297055635558789E9, 0.0, 2024-10-23 23:16:03.555
107.0, -42730.32161358853, -50627.438798837524, -21490.263520510616, -19399.995434283668, -9818.003751993627, -9182.72247108489, -187500.02235174447, -187500.02235174447, -0.214, 0.78, 0.546, 192.0, 0.0, 0.0, 0.0, 0.0, 0.0, 0.0, 0.0, 0.0, 0.0, 1.7297055635598867E9, 0.0, 2024-10-23 23:16:03.559
108.0, -42642.680423579266, -50509.4215881135, -21445.068293221986, -19226.434138588207, -9804.793871020542, -9162.471790608382, -187500.02235174447, -187500.02235174447, -0.214, 0.778, 0.548, 192.0, 249.0, 80.0, 24.0, 80.0, 17.0, 32.0, 0.0, 0.0, 0.0, 1.7297055635639005E9, 0.0, 2024-10-23 23:16:03.563
109.0, -42483.8265757354, -50239.434866837844, -21409.104336393397, -18571.885653958994, -9801.84344075244, -9118.952944153898, -187500.02235174447, -187500.02235174447, -0.214, 0.778, 0.548, 192.0, 0.0, 0.0, 0.0, 0.0, 0.0, 0.0, 0.0, 0.0, 0.0, 1.7297055635680344E9, 0.0, 2024-10-23 23:16:03.568
110.0, -42475.84700296486, -50188.40583424638, -21446.25293567812, -18356.750113576665, -9812.080539712972, -9119.310572065184, -187500.02235174447, -187500.02235174447, -0.214, 0.778, 0.548, 192.0, 0.0, 0.0, 0.0, 0.0, 0.0, 0.0, 0.0, 0.0, 0.0, 1.7297055635719671E9, 0.0, 2024-10-23 23:16:03.571
111.0, -42650.101202738435, -50467.89204691554, -21523.54526800457, -18945.76328346292, -9837.494473158655, -9191.976093289388, -187500.02235174447, -187500.02235174447, -0.214, 0.778, 0.548, 192.0, 0.0, 0.0, 0.0, 0.0, 0.0, 0.0, 0.0, 0.0, 0.0, 1.729705563575925E9, 0.0, 2024-10-23 23:16:03.575
112.0, -42751.42166035434, -50643.88968275663, -21536.509279788646, -19433.545402711083, -9852.693659388264, -9242.133407847095, -187500.02235174447, -187500.02235174447, -0.214, 0.778, 0.548, 192.0, 0.0, 0.0, 0.0, 0.0, 0.0, 0.0, 0.0, 0.0, 0.0, 1.729705563578908E9, 0.0, 2024-10-23 23:16:03.578
113.0, -42670.10601402593, -50531.527463379796, -21485.547302430547, -19265.81791231846, -9845.876377329396, -9223.715570415923, -187500.02235174447, -187500.02235174447, -0.214, 0.778, 0.548, 192.0, 0.0, 0.0, 0.0, 0.0, 0.0, 0.0, 0.0, 0.0, 0.0, 1.729705563583989E9, 0.0, 2024-10-23 23:16:03.583
114.0, -42507.25120392456, -50256.86922751299, -21428.10331918041, -18603.401613640977, -9823.971667763195, -9158.180255672964, -187500.02235174447, -187500.02235174447, -0.214, 0.778, 0.548, 192.0, 0.0, 0.0, 0.0, 0.0, 0.0, 0.0, 0.0, 0.0, 0.0, 1.72970556358795E9, 0.0, 2024-10-23 23:16:03.587
115.0, -42495.6282968078, -50208.63416297844, -21450.186842702253, -18379.593596409988, -9836.600403380442, -9160.214264418395, -187500.02235174447, -187500.02235174447, -0.214, 0.778, 0.548, 192.0, 0.0, 0.0, 0.0, 0.0, 0.0, 0.0, 0.0, 0.0, 0.0, 1.7297055635919297E9, 0.0, 2024-10-23 23:16:03.591
116.0, -42657.7678510866, -50478.30795983171, -21503.629863694892, -18955.709809745527, -9849.13973201987, -9221.435692481482, -187500.02235174447, -187500.02235174447, -0.214, 0.778, 0.548, 192.0, 0.0, 0.0, 0.0, 0.0, 0.0, 0.0, 0.0, 0.0, 0.0, 1.729705563595948E9, 0.0, 2024-10-23 23:16:03.595
117.0, -42746.23605564071, -50644.292014156825, -21494.10802055693, -19433.90303062237, -9846.435170940778, -9246.626108482613, -187500.02235174447, -187500.02235174447, -0.214, 0.778, 0.548, 192.0, 0.0, 0.0, 0.0, 0.0, 0.0, 0.0, 0.0, 0.0, 0.0, 1.7297055635999632E9, 0.0, 2024-10-23 23:16:03.599
118.0, -42661.835868577466, -50522.363248153124, -21436.99931347362, -19256.743104069603, -9837.382714436379, -9214.417244722516, -187500.02235174447, -187500.02235174447, -0.214, 0.778, 0.548, 192.0, 0.0, 0.0, 0.0, 0.0, 0.0, 0.0, 0.0, 0.0, 0.0, 1.729705563604077E9, 0.0, 2024-10-23 23:16:03.604
119.0, -42501.283288155, -50244.44165759584, -21386.283205304528, -18594.72913679232, -9825.580993363976, -9141.014115931286, -187500.02235174447, -187500.02235174447, -0.224, 0.78, 0.548, 192.0, 249.0, 0.0, 24.0, 96.0, 17.0, 32.0, 0.0, 0.0, 0.0, 1.7297055636069803E9, 0.0, 2024-10-23 23:16:03.606
120.0, -42484.58653504688, -50187.40000574589, -21402.085888634432, -18367.411895681846, -9827.74911257614, -9126.23961284633, -187500.02235174447, -187500.02235174447, -0.224, 0.78, 0.548, 192.0, 0.0, 0.0, 0.0, 0.0, 0.0, 0.0, 0.0, 0.0, 0.0, 1.7297055636119752E9, 0.0, 2024-10-23 23:16:03.611
121.0, -42645.67555733628, -50458.10198284411, -21458.367581172894, -18942.924611917093, -9835.32635394649, -9183.795354818745, -187500.02235174447, -187500.02235174447, -0.224, 0.78, 0.548, 192.0, 0.0, 0.0, 0.0, 0.0, 0.0, 0.0, 0.0, 0.0, 0.0, 1.7297055636159668E9, 0.0, 2024-10-23 23:16:03.615
122.0, -42742.21274163875, -50632.333830873235, -21462.592060874947, -19427.063396819045, -9839.260260970625, -9214.886631356077, -187500.02235174447, -187500.02235174447, -0.224, 0.78, 0.548, 192.0, 0.0, 0.0, 0.0, 0.0, 0.0, 0.0, 0.0, 0.0, 0.0, 1.7297055636200397E9, 0.0, 2024-10-23 23:16:03.620
123.0, -42647.44134514825, -50507.23111715688, -21401.482391534137, -19240.560441083962, -9819.27780142758, -9171.233674434861, -187500.02235174447, -187500.02235174447, -0.224, 0.78, 0.548, 192.0, 0.0, 0.0, 0.0, 0.0, 0.0, 0.0, 0.0, 0.0, 0.0, 1.7297055636240103E9, 0.0, 2024-10-23 23:16:03.624
124.0, -42478.01512217702, -50229.868320210975, -21350.006324053567, -18567.39295332348, -9794.377958104367, -9088.934551350421, -187500.02235174447, -187500.02235174447, -0.224, 0.78, 0.548, 192.0, 0.0, 0.0, 0.0, 0.0, 0.0, 0.0, 0.0, 0.0, 0.0, 1.7297055636280272E9, 0.0, 2024-10-23 23:16:03.628
125.0, -42469.00736916153, -50183.98018884423, -21382.438705258217, -18342.422645380815, -9796.993112205639, -9075.165876765952, -187500.02235174447, -187500.02235174447, -0.224, 0.78, 0.548, 192.0, 0.0, 0.0, 0.0, 0.0, 0.0, 0.0, 0.0, 0.0, 0.0, 1.729705563631022E9, 0.0, 2024-10-23 23:16:03.631
126.0, -42635.37140314238, -50459.19721832243, -21454.701895082224, -18918.047120338335, -9805.397368120834, -9130.262926848285, -187500.02235174447, -187500.02235174447, -0.224, 0.78, 0.548, 192.0, 0.0, 0.0, 0.0, 0.0, 0.0, 0.0, 0.0, 0.0, 0.0, 1.729705563635033E9, 0.0, 2024-10-23 23:16:03.635
127.0, -42730.18750312179, -50628.95871746048, -21467.710610355214, -19393.155800480345, -9807.006693721616, -9157.263834150295, -187500.02235174447, -187500.02235174447, -0.224, 0.78, 0.548, 192.0, 0.0, 0.0, 0.0, 0.0, 0.0, 0.0, 0.0, 0.0, 0.0, 1.7297055636390228E9, 0.0, 2024-10-23 23:16:03.639
128.0, -42640.69111832275, -50505.19710841145, -21415.18401088524, -19209.245647102078, -9772.495600282622, -9104.804289913689, -187500.02235174447, -187500.02235174447, -0.224, 0.78, 0.548, 192.0, 0.0, 0.0, 0.0, 0.0, 0.0, 0.0, 0.0, 0.0, 0.0, 1.729705563644002E9, 0.0, 2024-10-23 23:16:03.644
129.0, -42482.105491412345, -50233.37754409046, -21376.627251699836, -18540.503804743745, -9751.68612619473, -9025.053265697154, -187500.02235174447, -187500.02235174447, -0.214, 0.766, 0.552, 192.0, 249.0, 80.0, 23.0, 240.0, 17.0, 64.0, 0.0, 0.0, 0.0, 1.7297055636480148E9, 0.0, 2024-10-23 23:16:03.648
130.0, -42473.05303490794, -50186.46123247877, -21410.266627105073, -18318.953313702743, -9760.202140832203, -9017.856003982544, -187500.02235174447, -187500.02235174447, -0.214, 0.766, 0.552, 192.0, 0.0, 0.0, 0.0, 0.0, 0.0, 0.0, 0.0, 0.0, 0.0, 1.7297055636520295E9, 0.0, 2024-10-23 23:16:03.652
131.0, -42642.255740434615, -50464.002843380316, -21483.088610540464, -18900.210428263003, -9776.250693351114, -9085.51473444876, -187500.02235174447, -187500.02235174447, -0.214, 0.766, 0.552, 192.0, 0.0, 0.0, 0.0, 0.0, 0.0, 0.0, 0.0, 0.0, 0.0, 1.7297055636560621E9, 0.0, 2024-10-23 23:16:03.656
132.0, -42734.88136945741, -50630.813912250276, -21495.33736650197, -19382.516370119618, -9779.335234085946, -9128.608897758591, -187500.02235174447, -187500.02235174447, -0.214, 0.766, 0.552, 192.0, 0.0, 0.0, 0.0, 0.0, 0.0, 0.0, 0.0, 0.0, 0.0, 1.7297055636590295E9, 0.0, 2024-10-23 23:16:03.659
133.0, -42646.90490328132, -50506.38175086758, -21449.024551990577, -19203.210676099145, -9766.79590544652, -9108.604086471092, -187500.02235174447, -187500.02235174447, -0.214, 0.766, 0.552, 192.0, 0.0, 0.0, 0.0, 0.0, 0.0, 0.0, 0.0, 0.0, 0.0, 1.7297055636631336E9, 0.0, 2024-10-23 23:16:03.663
134.0, -42496.634125308294, -50235.56801504708, -21417.352130097406, -18545.5776507351, -9765.857132179395, -9060.771353336735, -187500.02235174447, -187500.02235174447, -0.214, 0.766, 0.552, 192.0, 0.0, 0.0, 0.0, 0.0, 0.0, 0.0, 0.0, 0.0, 0.0, 1.7297055636671681E9, 0.0, 2024-10-23 23:16:03.667
135.0, -42488.34162811538, -50184.159002799875, -21453.450197392725, -18330.5762208195, -9781.279835853558, -9065.219350483341, -187500.02235174447, -187500.02235174447, -0.214, 0.766, 0.552, 192.0, 0.0, 0.0, 0.0, 0.0, 0.0, 0.0, 0.0, 0.0, 0.0, 1.7297055636721988E9, 0.0, 2024-10-23 23:16:03.672
136.0, -42653.655130106825, -50455.9115118875, -21521.46655577023, -18915.633131937164, -9800.725853529675, -9139.784769986245, -187500.02235174447, -187500.02235174447, -0.214, 0.766, 0.552, 192.0, 0.0, 0.0, 0.0, 0.0, 0.0, 0.0, 0.0, 0.0, 0.0, 1.7297055636760712E9, 0.0, 2024-10-23 23:16:03.676
137.0, -42743.37503235043, -50621.60499353469, -21524.10406161595, -19401.001262784157, -9807.140804188348, -9181.7166425844, -187500.02235174447, -187500.02235174447, -0.214, 0.766, 0.552, 192.0, 0.0, 0.0, 0.0, 0.0, 0.0, 0.0, 0.0, 0.0, 0.0, 1.729705563680092E9, 0.0, 2024-10-23 23:16:03.680
138.0, -42659.24306622065, -50505.68884678947, -21472.896215068846, -19232.603220057874, -9804.503298342623, -9164.684613309457, -187500.02235174447, -187500.02235174447, -0.214, 0.766, 0.552, 192.0, 0.0, 0.0, 0.0, 0.0, 0.0, 0.0, 0.0, 0.0, 0.0, 1.7297055636840446E9, 0.0, 2024-10-23 23:16:03.684
139.0, -42503.1831864337, -50236.19386389183, -21426.315179623984, -18579.90993021845, -9806.403196621322, -9117.008342386287, -187500.02235174447, -187500.02235174447, -0.214, 0.768, 0.556, 192.0, 249.0, 80.0, 24.0, 0.0, 17.0, 96.0, 0.0, 0.0, 0.0, 1.7297055636871324E9, 0.0, 2024-10-23 23:16:03.687
140.0, -42483.75952050203, -50181.61090393197, -21443.10133970992, -18357.644183354878, -9812.460519368711, -9112.962676639876, -187500.02235174447, -187500.02235174447, -0.214, 0.768, 0.556, 192.0, 0.0, 0.0, 0.0, 0.0, 0.0, 0.0, 0.0, 0.0, 0.0, 1.729705563691097E9, 0.0, 2024-10-23 23:16:03.691
141.0, -42634.54438859754, -50444.154494304006, -21489.525912943594, -18928.26186755441, -9825.022199752593, -9171.233674434861, -187500.02235174447, -187500.02235174447, -0.214, 0.768, 0.556, 192.0, 0.0, 0.0, 0.0, 0.0, 0.0, 0.0, 0.0, 0.0, 0.0, 1.7297055636950955E9, 0.0, 2024-10-23 23:16:03.695
142.0, -42725.44893329727, -50607.791615461305, -21485.25672975263, -19400.665986617325, -9835.125188246393, -9206.750596374344, -187500.02235174447, -187500.02235174447, -0.214, 0.768, 0.556, 192.0, 0.0, 0.0, 0.0, 0.0, 0.0, 0.0, 0.0, 0.0, 0.0, 1.7297055636991208E9, 0.0, 2024-10-23 23:16:03.699
143.0, -42637.13719095435, -50486.98043668037, -21418.91675220928, -19219.28158036251, -9811.141766445848, -9172.395965146537, -187500.02235174447, -187500.02235174447, -0.214, 0.768, 0.556, 192.0, 0.0, 0.0, 0.0, 0.0, 0.0, 0.0, 0.0, 0.0, 0.0, 1.7297055637041495E9, 0.0, 2024-10-23 23:16:03.704
144.0, -42479.847965222354, -50219.96649741728, -21366.32309750594, -18558.67577298591, -9796.009635449605, -9100.982141611832, -187500.02235174447, -187500.02235174447, -0.214, 0.768, 0.556, 192.0, 0.0, 0.0, 0.0, 0.0, 0.0, 0.0, 0.0, 0.0, 0.0, 1.729705563708138E9, 0.0, 2024-10-23 23:16:03.708
145.0, -42468.06859589441, -50172.334929983015, -21384.51741749256, -18335.024217966107, -9801.776385519075, -9089.158068794975, -187500.02235174447, -187500.02235174447, -0.214, 0.768, 0.556, 192.0, 0.0, 0.0, 0.0, 0.0, 0.0, 0.0, 0.0, 0.0, 0.0, 1.7297055637121031E9, 0.0, 2024-10-23 23:16:03.712
146.0, -42634.1644089418, -50447.41784899448, -21440.217964675187, -18912.347425502234, -9819.255449683125, -9159.387249873549, -187500.02235174447, -187500.02235174447, -0.214, 0.768, 0.556, 192.0, 0.0, 0.0, 0.0, 0.0, 0.0, 0.0, 0.0, 0.0, 0.0, 1.7297055637161405E9, 0.0, 2024-10-23 23:16:03.716
147.0, -42727.99703216518, -50618.74397024441, -21435.56880182848, -19388.46193414473, -9822.116472973405, -9187.77396533179, -187500.02235174447, -187500.02235174447, -0.214, 0.768, 0.556, 192.0, 0.0, 0.0, 0.0, 0.0, 0.0, 0.0, 0.0, 0.0, 0.0, 1.729705563720154E9, 0.0, 2024-10-23 23:16:03.720
148.0, -42639.52882761107, -50500.771463009296, -21373.207434798176, -19205.244684844576, -9791.852210980918, -9138.7565897413, -187500.02235174447, -187500.02235174447, -0.214, 0.768, 0.556, 192.0, 0.0, 0.0, 0.0, 0.0, 0.0, 0.0, 0.0, 0.0, 0.0, 1.729705563723184E9, 0.0, 2024-10-23 23:16:03.723
149.0, -42482.93250595719, -50231.09766615602, -21322.178402206708, -18541.107301844037, -9768.449934536211, -9062.023051026232, -187500.02235174447, -187500.02235174447, -0.20800000000000002, 0.77, 0.548, 192.0, 249.0, 128.0, 24.0, 16.0, 17.0, 32.0, 0.0, 0.0, 0.0, 1.7297055637271793E9, 0.0, 2024-10-23 23:16:03.727
150.0, -42469.45440405064, -50178.74988064169, -21341.669123371736, -18313.7230055002, -9778.59762651892, -9050.958937520854, -187500.02235174447, -187500.02235174447, -0.20800000000000002, 0.77, 0.548, 192.0, 0.0, 0.0, 0.0, 0.0, 0.0, 0.0, 0.0, 0.0, 0.0, 1.7297055637321527E9, 0.0, 2024-10-23 23:16:03.732
151.0, -42629.93992923974, -50449.96594786239, -21397.190856598718, -18880.2056169755, -9788.298283612525, -9108.313513793173, -187500.02235174447, -187500.02235174447, -0.20800000000000002, 0.77, 0.548, 192.0, 0.0, 0.0, 0.0, 0.0, 0.0, 0.0, 0.0, 0.0, 0.0, 1.729705563736187E9, 0.0, 2024-10-23 23:16:03.736
152.0, -42724.57721526352, -50619.79450223381, -21396.60971124288, -19357.102436673933, -9788.678263268264, -9135.202662372907, -187500.02235174447, -187500.02235174447, -0.20800000000000002, 0.77, 0.548, 192.0, 0.0, 0.0, 0.0, 0.0, 0.0, 0.0, 0.0, 0.0, 0.0, 1.7297055637401733E9, 0.0, 2024-10-23 23:16:03.740
153.0, -42643.14981021283, -50506.2699921453, -21345.290105973498, -19180.50130373255, -9778.530571285555, -9104.42431025795, -187500.02235174447, -187500.02235174447, -0.20800000000000002, 0.77, 0.548, 192.0, 0.0, 0.0, 0.0, 0.0, 0.0, 0.0, 0.0, 0.0, 0.0, 1.729705563743172E9, 0.0, 2024-10-23 23:16:03.743
154.0, -42487.469910081614, -50233.24343362373, -21303.35823337534, -18521.683635912377, -9773.121449127371, -9045.773332807223, -187500.02235174447, -187500.02235174447, -0.20800000000000002, 0.77, 0.548, 192.0, 0.0, 0.0, 0.0, 0.0, 0.0, 0.0, 0.0, 0.0, 0.0, 1.7297055637471936E9, 0.0, 2024-10-23 23:16:03.747
155.0, -42473.83534596388, -50177.60994167447, -21325.709977830647, -18291.348909300435, -9771.668585737776, -9032.921079745422, -187500.02235174447, -187500.02235174447, -0.20800000000000002, 0.77, 0.548, 192.0, 0.0, 0.0, 0.0, 0.0, 0.0, 0.0, 0.0, 0.0, 0.0, 1.729705563751197E9, 0.0, 2024-10-23 23:16:03.751
156.0, -42641.562836356505, -50451.26234904079, -21391.96054839618, -18861.787779544327, -9781.548056787022, -9094.835411886623, -187500.02235174447, -187500.02235174447, -0.20800000000000002, 0.77, 0.548, 192.0, 0.0, 0.0, 0.0, 0.0, 0.0, 0.0, 0.0, 0.0, 0.0, 1.7297055637552772E9, 0.0, 2024-10-23 23:16:03.755
157.0, -42737.51887530314, -50620.57681328974, -21394.888626919823, -19343.847852211937, -9778.351757329912, -9124.47382503436, -187500.02235174447, -187500.02235174447, -0.20800000000000002, 0.77, 0.548, 192.0, 0.0, 0.0, 0.0, 0.0, 0.0, 0.0, 0.0, 0.0, 0.0, 1.7297055637601771E9, 0.0, 2024-10-23 23:16:03.760
158.0, -42655.8679528079, -50507.253468901334, -21344.8877745733, -19175.047478085457, -9757.475228008656, -9095.550667709193, -187500.02235174447, -187500.02235174447, -0.20800000000000002, 0.77, 0.548, 192.0, 0.0, 0.0, 0.0, 0.0, 0.0, 0.0, 0.0, 0.0, 0.0, 1.7297055637652125E9, 0.0, 2024-10-23 23:16:03.765
159.0, -42501.99854397757, -50238.406686592905, -21309.97434973411, -18520.208420778326, -9751.104980838893, -9038.844292026079, -187500.02235174447, -187500.02235174447, -0.214, 0.774, 0.546, 192.0, 249.0, 80.0, 24.0, 48.0, 17.0, 16.0, 0.0, 0.0, 0.0, 1.7297055637692404E9, 0.0, 2024-10-23 23:16:03.769
160.0, -42486.30761936994, -50179.93452309782, -21341.914992560745, -18297.22741809218, -9766.617091490876, -9038.754885048256, -187500.02235174447, -187500.02235174447, -0.214, 0.774, 0.546, 192.0, 0.0, 0.0, 0.0, 0.0, 0.0, 0.0, 0.0, 0.0, 0.0, 1.7297055637722144E9, 0.0, 2024-10-23 23:16:03.772
161.0, -42642.85923753491, -50442.72398265886, -21406.198609614206, -18869.141503470124, -9778.307053841001, -9102.814984657167, -187500.02235174447, -187500.02235174447, -0.214, 0.774, 0.546, 192.0, 0.0, 0.0, 0.0, 0.0, 0.0, 0.0, 0.0, 0.0, 0.0, 1.7297055637752175E9, 0.0, 2024-10-23 23:16:03.775
162.0, -42731.86388395594, -50609.132720128626, -21412.188877128232, -19351.335686604463, -9773.4567252942, -9135.04620016172, -187500.02235174447, -187500.02235174447, -0.214, 0.774, 0.546, 192.0, 0.0, 0.0, 0.0, 0.0, 0.0, 0.0, 0.0, 0.0, 0.0, 1.7297055637792952E9, 0.0, 2024-10-23 23:16:03.779
163.0, -42648.02249050409, -50494.42356758399, -21373.453303987182, -19179.383716509787, -9775.714251484187, -9116.628362730547, -187500.02235174447, -187500.02235174447, -0.214, 0.774, 0.546, 192.0, 0.0, 0.0, 0.0, 0.0, 0.0, 0.0, 0.0, 0.0, 0.0, 1.72970556378326E9, 0.0, 2024-10-23 23:16:03.783
164.0, -42490.487395583084, -50223.47572129676, -21343.27844897252, -18525.43872898087, -9776.965949173684, -9066.403992939471, -187500.02235174447, -187500.02235174447, -0.214, 0.774, 0.546, 192.0, 0.0, 0.0, 0.0, 0.0, 0.0, 0.0, 0.0, 0.0, 0.0, 1.729705563788424E9, 0.0, 2024-10-23 23:16:03.788
165.0, -42476.24933436505, -50171.06088054906, -21378.527149978538, -18307.397461819346, -9796.434318594256, -9071.053155786176, -187500.02235174447, -187500.02235174447, -0.214, 0.774, 0.546, 192.0, 0.0, 0.0, 0.0, 0.0, 0.0, 0.0, 0.0, 0.0, 0.0, 1.7297055637922475E9, 0.0, 2024-10-23 23:16:03.792
166.0, -42640.4676008782, -50446.99316584983, -21444.978886244167, -18886.195884489523, -9805.822051265484, -9135.850862962112, -187500.02235174447, -187500.02235174447, -0.214, 0.774, 0.546, 192.0, 0.0, 0.0, 0.0, 0.0, 0.0, 0.0, 0.0, 0.0, 0.0, 1.7297055637962673E9, 0.0, 2024-10-23 23:16:03.796
167.0, -42733.428506067816, -50617.71578999946, -21453.67371483728, -19370.60289032494, -9808.70542630022, -9173.558255858214, -187500.02235174447, -187500.02235174447, -0.214, 0.774, 0.546, 192.0, 0.0, 0.0, 0.0, 0.0, 0.0, 0.0, 0.0, 0.0, 0.0, 1.7297055637992551E9, 0.0, 2024-10-23 23:16:03.799
168.0, -42643.48508637966, -50497.17283215199, -21404.61163575788, -19197.041594629478, -9798.043644195039, -9147.362011356594, -187500.02235174447, -187500.02235174447, -0.214, 0.774, 0.546, 192.0, 0.0, 0.0, 0.0, 0.0, 0.0, 0.0, 0.0, 0.0, 0.0, 1.729705563809812E9, 0.0, 2024-10-23 23:16:03.809
169.0, -42488.56514555993, -50226.96259343179, -21368.155940551274, -18541.24141231077, -9793.863867981896, -9093.986045597321, -187500.02235174447, -187500.02235174447, -0.212, 0.774, 0.552, 192.0, 249.0, 96.0, 24.0, 48.0, 17.0, 64.0, 0.0, 0.0, 0.0, 1.7297055638098652E9, 0.0, 2024-10-23 23:16:03.809
170.0, -42474.03651166398, -50173.07253755004, -21395.134496108833, -18325.323560872504, -9800.189411662748, -9085.8947141045, -187500.02235174447, -187500.02235174447, -0.212, 0.774, 0.552, 192.0, 0.0, 0.0, 0.0, 0.0, 0.0, 0.0, 0.0, 0.0, 0.0, 1.729705563811336E9, 0.0, 2024-10-23 23:16:03.811
171.0, -42639.43942063325, -50447.08257282765, -21459.44046490675, -18899.830448607263, -9808.236039666657, -9144.411581088494, -187500.02235174447, -187500.02235174447, -0.212, 0.774, 0.552, 192.0, 0.0, 0.0, 0.0, 0.0, 0.0, 0.0, 0.0, 0.0, 0.0, 1.729705563816311E9, 0.0, 2024-10-23 23:16:03.816
172.0, -42730.03104091061, -50615.45826380948, -21459.82044456249, -19379.722402062704, -9796.434318594256, -9164.23757842035, -187500.02235174447, -187500.02235174447, -0.212, 0.774, 0.552, 192.0, 0.0, 0.0, 0.0, 0.0, 0.0, 0.0, 0.0, 0.0, 0.0, 1.729705563820357E9, 0.0, 2024-10-23 23:16:03.820
173.0, -42650.503534138625, -50503.02898919928, -21414.93814169623, -19203.70241447716, -9783.22443762117, -9133.839205961134, -187500.02235174447, -187500.02235174447, -0.212, 0.774, 0.552, 192.0, 0.0, 0.0, 0.0, 0.0, 0.0, 0.0, 0.0, 0.0, 0.0, 1.7297055638242922E9, 0.0, 2024-10-23 23:16:03.824
174.0, -42492.40964560624, -50230.2035963778, -21372.492178975604, -18546.449368768855, -9769.209893847692, -9066.538103406203, -187500.02235174447, -187500.02235174447, -0.212, 0.774, 0.552, 192.0, 0.0, 0.0, 0.0, 0.0, 0.0, 0.0, 0.0, 0.0, 0.0, 1.729705563827412E9, 0.0, 2024-10-23 23:16:03.827
175.0, -42476.65166576525, -50175.687691651314, -21399.94012116672, -18318.841554980463, -9779.469344552677, -9057.753867835268, -187500.02235174447, -187500.02235174447, -0.212, 0.774, 0.552, 192.0, 0.0, 0.0, 0.0, 0.0, 0.0, 0.0, 0.0, 0.0, 0.0, 1.7297055638314779E9, 0.0, 2024-10-23 23:16:03.831
176.0, -42636.98072874317, -50440.66762216898, -21460.602755618427, -18885.905311811606, -9791.248713880625, -9117.99181914232, -187500.02235174447, -187500.02235174447, -0.212, 0.774, 0.552, 192.0, 0.0, 0.0, 0.0, 0.0, 0.0, 0.0, 0.0, 0.0, 0.0, 1.7297055638352945E9, 0.0, 2024-10-23 23:16:03.835
177.0, -42725.381878063905, -50605.556441015775, -21460.915680040798, -19357.169491907298, -9780.922207942273, -9133.95096468341, -187500.02235174447, -187500.02235174447, -0.212, 0.774, 0.552, 192.0, 0.0, 0.0, 0.0, 0.0, 0.0, 0.0, 0.0, 0.0, 0.0, 1.7297055638393266E9, 0.0, 2024-10-23 23:16:03.839
178.0, -42637.561874099, -50485.92990469097, -21405.9527404252, -19177.55087346445, -9754.636556462832, -9093.494307219304, -187500.02235174447, -187500.02235174447, -0.212, 0.774, 0.552, 192.0, 0.0, 0.0, 0.0, 0.0, 0.0, 0.0, 0.0, 0.0, 0.0, 1.7297055638443174E9, 0.0, 2024-10-23 23:16:03.844
179.0, -42482.105491412345, -50217.44075029383, -21366.85953937287, -18517.5709149326, -9743.17011155726, -9032.764617534234, -187500.02235174447, -187500.02235174447, -0.21, 0.768, 0.55, 192.0, 249.0, 112.0, 24.0, 0.0, 17.0, 48.0, 0.0, 0.0, 0.0, 1.7297055638483212E9, 0.0, 2024-10-23 23:16:03.848
180.0, -42470.59434301786, -50172.98313057222, -21399.224865344153, -18303.552961773035, -9760.850341421406, -9036.40795188045, -187500.02235174447, -187500.02235174447, -0.21, 0.768, 0.55, 192.0, 0.0, 0.0, 0.0, 0.0, 0.0, 0.0, 0.0, 0.0, 0.0, 1.729705563852362E9, 0.0, 2024-10-23 23:16:03.852
181.0, -42638.23242643266, -50454.59275896463, -21462.904985297322, -18885.97236704497, -9781.145725386827, -9112.783862684235, -187500.02235174447, -187500.02235174447, -0.21, 0.768, 0.55, 192.0, 0.0, 0.0, 0.0, 0.0, 0.0, 0.0, 0.0, 0.0, 0.0, 1.7297055638553908E9, 0.0, 2024-10-23 23:16:03.855
182.0, -42737.7870962366, -50633.20554890699, -21467.598851632938, -19380.325899162995, -9785.571370788977, -9156.973261472376, -187500.02235174447, -187500.02235174447, -0.21, 0.768, 0.55, 192.0, 0.0, 0.0, 0.0, 0.0, 0.0, 0.0, 0.0, 0.0, 0.0, 1.729705563859387E9, 0.0, 2024-10-23 23:16:03.859
183.0, -42660.11478425441, -50520.44099812997, -21417.843868475422, -19215.28061810501, -9773.546132272022, -9135.672049006469, -187500.02235174447, -187500.02235174447, -0.21, 0.768, 0.55, 192.0, 0.0, 0.0, 0.0, 0.0, 0.0, 0.0, 0.0, 0.0, 0.0, 1.7297055638633728E9, 0.0, 2024-10-23 23:16:03.863
184.0, -42501.21623292163, -50247.481494841755, -21370.257004530074, -18561.514444531735, -9760.202140832203, -9078.250417500785, -187500.02235174447, -187500.02235174447, -0.21, 0.768, 0.55, 192.0, 0.0, 0.0, 0.0, 0.0, 0.0, 0.0, 0.0, 0.0, 0.0, 1.7297055638673792E9, 0.0, 2024-10-23 23:16:03.867
185.0, -42483.31248561293, -50187.13178481243, -21394.687461219724, -18335.6277150664, -9770.372184559368, -9070.404955196971, -187500.02235174447, -187500.02235174447, -0.21, 0.768, 0.55, 192.0, 0.0, 0.0, 0.0, 0.0, 0.0, 0.0, 0.0, 0.0, 0.0, 1.7297055638713777E9, 0.0, 2024-10-23 23:16:03.871
186.0, -42642.63572009036, -50452.51404673029, -21461.228604463173, -18907.094765555237, -9793.394481348334, -9132.18517687144, -187500.02235174447, -187500.02235174447, -0.21, 0.768, 0.55, 192.0, 0.0, 0.0, 0.0, 0.0, 0.0, 0.0, 0.0, 0.0, 0.0, 1.7297055638763552E9, 0.0, 2024-10-23 23:16:03.876
187.0, -42737.898854958876, -50621.47088306795, -21470.526930156582, -19388.596044611462, -9796.74724301663, -9159.566063829192, -187500.02235174447, -187500.02235174447, -0.21, 0.768, 0.55, 192.0, 0.0, 0.0, 0.0, 0.0, 0.0, 0.0, 0.0, 0.0, 0.0, 1.7297055638803997E9, 0.0, 2024-10-23 23:16:03.880
188.0, -42656.56085688601, -50506.918192734505, -21426.985731957644, -19222.05319667497, -9794.199144148724, -9134.442703061426, -187500.02235174447, -187500.02235174447, -0.21, 0.768, 0.55, 192.0, 0.0, 0.0, 0.0, 0.0, 0.0, 0.0, 0.0, 0.0, 0.0, 1.7297055638834133E9, 0.0, 2024-10-23 23:16:03.883
189.0, -42496.8799944973, -50231.4552940673, -21385.009155870575, -18565.850682956065, -9789.281760368558, -9073.55655116517, -187500.02235174447, -187500.02235174447, -0.214, 0.778, 0.55, 192.0, 249.0, 80.0, 24.0, 80.0, 17.0, 48.0, 0.0, 0.0, 0.0, 1.729705563887395E9, 0.0, 2024-10-23 23:16:03.887
190.0, -42486.21821239212, -50180.96270334276, -21417.016853930578, -18352.05624724105, -9809.4653856117, -9077.669272144947, -187500.02235174447, -187500.02235174447, -0.214, 0.778, 0.55, 192.0, 0.0, 0.0, 0.0, 0.0, 0.0, 0.0, 0.0, 0.0, 0.0, 1.7297055638914037E9, 0.0, 2024-10-23 23:16:03.891
191.0, -42641.45107763423, -50444.66858442648, -21470.68339236777, -18923.188021563055, -9811.074711212483, -9135.068551906175, -187500.02235174447, -187500.02235174447, -0.214, 0.778, 0.55, 192.0, 0.0, 0.0, 0.0, 0.0, 0.0, 0.0, 0.0, 0.0, 0.0, 1.7297055638954303E9, 0.0, 2024-10-23 23:16:03.895
192.0, -42732.22151186723, -50615.88294695413, -21472.426828435284, -19404.644597130373, -9820.887127028362, -9173.222979691385, -187500.02235174447, -187500.02235174447, -0.214, 0.778, 0.55, 192.0, 0.0, 0.0, 0.0, 0.0, 0.0, 0.0, 0.0, 0.0, 0.0, 1.7297055638994083E9, 0.0, 2024-10-23 23:16:03.899
193.0, -42647.44134514825, -50504.548907822245, -21415.832211474444, -19235.643057303794, -9806.917286743796, -9144.121008410575, -187500.02235174447, -187500.02235174447, -0.214, 0.778, 0.55, 192.0, 0.0, 0.0, 0.0, 0.0, 0.0, 0.0, 0.0, 0.0, 0.0, 1.7297055639044034E9, 0.0, 2024-10-23 23:16:03.904
194.0, -42491.69438978367, -50237.24439588123, -21369.385286496316, -18580.379316852013, -9797.954237217216, -9085.648844915491, -187500.02235174447, -187500.02235174447, -0.214, 0.778, 0.55, 192.0, 0.0, 0.0, 0.0, 0.0, 0.0, 0.0, 0.0, 0.0, 0.0, 1.7297055639083734E9, 0.0, 2024-10-23 23:16:03.908
195.0, -42478.17158438821, -50188.070558079555, -21392.51934200756, -18355.610174609446, -9803.855097753418, -9078.026900056231, -187500.02235174447, -187500.02235174447, -0.214, 0.778, 0.55, 192.0, 0.0, 0.0, 0.0, 0.0, 0.0, 0.0, 0.0, 0.0, 0.0, 1.7297055639114604E9, 0.0, 2024-10-23 23:16:03.911
196.0, -42639.037089233054, -50457.766706677285, -21450.76798805809, -18920.4164052506, -9816.617943837398, -9136.856691462599, -187500.02235174447, -187500.02235174447, -0.214, 0.778, 0.55, 192.0, 0.0, 0.0, 0.0, 0.0, 0.0, 0.0, 0.0, 0.0, 0.0, 1.7297055639154463E9, 0.0, 2024-10-23 23:16:03.915
197.0, -42726.90179668686, -50626.41061859258, -21448.331647912462, -19397.469687160217, -9810.314751901002, -9159.342546384638, -187500.02235174447, -187500.02235174447, -0.214, 0.778, 0.55, 192.0, 0.0, 0.0, 0.0, 0.0, 0.0, 0.0, 0.0, 0.0, 0.0, 1.7297055639194455E9, 0.0, 2024-10-23 23:16:03.919
198.0, -42639.171199699784, -50507.63344855708, -21394.732164708636, -19217.47108906163, -9790.622865035875, -9122.149243611007, -187500.02235174447, -187500.02235174447, -0.214, 0.778, 0.55, 192.0, 0.0, 0.0, 0.0, 0.0, 0.0, 0.0, 0.0, 0.0, 0.0, 1.7297055639234457E9, 0.0, 2024-10-23 23:16:03.923
199.0, -42477.79160473247, -50238.831369737556, -21351.88387058781, -18555.99356365127, -9771.64623399332, -9059.094972502586, -187500.02235174447, -187500.02235174447, -0.20800000000000002, 0.772, 0.548, 192.0, 249.0, 128.0, 24.0, 32.0, 17.0, 32.0, 0.0, 0.0, 0.0, 1.7297055639274995E9, 0.0, 2024-10-23 23:16:03.927
200.0, -42460.40194754624, -50184.918962111355, -21383.645699458804, -18327.06699694002, -9781.481001553655, -9052.322393932629, -187500.02235174447, -187500.02235174447, -0.20800000000000002, 0.772, 0.548, 192.0, 0.0, 0.0, 0.0, 0.0, 0.0, 0.0, 0.0, 0.0, 0.0, 1.7297055639324813E9, 0.0, 2024-10-23 23:16:03.932
201.0, -42625.983670471156, -50457.45378225491, -21453.472549137183, -18899.673986396076, -9795.89787672733, -9116.985990641831, -187500.02235174447, -187500.02235174447, -0.20800000000000002, 0.772, 0.548, 192.0, 0.0, 0.0, 0.0, 0.0, 0.0, 0.0, 0.0, 0.0, 0.0, 1.729705563936458E9, 0.0, 2024-10-23 23:16:03.936
202.0, -42723.280814085105, -50637.69824954251, -21461.20625271872, -19406.99153029818, -9796.255504638613, -9152.90524398151, -187500.02235174447, -187500.02235174447, -0.20800000000000002, 0.772, 0.548, 192.0, 0.0, 0.0, 0.0, 0.0, 0.0, 0.0, 0.0, 0.0, 0.0, 1.7297055639394498E9, 0.0, 2024-10-23 23:16:03.939
203.0, -42624.03906870355, -50483.09123314515, -21416.122784152365, -19170.443018727663, -9776.921245684773, -9117.656542975492, -187500.02235174447, -187500.02235174447, -0.20800000000000002, 0.772, 0.548, 192.0, 0.0, 0.0, 0.0, 0.0, 0.0, 0.0, 0.0, 0.0, 0.0, 1.7297055639434733E9, 0.0, 2024-10-23 23:16:03.943
204.0, -42471.466061051615, -50221.21819510677, -21385.478542504137, -18524.298790013647, -9760.827989676953, -9060.547835892181, -187500.02235174447, -187500.02235174447, -0.20800000000000002, 0.772, 0.548, 192.0, 0.0, 0.0, 0.0, 0.0, 0.0, 0.0, 0.0, 0.0, 0.0, 1.7297055639475112E9, 0.0, 2024-10-23 23:16:03.947
205.0, -42463.30767432543, -50179.107508552974, -21423.700025522714, -18321.188488148273, -9773.233207849647, -9062.112458004052, -187500.02235174447, -187500.02235174447, -0.20800000000000002, 0.772, 0.548, 192.0, 0.0, 0.0, 0.0, 0.0, 0.0, 0.0, 0.0, 0.0, 0.0, 1.7297055639515386E9, 0.0, 2024-10-23 23:16:03.951
206.0, -42635.32669965347, -50465.187485836446, -21496.253788024642, -18926.83135590927, -9795.227324393669, -9143.405752588005, -187500.02235174447, -187500.02235174447, -0.20800000000000002, 0.772, 0.548, 192.0, 0.0, 0.0, 0.0, 0.0, 0.0, 0.0, 0.0, 0.0, 0.0, 1.7297055639554932E9, 0.0, 2024-10-23 23:16:03.955
207.0, -42732.13210488941, -50644.202607179, -21503.249884039153, -19444.095426093987, -9798.915362228796, -9186.142287986551, -187500.02235174447, -187500.02235174447, -0.20800000000000002, 0.772, 0.548, 192.0, 0.0, 0.0, 0.0, 0.0, 0.0, 0.0, 0.0, 0.0, 0.0, 1.7297055639604754E9, 0.0, 2024-10-23 23:16:03.960
208.0, -42633.9632432417, -50490.53436404877, -21458.367581172894, -19195.0299376285, -9788.432394079256, -9155.878025994067, -187500.02235174447, -187500.02235174447, -0.20800000000000002, 0.772, 0.548, 192.0, 0.0, 0.0, 0.0, 0.0, 0.0, 0.0, 0.0, 0.0, 0.0, 1.7297055639645233E9, 0.0, 2024-10-23 23:16:03.964
209.0, -42486.017046692024, -50238.049058681616, -21425.734034268145, -18564.86720620003, -9786.17486788927, -9105.56424922517, -187500.02235174447, -187500.02235174447, -0.21, 0.776, 0.552, 192.0, 249.0, 112.0, 24.0, 64.0, 17.0, 64.0, 0.0, 0.0, 0.0, 1.7297055639675255E9, 0.0, 2024-10-23 23:16:03.967
210.0, -42478.61861927732, -50191.73624417022, -21457.138235227852, -18360.34874443397, -9806.850231510429, -9108.42527251545, -187500.02235174447, -187500.02235174447, -0.21, 0.776, 0.552, 192.0, 0.0, 0.0, 0.0, 0.0, 0.0, 0.0, 0.0, 0.0, 0.0, 1.7297055639717329E9, 0.0, 2024-10-23 23:16:03.971
211.0, -42646.21199920321, -50469.6131312386, -21510.06716609802, -18950.65831549863, -9815.925039759284, -9163.902302253522, -187500.02235174447, -187500.02235174447, -0.21, 0.776, 0.552, 192.0, 0.0, 0.0, 0.0, 0.0, 0.0, 0.0, 0.0, 0.0, 0.0, 1.7297055639755478E9, 0.0, 2024-10-23 23:16:03.975
212.0, -42745.721965518234, -50650.14817120411, -21503.763974161622, -19452.18675758681, -9819.32250491649, -9195.306503213227, -187500.02235174447, -187500.02235174447, -0.21, 0.776, 0.552, 192.0, 0.0, 0.0, 0.0, 0.0, 0.0, 0.0, 0.0, 0.0, 0.0, 1.7297055639795368E9, 0.0, 2024-10-23 23:16:03.979
213.0, -42643.75330731313, -50489.170907636995, -21441.00027573112, -19190.917216648726, -9804.4138913648, -9156.593281816637, -187500.02235174447, -187500.02235174447, -0.21, 0.776, 0.552, 192.0, 0.0, 0.0, 0.0, 0.0, 0.0, 0.0, 0.0, 0.0, 0.0, 1.729705563983528E9, 0.0, 2024-10-23 23:16:03.983
214.0, -42495.47183459662, -50233.444599323826, -21392.452286774194, -18559.52513927521, -9791.98632144765, -9098.99283635531, -187500.02235174447, -187500.02235174447, -0.21, 0.776, 0.552, 192.0, 0.0, 0.0, 0.0, 0.0, 0.0, 0.0, 0.0, 0.0, 0.0, 1.729705563987574E9, 0.0, 2024-10-23 23:16:03.987
215.0, -42480.80909023394, -50183.734319655225, -21411.831249216946, -18350.089293728983, -9795.450841838223, -9093.784879897223, -187500.02235174447, -187500.02235174447, -0.21, 0.776, 0.552, 192.0, 0.0, 0.0, 0.0, 0.0, 0.0, 0.0, 0.0, 0.0, 0.0, 1.729705563992705E9, 0.0, 2024-10-23 23:16:03.992
216.0, -42645.742612569644, -50458.99605262233, -21472.136255757363, -18935.03444612437, -9811.342932145946, -9156.816799261189, -187500.02235174447, -187500.02235174447, -0.21, 0.776, 0.552, 192.0, 0.0, 0.0, 0.0, 0.0, 0.0, 0.0, 0.0, 0.0, 0.0, 1.729705563995541E9, 0.0, 2024-10-23 23:16:03.995
217.0, -42731.08157290001, -50620.196833634, -21460.513348640605, -19420.60374267146, -9805.799699521029, -9182.67776759598, -187500.02235174447, -187500.02235174447, -0.21, 0.776, 0.552, 192.0, 0.0, 0.0, 0.0, 0.0, 0.0, 0.0, 0.0, 0.0, 0.0, 1.7297055639995632E9, 0.0, 2024-10-23 23:16:03.999
218.0, -42642.79218230155, -50499.028026941785, -21400.81183920048, -19236.067740448445, -9789.170001646282, -9148.993688701832, -187500.02235174447, -187500.02235174447, -0.21, 0.776, 0.552, 192.0, 0.0, 0.0, 0.0, 0.0, 0.0, 0.0, 0.0, 0.0, 0.0, 1.7297055640035548E9, 0.0, 2024-10-23 23:16:04.003
219.0, -42484.56418330243, -50220.68175323984, -21353.806120610967, -18556.01591539573, -9775.557789273, -9083.123097792042, -187500.02235174447, -187500.02235174447, -0.20800000000000002, 0.77, 0.548, 192.0, 249.0, 128.0, 24.0, 16.0, 17.0, 32.0, 0.0, 0.0, 0.0, 1.7297055640076375E9, 0.0, 2024-10-23 23:16:04.007
220.0, -42474.84117446437, -50169.83153460402, -21376.448437744195, -18330.799738264053, -9783.067975409982, -9077.356347722573, -187500.02235174447, -187500.02235174447, -0.20800000000000002, 0.77, 0.548, 192.0, 0.0, 0.0, 0.0, 0.0, 0.0, 0.0, 0.0, 0.0, 0.0, 1.729705564011678E9, 0.0, 2024-10-23 23:16:04.011
221.0, -42641.004042745124, -50447.3060902722, -21435.658208806304, -18909.73227140096, -9794.89204822684, -9135.828511217656, -187500.02235174447, -187500.02235174447, -0.20800000000000002, 0.77, 0.548, 192.0, 0.0, 0.0, 0.0, 0.0, 0.0, 0.0, 0.0, 0.0, 0.0, 1.7297055640156062E9, 0.0, 2024-10-23 23:16:04.015
222.0, -42739.642291026394, -50626.65648778158, -21440.597944330926, -19400.509524406138, -9797.820126750485, -9165.57868308767, -187500.02235174447, -187500.02235174447, -0.20800000000000002, 0.77, 0.548, 192.0, 0.0, 0.0, 0.0, 0.0, 0.0, 0.0, 0.0, 0.0, 0.0, 1.7297055640205984E9, 0.0, 2024-10-23 23:16:04.020
223.0, -42648.67069109329, -50502.80547175473, -21383.600995969893, -19216.442908816687, -9774.909588683795, -9128.698304736412, -187500.02235174447, -187500.02235174447, -0.20800000000000002, 0.77, 0.548, 192.0, 0.0, 0.0, 0.0, 0.0, 0.0, 0.0, 0.0, 0.0, 0.0, 1.7297055640235991E9, 0.0, 2024-10-23 23:16:04.023
224.0, -42484.07244492441, -50226.2026341203, -21336.036483769, -18539.229755309792, -9759.889216409829, -9065.50992316126, -187500.02235174447, -187500.02235174447, -0.20800000000000002, 0.77, 0.548, 192.0, 0.0, 0.0, 0.0, 0.0, 0.0, 0.0, 0.0, 0.0, 0.0, 1.7297055640266376E9, 0.0, 2024-10-23 23:16:04.026
225.0, -42464.73818597057, -50175.88885735141, -21358.097655546386, -18319.735624758676, -9765.968890901673, -9062.537141148703, -187500.02235174447, -187500.02235174447, -0.20800000000000002, 0.77, 0.548, 192.0, 0.0, 0.0, 0.0, 0.0, 0.0, 0.0, 0.0, 0.0, 0.0, 1.7297055640316324E9, 0.0, 2024-10-23 23:16:04.031
226.0, -42626.34129838244, -50450.569444962675, -21415.38517658534, -18908.949960345028, -9784.118507399382, -9136.364953084583, -187500.02235174447, -187500.02235174447, -0.20800000000000002, 0.77, 0.548, 192.0, 0.0, 0.0, 0.0, 0.0, 0.0, 0.0, 0.0, 0.0, 0.0, 1.7297055640356348E9, 0.0, 2024-10-23 23:16:04.035
227.0, -42716.999973893166, -50622.275545868346, -21406.824458458956, -19404.197562241265, -9786.331330100456, -9175.324043670184, -187500.02235174447, -187500.02235174447, -0.20800000000000002, 0.77, 0.548, 192.0, 0.0, 0.0, 0.0, 0.0, 0.0, 0.0, 0.0, 0.0, 0.0, 1.7297055640396523E9, 0.0, 2024-10-23 23:16:04.039
228.0, -42639.55117935553, -50506.985247967874, -21362.031562570523, -19235.866574748346, -9781.83862946494, -9156.637985305546, -187500.02235174447, -187500.02235174447, -0.20800000000000002, 0.77, 0.548, 192.0, 0.0, 0.0, 0.0, 0.0, 0.0, 0.0, 0.0, 0.0, 0.0, 1.7297055640437317E9, 0.0, 2024-10-23 23:16:04.043
229.0, -42474.70706399764, -50225.12975038645, -21315.964617248133, -18562.20734860985, -9765.186579845737, -9099.32811252214, -187500.02235174447, -187500.02235174447, -0.216, 0.77, 0.546, 192.0, 249.0, 64.0, 24.0, 16.0, 17.0, 16.0, 0.0, 0.0, 0.0, 1.7297055640476272E9, 0.0, 2024-10-23 23:16:04.047
230.0, -42466.88395343828, -50178.25814226367, -21348.531108919517, -18350.133997217894, -9775.021347406071, -9102.077377090141, -187500.02235174447, -187500.02235174447, -0.216, 0.77, 0.546, 192.0, 0.0, 0.0, 0.0, 0.0, 0.0, 0.0, 0.0, 0.0, 0.0, 1.729705564051624E9, 0.0, 2024-10-23 23:16:04.051
231.0, -42636.08665896495, -50456.3585467766, -21418.737938253635, -18937.56019324782, -9794.17679240427, -9174.519380869791, -187500.02235174447, -187500.02235174447, -0.216, 0.77, 0.546, 192.0, 0.0, 0.0, 0.0, 0.0, 0.0, 0.0, 0.0, 0.0, 0.0, 1.7297055640547228E9, 0.0, 2024-10-23 23:16:04.054
232.0, -42730.18750312179, -50629.964545960975, -21432.059577949, -19435.668818434337, -9803.743339031142, -9216.048922067754, -187500.02235174447, -187500.02235174447, -0.216, 0.77, 0.546, 192.0, 0.0, 0.0, 0.0, 0.0, 0.0, 0.0, 0.0, 0.0, 0.0, 1.7297055640596924E9, 0.0, 2024-10-23 23:16:04.059
233.0, -42642.680423579266, -50507.5216898348, -21391.021775129055, -19258.62065060385, -9793.215667392691, -9192.311369456216, -187500.02235174447, -187500.02235174447, -0.216, 0.77, 0.546, 192.0, 0.0, 0.0, 0.0, 0.0, 0.0, 0.0, 0.0, 0.0, 0.0, 1.7297055640636911E9, 0.0, 2024-10-23 23:16:04.063
234.0, -42479.19976463315, -50224.07921839705, -21352.26385024355, -18582.636843041997, -9780.609283519898, -9129.368857070072, -187500.02235174447, -187500.02235174447, -0.216, 0.77, 0.546, 192.0, 0.0, 0.0, 0.0, 0.0, 0.0, 0.0, 0.0, 0.0, 0.0, 1.729705564067776E9, 0.0, 2024-10-23 23:16:04.067
235.0, -42461.31836906891, -50169.608017159466, -21380.98584186862, -18357.286555443592, -9788.07476616797, -9119.04235113172, -187500.02235174447, -187500.02235174447, -0.216, 0.77, 0.546, 192.0, 0.0, 0.0, 0.0, 0.0, 0.0, 0.0, 0.0, 0.0, 0.0, 1.729705564071798E9, 0.0, 2024-10-23 23:16:04.071
236.0, -42628.26354840559, -50445.00386059331, -21451.460892136205, -18940.354161304735, -9806.805528021518, -9184.421203663493, -187500.02235174447, -187500.02235174447, -0.216, 0.77, 0.546, 192.0, 0.0, 0.0, 0.0, 0.0, 0.0, 0.0, 0.0, 0.0, 0.0, 1.7297055640776913E9, 0.0, 2024-10-23 23:16:04.077
237.0, -42719.860997183445, -50617.55932778828, -21454.232508448662, -19437.456957990762, -9808.168984433292, -9214.931334844987, -187500.02235174447, -187500.02235174447, -0.216, 0.77, 0.546, 192.0, 0.0, 0.0, 0.0, 0.0, 0.0, 0.0, 0.0, 0.0, 0.0, 1.7297055640807266E9, 0.0, 2024-10-23 23:16:04.080
238.0, -42631.03516471806, -50496.81520424071, -21404.678690991248, -19257.32424942544, -9789.03589117955, -9180.934331528466, -187500.02235174447, -187500.02235174447, -0.216, 0.77, 0.546, 192.0, 0.0, 0.0, 0.0, 0.0, 0.0, 0.0, 0.0, 0.0, 0.0, 1.7297055640837083E9, 0.0, 2024-10-23 23:16:04.083
239.0, -42474.26002910853, -50222.49224454072, -21373.43095224273, -18582.14510466398, -9775.803658462008, -9116.427197030449, -187500.02235174447, -187500.02235174447, -0.216, 0.772, 0.546, 192.0, 249.0, 64.0, 24.0, 32.0, 17.0, 16.0, 0.0, 0.0, 0.0, 1.7297055640877788E9, 0.0, 2024-10-23 23:16:04.087
240.0, -42464.6711307372, -50172.73726138321, -21412.7029672507, -18359.76759907813, -9786.89012371184, -9112.76151093978, -187500.02235174447, -187500.02235174447, -0.216, 0.772, 0.546, 192.0, 0.0, 0.0, 0.0, 0.0, 0.0, 0.0, 0.0, 0.0, 0.0, 1.729705564091714E9, 0.0, 2024-10-23 23:16:04.091
241.0, -42629.85052226192, -50444.60152919311, -21484.20619776323, -18940.80119619384, -9801.329350629969, -9176.709851826412, -187500.02235174447, -187500.02235174447, -0.216, 0.772, 0.546, 192.0, 0.0, 0.0, 0.0, 0.0, 0.0, 0.0, 0.0, 0.0, 0.0, 1.7297055640957577E9, 0.0, 2024-10-23 23:16:04.095
242.0, -42717.87169192692, -50609.87032769565, -21485.92728208629, -19429.902068364867, -9798.624789550877, -9202.861392839122, -187500.02235174447, -187500.02235174447, -0.216, 0.772, 0.546, 192.0, 0.0, 0.0, 0.0, 0.0, 0.0, 0.0, 0.0, 0.0, 0.0, 1.729705564099714E9, 0.0, 2024-10-23 23:16:04.099
243.0, -42624.32964138146, -50478.79969820973, -21431.99252271563, -19243.488519607607, -9783.135030643349, -9169.065555222698, -187500.02235174447, -187500.02235174447, -0.216, 0.772, 0.546, 192.0, 0.0, 0.0, 0.0, 0.0, 0.0, 0.0, 0.0, 0.0, 0.0, 1.72970556410474E9, 0.0, 2024-10-23 23:16:04.104
244.0, -42465.520497026504, -50196.2960000391, -21387.981937883134, -18556.775874707208, -9751.88729189483, -9085.738251893312, -187500.02235174447, -187500.02235174447, -0.216, 0.772, 0.546, 192.0, 0.0, 0.0, 0.0, 0.0, 0.0, 0.0, 0.0, 0.0, 0.0, 1.7297055641076937E9, 0.0, 2024-10-23 23:16:04.107
245.0, -42459.41847079021, -50146.76453432615, -21419.90022896531, -18330.129185930396, -9760.31389955448, -9073.891827332, -187500.02235174447, -187500.02235174447, -0.216, 0.772, 0.546, 192.0, 0.0, 0.0, 0.0, 0.0, 0.0, 0.0, 0.0, 0.0, 0.0, 1.7297055641106977E9, 0.0, 2024-10-23 23:16:04.110
246.0, -42618.1605599118, -50417.712380613375, -21478.35004071594, -18902.02091956388, -9777.70355674071, -9134.129778639053, -187500.02235174447, -187500.02235174447, -0.216, 0.772, 0.546, 192.0, 0.0, 0.0, 0.0, 0.0, 0.0, 0.0, 0.0, 0.0, 0.0, 1.729705564115764E9, 0.0, 2024-10-23 23:16:04.115
247.0, -42711.479093012706, -50595.38639728861, -21476.24897673714, -19393.938111536278, -9777.211818362692, -9160.817761518689, -187500.02235174447, -187500.02235174447, -0.216, 0.772, 0.546, 192.0, 0.0, 0.0, 0.0, 0.0, 0.0, 0.0, 0.0, 0.0, 0.0, 1.7297055641197503E9, 0.0, 2024-10-23 23:16:04.119
248.0, -42623.323812880975, -50479.26908484329, -21420.369615598873, -19215.504135549563, -9748.534530226532, -9124.652638990003, -187500.02235174447, -187500.02235174447, -0.216, 0.772, 0.546, 192.0, 0.0, 0.0, 0.0, 0.0, 0.0, 0.0, 0.0, 0.0, 0.0, 1.729705564124188E9, 0.0, 2024-10-23 23:16:04.124
249.0, -42462.5700667584, -50204.499090254205, -21377.90130113379, -18541.308467544135, -9738.409189988279, -9066.403992939471, -187500.02235174447, -187500.02235174447, -0.216, 0.772, 0.546, 192.0, 0.0, 0.0, 0.0, 0.0, 0.0, 0.0, 0.0, 0.0, 0.0, 1.7297055641277575E9, 0.0, 2024-10-23 23:16:04.127
250.0, -42450.231903819076, -50157.44866817578, -21403.449345046207, -18323.6248282939, -9745.941727869716, -9071.164914508452, -187500.02235174447, -187500.02235174447, -0.21, 0.78, 0.556, 192.0, 249.0, 112.0, 24.0, 96.0, 17.0, 96.0, 0.0, 0.0, 0.0, 1.7297055641318445E9, 0.0, 2024-10-23 23:16:04.131
251.0, -42612.39380984233, -50429.31293598568, -21461.407418418818, -18907.631207422164, -9761.945576899718, -9142.355220598605, -187500.02235174447, -187500.02235174447, -0.21, 0.78, 0.556, 192.0, 0.0, 0.0, 0.0, 0.0, 0.0, 0.0, 0.0, 0.0, 0.0, 1.7297055641357691E9, 0.0, 2024-10-23 23:16:04.135
252.0, -42714.183654091794, -50607.63515325012, -21465.16251148731, -19418.793251370582, -9774.306091583501, -9188.846849065643, -187500.02235174447, -187500.02235174447, -0.21, 0.78, 0.556, 192.0, 0.0, 0.0, 0.0, 0.0, 0.0, 0.0, 0.0, 0.0, 0.0, 1.7297055641389477E9, 0.0, 2024-10-23 23:16:04.138
253.0, -42634.924368253276, -50497.10577691863, -21413.373519584362, -19259.62647910434, -9767.131181613348, -9177.603921604625, -187500.02235174447, -187500.02235174447, -0.21, 0.78, 0.556, 192.0, 0.0, 0.0, 0.0, 0.0, 0.0, 0.0, 0.0, 0.0, 0.0, 1.7297055641430333E9, 0.0, 2024-10-23 23:16:04.143
254.0, -42472.82951746339, -50215.27263108166, -21367.775960895535, -18592.985700724807, -9757.430524519745, -9119.981124398842, -187500.02235174447, -187500.02235174447, -0.21, 0.78, 0.556, 192.0, 0.0, 0.0, 0.0, 0.0, 0.0, 0.0, 0.0, 0.0, 0.0, 1.7297055641478639E9, 0.0, 2024-10-23 23:16:04.147
255.0, -42469.29794183945, -50167.77517411413, -21402.510571779083, -18374.028012040617, -9776.317748584479, -9126.887813435533, -187500.02235174447, -187500.02235174447, -0.21, 0.78, 0.556, 192.0, 0.0, 0.0, 0.0, 0.0, 0.0, 0.0, 0.0, 0.0, 0.0, 1.7297055641519856E9, 0.0, 2024-10-23 23:16:04.151
0.0, -42640.53465611156, -50446.92611061646, -21467.241223721652, -18961.856539470737, -9795.383786604856, -9199.776852104289, -187500.02235174447, -187500.02235174447, -0.21, 0.78, 0.556, 192.0, 0.0, 0.0, 0.0, 0.0, 0.0, 0.0, 0.0, 0.0, 0.0, 1.7297055641558752E9, 0.0, 2024-10-23 23:16:04.155
1.0, -42743.50914281716, -50632.73616227343, -21474.237319736163, -19471.923347940847, -9805.084443698459, -9244.234471825896, -187500.02235174447, -187500.02235174447, -0.21, 0.78, 0.556, 192.0, 0.0, 0.0, 0.0, 0.0, 0.0, 0.0, 0.0, 0.0, 0.0, 1.72970556415984E9, 0.0, 2024-10-23 23:16:04.159
2.0, -42651.82228706149, -50509.39923636905, -21416.18983938573, -19295.411621977284, -9791.829859236463, -9211.91384934352, -187500.02235174447, -187500.02235174447, -0.21, 0.78, 0.556, 192.0, 0.0, 0.0, 0.0, 0.0, 0.0, 0.0, 0.0, 0.0, 0.0, 1.7297055641638608E9, 0.0, 2024-10-23 23:16:04.163
3.0, -42488.252221137554, -50228.75073298821, -21372.8945103758, -18612.610532356564, -9782.799754476519, -9146.870272978578, -187500.02235174447, -187500.02235174447, -0.21, 0.78, 0.556, 192.0, 0.0, 0.0, 0.0, 0.0, 0.0, 0.0, 0.0, 0.0, 0.0, 1.729705564167829E9, 0.0, 2024-10-23 23:16:04.167
4.0, -42466.41456680472, -50167.93163632532, -21393.011080385575, -18370.54113990559, -9781.101021897915, -9132.47574954936, -187500.02235174447, -187500.02235174447, -0.214, 0.778, 0.556, 192.0, 249.0, 80.0, 24.0, 80.0, 17.0, 96.0, 0.0, 0.0, 0.0, 1.7297055641708446E9, 0.0, 2024-10-23 23:16:04.170
5.0, -42623.92730998126, -50437.87365411206, -21451.43854039175, -18941.672914227594, -9787.27010336758, -9183.951817029932, -187500.02235174447, -187500.02235174447, -0.214, 0.778, 0.556, 192.0, 0.0, 0.0, 0.0, 0.0, 0.0, 0.0, 0.0, 0.0, 0.0, 1.7297055641758363E9, 0.0, 2024-10-23 23:16:04.175
6.0, -42720.46449428374, -50617.89460395511, -21459.52987188457, -19438.84276614699, -9797.015463950094, -9221.256878525839, -187500.02235174447, -187500.02235174447, -0.214, 0.778, 0.556, 192.0, 0.0, 0.0, 0.0, 0.0, 0.0, 0.0, 0.0, 0.0, 0.0, 1.7297055641798196E9, 0.0, 2024-10-23 23:16:04.179
7.0, -42635.281996164565, -50504.124224677595, -21411.67478700576, -19268.567176886463, -9779.536399786044, -9191.506706655826, -187500.02235174447, -187500.02235174447, -0.214, 0.778, 0.556, 192.0, 0.0, 0.0, 0.0, 0.0, 0.0, 0.0, 0.0, 0.0, 0.0, 1.7297055641838543E9, 0.0, 2024-10-23 23:16:04.183
8.0, -42470.9743226736, -50228.28134635465, -21370.033487085522, -18588.314186133648, -9762.616129233376, -9123.736217467334, -187500.02235174447, -187500.02235174447, -0.214, 0.778, 0.556, 192.0, 0.0, 0.0, 0.0, 0.0, 0.0, 0.0, 0.0, 0.0, 0.0, 1.7297055641883905E9, 0.0, 2024-10-23 23:16:04.188
9.0, -42453.62936897628, -50172.11141253846, -21399.604844999893, -18353.330296675005, -9776.98830091814, -9117.477729019849, -187500.02235174447, -187500.02235174447, -0.214, 0.778, 0.556, 192.0, 0.0, 0.0, 0.0, 0.0, 0.0, 0.0, 0.0, 0.0, 0.0, 1.729705564190842E9, 0.0, 2024-10-23 23:16:04.190
10.0, -42613.15376915381, -50437.11369480058, -21459.0157817621, -18922.003379106925, -9790.041719680039, -9174.206456447419, -187500.02235174447, -187500.02235174447, -0.214, 0.778, 0.556, 192.0, 0.0, 0.0, 0.0, 0.0, 0.0, 0.0, 0.0, 0.0, 0.0, 1.729705564194812E9, 0.0, 2024-10-23 23:16:04.194
11.0, -42711.07676161251, -50614.02775216434, -21463.28496495306, -19415.753414124658, -9788.834725479452, -9198.525154414792, -187500.02235174447, -187500.02235174447, -0.214, 0.778, 0.556, 192.0, 0.0, 0.0, 0.0, 0.0, 0.0, 0.0, 0.0, 0.0, 0.0, 1.729705564199855E9, 0.0, 2024-10-23 23:16:04.199
12.0, -42632.130400196365, -50496.144651907045, -21419.073214420463, -19242.77326378504, -9778.687033496743, -9167.880912766566, -187500.02235174447, -187500.02235174447, -0.214, 0.778, 0.556, 192.0, 0.0, 0.0, 0.0, 0.0, 0.0, 0.0, 0.0, 0.0, 0.0, 1.7297055642040243E9, 0.0, 2024-10-23 23:16:04.204
13.0, -42470.147308128755, -50209.595287990014, -21373.207434798176, -18555.501825273255, -9756.089419852427, -9094.27661827524, -187500.02235174447, -187500.02235174447, -0.214, 0.778, 0.556, 192.0, 0.0, 0.0, 0.0, 0.0, 0.0, 0.0, 0.0, 0.0, 0.0, 1.7297055642078533E9, 0.0, 2024-10-23 23:16:04.207
14.0, -42457.630331233784, -50152.061897762054, -21397.57083625446, -18320.763805003622, -9761.699707710708, -9083.234856514318, -187500.02235174447, -187500.02235174447, -0.22, 0.776, 0.552, 192.0, 249.0, 32.0, 24.0, 64.0, 17.0, 64.0, 0.0, 0.0, 0.0, 1.729705564211847E9, 0.0, 2024-10-23 23:16:04.211
15.0, -42617.33354536695, -50418.78526434723, -21451.371485158383, -18891.49324792543, -9770.640405492832, -9139.8071217307, -187500.02235174447, -187500.02235174447, -0.22, 0.776, 0.552, 192.0, 0.0, 0.0, 0.0, 0.0, 0.0, 0.0, 0.0, 0.0, 0.0, 1.729705564215869E9, 0.0, 2024-10-23 23:16:04.215
16.0, -42718.609299493946, -50604.528260770836, -21453.29373518154, -19392.46289640223, -9776.787135218041, -9176.888665782055, -187500.02235174447, -187500.02235174447, -0.22, 0.776, 0.552, 192.0, 0.0, 0.0, 0.0, 0.0, 0.0, 0.0, 0.0, 0.0, 0.0, 1.729705564219066E9, 0.0, 2024-10-23 23:16:04.219
17.0, -42633.09152520794, -50488.50035530333, -21391.446458273706, -19219.818022229436, -9761.498542010611, -9150.111275924597, -187500.02235174447, -187500.02235174447, -0.22, 0.776, 0.552, 192.0, 0.0, 0.0, 0.0, 0.0, 0.0, 0.0, 0.0, 0.0, 0.0, 1.729705564223056E9, 0.0, 2024-10-23 23:16:04.223
18.0, -42470.30377033994, -50211.204613590795, -21337.668161114238, -18545.376485035, -9749.249786049102, -9095.438908986916, -187500.02235174447, -187500.02235174447, -0.22, 0.776, 0.552, 192.0, 0.0, 0.0, 0.0, 0.0, 0.0, 0.0, 0.0, 0.0, 0.0, 1.7297055642268896E9, 0.0, 2024-10-23 23:16:04.226
19.0, -42445.22511306109, -50150.810200072556, -21346.385341451805, -18311.48783105467, -9750.143855827315, -9091.594408940604, -187500.02235174447, -187500.02235174447, -0.22, 0.776, 0.552, 192.0, 0.0, 0.0, 0.0, 0.0, 0.0, 0.0, 0.0, 0.0, 0.0, 1.7297055642318783E9, 0.0, 2024-10-23 23:16:04.231
20.0, -42606.02356267256, -50425.11080802808, -21398.062574632477, -18892.387317703644, -9761.275024566057, -9163.544674342236, -187500.02235174447, -187500.02235174447, -0.22, 0.776, 0.552, 192.0, 0.0, 0.0, 0.0, 0.0, 0.0, 0.0, 0.0, 0.0, 0.0, 1.7297055642358744E9, 0.0, 2024-10-23 23:16:04.235
21.0, -42704.39359002037, -50605.31057182677, -21396.788525198524, -19398.833143571992, -9762.303204811002, -9210.505689442836, -187500.02235174447, -187500.02235174447, -0.22, 0.776, 0.552, 192.0, 0.0, 0.0, 0.0, 0.0, 0.0, 0.0, 0.0, 0.0, 0.0, 1.7297055642399347E9, 0.0, 2024-10-23 23:16:04.239
22.0, -42628.285900150055, -50497.217535640906, -21354.722542133637, -19242.594449829394, -9759.620995476365, -9201.028549793786, -187500.02235174447, -187500.02235174447, -0.22, 0.776, 0.552, 192.0, 0.0, 0.0, 0.0, 0.0, 0.0, 0.0, 0.0, 0.0, 0.0, 1.7297055642439363E9, 0.0, 2024-10-23 23:16:04.243
23.0, -42482.19489839017, -50228.99660217722, -21327.900448787266, -18581.988642452794, -9760.135085598837, -9151.698249780924, -187500.02235174447, -187500.02235174447, -0.22, 0.776, 0.552, 192.0, 0.0, 0.0, 0.0, 0.0, 0.0, 0.0, 0.0, 0.0, 0.0, 1.729705564247919E9, 0.0, 2024-10-23 23:16:04.247
24.0, -42474.17062213071, -50176.60411317398, -21363.50677770457, -18361.15340723436, -9772.875579938362, -9150.357145113605, -187500.02235174447, -187500.02235174447, -0.228, 0.772, 0.55, 192.0, 248.0, 224.0, 24.0, 32.0, 17.0, 48.0, 0.0, 0.0, 0.0, 1.7297055642510893E9, 0.0, 2024-10-23 23:16:04.251
25.0, -42642.34514741244, -50450.94942461842, -21431.277266893063, -18945.807986951826, -9792.880391225863, -9213.523174944303, -187500.02235174447, -187500.02235174447, -0.228, 0.772, 0.55, 192.0, 0.0, 0.0, 0.0, 0.0, 0.0, 0.0, 0.0, 0.0, 0.0, 1.729705564255929E9, 0.0, 2024-10-23 23:16:04.255
26.0, -42735.21664562424, -50624.33190635823, -21426.42693834626, -19445.391827272397, -9793.170963903782, -9246.268480571327, -187500.02235174447, -187500.02235174447, -0.228, 0.772, 0.55, 192.0, 0.0, 0.0, 0.0, 0.0, 0.0, 0.0, 0.0, 0.0, 0.0, 1.729705564259958E9, 0.0, 2024-10-23 23:16:04.259
27.0, -42647.62015910389, -50505.15240492253, -21368.357106251373, -19274.736258356126, -9788.544152801533, -9224.050846582753, -187500.02235174447, -187500.02235174447, -0.228, 0.772, 0.55, 192.0, 0.0, 0.0, 0.0, 0.0, 0.0, 0.0, 0.0, 0.0, 0.0, 1.7297055642639952E9, 0.0, 2024-10-23 23:16:04.263
28.0, -42485.99469494756, -50225.06269515309, -21316.098727714867, -18586.906026232962, -9761.36443154388, -9143.71867701038, -187500.02235174447, -187500.02235174447, -0.228, 0.772, 0.55, 192.0, 0.0, 0.0, 0.0, 0.0, 0.0, 0.0, 0.0, 0.0, 0.0, 1.7297055642679546E9, 0.0, 2024-10-23 23:16:04.267
29.0, -42460.916037668714, -50158.45449667627, -21325.12883247481, -18344.702523315256, -9756.625861719354, -9125.591412257125, -187500.02235174447, -187500.02235174447, -0.228, 0.772, 0.55, 192.0, 0.0, 0.0, 0.0, 0.0, 0.0, 0.0, 0.0, 0.0, 0.0, 1.7297055642720284E9, 0.0, 2024-10-23 23:16:04.272
30.0, -42623.033240203054, -50427.502444684804, -21380.717620935156, -18916.773070904383, -9777.4576875517, -9190.076195010686, -187500.02235174447, -187500.02235174447, -0.228, 0.772, 0.55, 192.0, 0.0, 0.0, 0.0, 0.0, 0.0, 0.0, 0.0, 0.0, 0.0, 1.7297055642759976E9, 0.0, 2024-10-23 23:16:04.275
31.0, -42721.73854371769, -50609.35623757318, -21384.226844814642, -19421.65427466086, -9784.677301010764, -9227.202442550952, -187500.02235174447, -187500.02235174447, -0.228, 0.772, 0.55, 192.0, 0.0, 0.0, 0.0, 0.0, 0.0, 0.0, 0.0, 0.0, 0.0, 1.729705564279961E9, 0.0, 2024-10-23 23:16:04.279
32.0, -42630.230501917664, -50485.16994537949, -21325.084128985898, -19247.400074887286, -9767.198236846714, -9190.970264788899, -187500.02235174447, -187500.02235174447, -0.228, 0.772, 0.55, 192.0, 0.0, 0.0, 0.0, 0.0, 0.0, 0.0, 0.0, 0.0, 0.0, 1.729705564282964E9, 0.0, 2024-10-23 23:16:04.282
33.0, -42468.35916857233, -50207.51657575567, -21282.34759358735, -18563.459046299344, -9758.145780342315, -9124.09384537862, -187500.02235174447, -187500.02235174447, -0.228, 0.772, 0.55, 192.0, 0.0, 0.0, 0.0, 0.0, 0.0, 0.0, 0.0, 0.0, 0.0, 1.7297055642880409E9, 0.0, 2024-10-23 23:16:04.288
34.0, -42442.744069426546, -50147.390383170896, -21298.01616645052, -18327.20110740675, -9758.369297786869, -9112.56034523968, -187500.02235174447, -187500.02235174447, -0.226, 0.77, 0.55, 192.0, 248.0, 240.0, 24.0, 16.0, 17.0, 48.0, 0.0, 0.0, 0.0, 1.7297055642919676E9, 0.0, 2024-10-23 23:16:04.291
35.0, -42599.966239925176, -50414.73959860082, -21349.760454864558, -18900.813925363294, -9773.903760183306, -9176.352223915128, -187500.02235174447, -187500.02235174447, -0.226, 0.77, 0.55, 192.0, 0.0, 0.0, 0.0, 0.0, 0.0, 0.0, 0.0, 0.0, 0.0, 1.7297055642960627E9, 0.0, 2024-10-23 23:16:04.296
36.0, -42699.655020195845, -50600.14731885759, -21345.491271673593, -19406.768012853627, -9779.759917230596, -9210.528041187292, -187500.02235174447, -187500.02235174447, -0.226, 0.77, 0.55, 192.0, 0.0, 0.0, 0.0, 0.0, 0.0, 0.0, 0.0, 0.0, 0.0, 1.729705564300007E9, 0.0, 2024-10-23 23:16:04.300
37.0, -42617.5570628115, -50485.527573290776, -21286.25914886703, -19237.967638727147, -9771.31095782649, -9180.464944894904, -187500.02235174447, -187500.02235174447, -0.226, 0.77, 0.55, 192.0, 0.0, 0.0, 0.0, 0.0, 0.0, 0.0, 0.0, 0.0, 0.0, 1.72970556430309E9, 0.0, 2024-10-23 23:16:04.303
38.0, -42461.16190685772, -50207.762444944674, -21234.023122074977, -18558.47460728581, -9755.620033218866, -9114.61670572957, -187500.02235174447, -187500.02235174447, -0.226, 0.77, 0.55, 192.0, 0.0, 0.0, 0.0, 0.0, 0.0, 0.0, 0.0, 0.0, 0.0, 1.7297055643073523E9, 0.0, 2024-10-23 23:16:04.307
39.0, -42442.1182205818, -50146.00457501466, -21242.58384020136, -18319.6238660364, -9756.983489630638, -9098.210525299373, -187500.02235174447, -187500.02235174447, -0.226, 0.77, 0.55, 192.0, 0.0, 0.0, 0.0, 0.0, 0.0, 0.0, 0.0, 0.0, 0.0, 1.729705564310985E9, 0.0, 2024-10-23 23:16:04.310
40.0, -42606.82822547296, -50416.46068292388, -21290.729497758093, -18892.230855492457, -9770.305129326001, -9155.967432971887, -187500.02235174447, -187500.02235174447, -0.226, 0.77, 0.55, 192.0, 0.0, 0.0, 0.0, 0.0, 0.0, 0.0, 0.0, 0.0, 0.0, 1.7297055643151376E9, 0.0, 2024-10-23 23:16:04.315
41.0, -42703.8794998979, -50591.92187689804, -21278.54779702995, -19391.211198712732, -9768.427582791755, -9182.253084451328, -187500.02235174447, -187500.02235174447, -0.226, 0.77, 0.55, 192.0, 0.0, 0.0, 0.0, 0.0, 0.0, 0.0, 0.0, 0.0, 0.0, 1.729705564320014E9, 0.0, 2024-10-23 23:16:04.320
42.0, -42625.80485651551, -50479.49260228784, -21220.701482379616, -19227.909353722258, -9754.25657680709, -9159.051973706719, -187500.02235174447, -187500.02235174447, -0.226, 0.77, 0.55, 192.0, 0.0, 0.0, 0.0, 0.0, 0.0, 0.0, 0.0, 0.0, 0.0, 1.7297055643240485E9, 0.0, 2024-10-23 23:16:04.324
43.0, -42467.08511913838, -50201.213383819275, -21172.958156223078, -18554.093665372573, -9742.231338290136, -9106.123042836552, -187500.02235174447, -187500.02235174447, -0.226, 0.77, 0.55, 192.0, 0.0, 0.0, 0.0, 0.0, 0.0, 0.0, 0.0, 0.0, 0.0, 1.7297055643280535E9, 0.0, 2024-10-23 23:16:04.328
44.0, -42451.46124976412, -50143.47882789122, -21198.305034435398, -18323.557773060533, -9751.21673956117, -9103.150260823997, -187500.02235174447, -187500.02235174447, -0.214, 0.776, 0.552, 192.0, 249.0, 80.0, 24.0, 64.0, 17.0, 64.0, 0.0, 0.0, 0.0, 1.7297055643310025E9, 0.0, 2024-10-23 23:16:04.331
45.0, -42619.546368068026, -50414.158453244985, -21266.72372421309, -18899.338710229244, -9762.571425744465, -9171.568950601692, -187500.02235174447, -187500.02235174447, -0.214, 0.776, 0.552, 192.0, 0.0, 0.0, 0.0, 0.0, 0.0, 0.0, 0.0, 0.0, 0.0, 1.7297055643351533E9, 0.0, 2024-10-23 23:16:04.335
46.0, -42727.4382385538, -50597.33099905623, -21293.791686748467, -19415.865172846934, -9776.585969517942, -9223.849680882655, -187500.02235174447, -187500.02235174447, -0.214, 0.776, 0.552, 192.0, 0.0, 0.0, 0.0, 0.0, 0.0, 0.0, 0.0, 0.0, 0.0, 1.7297055643391097E9, 0.0, 2024-10-23 23:16:04.339
47.0, -42654.43744116276, -50485.14759363504, -21273.853930694335, -19261.258156449578, -9778.284702096547, -9211.980904576887, -187500.02235174447, -187500.02235174447, -0.214, 0.776, 0.552, 192.0, 0.0, 0.0, 0.0, 0.0, 0.0, 0.0, 0.0, 0.0, 0.0, 1.7297055643430252E9, 0.0, 2024-10-23 23:16:04.343
48.0, -42498.31050614244, -50206.91307865537, -21260.82286367689, -18589.655290800965, -9768.338175813935, -9152.681726536957, -187500.02235174447, -187500.02235174447, -0.214, 0.776, 0.552, 192.0, 0.0, 0.0, 0.0, 0.0, 0.0, 0.0, 0.0, 0.0, 0.0, 1.7297055643480246E9, 0.0, 2024-10-23 23:16:04.348
49.0, -42476.07052040941, -50143.25531044666, -21305.03461420949, -18347.697657072265, -9770.863922937384, -9140.634136275547, -187500.02235174447, -187500.02235174447, -0.214, 0.776, 0.552, 192.0, 0.0, 0.0, 0.0, 0.0, 0.0, 0.0, 0.0, 0.0, 0.0, 1.7297055643520412E9, 0.0, 2024-10-23 23:16:04.352
50.0, -42641.138153211854, -50418.40528469149, -21388.27251056105, -18921.489288984452, -9791.338120858445, -9205.25302949584, -187500.02235174447, -187500.02235174447, -0.214, 0.776, 0.552, 192.0, 0.0, 0.0, 0.0, 0.0, 0.0, 0.0, 0.0, 0.0, 0.0, 1.7297055643561072E9, 0.0, 2024-10-23 23:16:04.356
51.0, -42735.01547992414, -50597.71097871196, -21405.70687123619, -19423.017731072632, -9792.6121702924, -9234.712628687934, -187500.02235174447, -187500.02235174447, -0.214, 0.776, 0.552, 192.0, 0.0, 0.0, 0.0, 0.0, 0.0, 0.0, 0.0, 0.0, 0.0, 1.7297055643591063E9, 0.0, 2024-10-23 23:16:04.359
52.0, -42650.97292077219, -50483.80648896772, -21372.42512374224, -19252.831548789927, -9784.163210888293, -9202.704930627935, -187500.02235174447, -187500.02235174447, -0.214, 0.776, 0.552, 192.0, 0.0, 0.0, 0.0, 0.0, 0.0, 0.0, 0.0, 0.0, 0.0, 1.7297055643630865E9, 0.0, 2024-10-23 23:16:04.363
53.0, -42495.74005553008, -50211.87516592445, -21345.670085629237, -18576.177188894413, -9764.605434489898, -9133.727447238856, -187500.02235174447, -187500.02235174447, -0.214, 0.776, 0.552, 192.0, 0.0, 0.0, 0.0, 0.0, 0.0, 0.0, 0.0, 0.0, 0.0, 1.7297055643670988E9, 0.0, 2024-10-23 23:16:04.367
54.0, -42475.39996807575, -50153.939444296295, -21378.147170322798, -18333.81722376552, -9764.381917045346, -9125.971391912864, -187500.02235174447, -187500.02235174447, -0.212, 0.772, 0.548, 192.0, 249.0, 96.0, 24.0, 32.0, 17.0, 32.0, 0.0, 0.0, 0.0, 1.729705564371106E9, 0.0, 2024-10-23 23:16:04.371
55.0, -42632.398621129825, -50425.200215005905, -21445.917659511288, -18899.45046895152, -9774.797829961519, -9185.047052508242, -187500.02235174447, -187500.02235174447, -0.212, 0.772, 0.548, 192.0, 0.0, 0.0, 0.0, 0.0, 0.0, 0.0, 0.0, 0.0, 0.0, 1.7297055643760996E9, 0.0, 2024-10-23 23:16:04.376
56.0, -42722.4314477958, -50601.53312701382, -21454.85835729341, -19394.139277236376, -9772.339138071435, -9213.187898777473, -187500.02235174447, -187500.02235174447, -0.212, 0.772, 0.548, 192.0, 0.0, 0.0, 0.0, 0.0, 0.0, 0.0, 0.0, 0.0, 0.0, 1.729705564380078E9, 0.0, 2024-10-23 23:16:04.380
57.0, -42632.95741474121, -50484.90172444603, -21412.65826376179, -19223.327246108922, -9759.419829776267, -9184.354148430128, -187500.02235174447, -187500.02235174447, -0.212, 0.772, 0.548, 192.0, 0.0, 0.0, 0.0, 0.0, 0.0, 0.0, 0.0, 0.0, 0.0, 1.7297055643841052E9, 0.0, 2024-10-23 23:16:04.384
58.0, -42467.286284838476, -50204.901421654395, -21376.403734255284, -18542.314296044624, -9751.93199538374, -9119.75760695429, -187500.02235174447, -187500.02235174447, -0.212, 0.772, 0.548, 192.0, 0.0, 0.0, 0.0, 0.0, 0.0, 0.0, 0.0, 0.0, 0.0, 1.7297055643871033E9, 0.0, 2024-10-23 23:16:04.387
59.0, -42452.26591256451, -50156.86752281994, -21409.081984648943, -18310.86198220992, -9757.922262897762, -9111.018074872265, -187500.02235174447, -187500.02235174447, -0.212, 0.772, 0.548, 192.0, 0.0, 0.0, 0.0, 0.0, 0.0, 0.0, 0.0, 0.0, 0.0, 1.7297055643911517E9, 0.0, 2024-10-23 23:16:04.391
60.0, -42606.51530105058, -50420.7522178593, -21464.603717875925, -18876.02584076236, -9755.776495430053, -9161.95770048591, -187500.02235174447, -187500.02235174447, -0.212, 0.772, 0.548, 192.0, 0.0, 0.0, 0.0, 0.0, 0.0, 0.0, 0.0, 0.0, 0.0, 1.7297055643951707E9, 0.0, 2024-10-23 23:16:04.395
61.0, -42709.869767411925, -50599.85674617967, -21476.941880815255, -19378.60481483994, -9766.348870557413, -9203.44253819496, -187500.02235174447, -187500.02235174447, -0.212, 0.772, 0.548, 192.0, 0.0, 0.0, 0.0, 0.0, 0.0, 0.0, 0.0, 0.0, 0.0, 1.7297055643992016E9, 0.0, 2024-10-23 23:16:04.399
62.0, -42625.15665592631, -50483.225343611884, -21426.29282787953, -19212.0843186479, -9754.12246634036, -9174.877008781077, -187500.02235174447, -187500.02235174447, -0.212, 0.772, 0.548, 192.0, 0.0, 0.0, 0.0, 0.0, 0.0, 0.0, 0.0, 0.0, 0.0, 1.7297055644040973E9, 0.0, 2024-10-23 23:16:04.404
63.0, -42453.428203276184, -50197.011255861675, -21368.960603351665, -18530.646685438955, -9731.770721885052, -9095.863592131567, -187500.02235174447, -187500.02235174447, -0.212, 0.772, 0.548, 192.0, 0.0, 0.0, 0.0, 0.0, 0.0, 0.0, 0.0, 0.0, 0.0, 1.7297055644082394E9, 0.0, 2024-10-23 23:16:04.408
64.0, -42428.93069135317, -50136.23686268769, -21383.89156864781, -18291.304205811528, -9730.362561984368, -9079.74798437929, -187500.02235174447, -187500.02235174447, -0.22, 0.77, 0.548, 192.0, 249.0, 32.0, 24.0, 16.0, 17.0, 32.0, 0.0, 0.0, 0.0, 1.729705564412211E9, 0.0, 2024-10-23 23:16:04.412
65.0, -42590.48910027613, -50408.70462759789, -21439.48035710816, -18866.079314479746, -9739.817349888963, -9140.790598486734, -187500.02235174447, -187500.02235174447, -0.22, 0.77, 0.548, 192.0, 0.0, 0.0, 0.0, 0.0, 0.0, 0.0, 0.0, 0.0, 0.0, 1.7297055644151633E9, 0.0, 2024-10-23 23:16:04.415
66.0, -42694.31295327103, -50593.82177517674, -21440.776758286567, -19376.59315783896, -9744.712381924675, -9179.816744305701, -187500.02235174447, -187500.02235174447, -0.22, 0.77, 0.548, 192.0, 0.0, 0.0, 0.0, 0.0, 0.0, 0.0, 0.0, 0.0, 0.0, 1.7297055644191515E9, 0.0, 2024-10-23 23:16:04.419
67.0, -42615.61246104389, -50479.872581943586, -21383.600995969893, -19217.694606506182, -9728.619125916854, -9158.224959161873, -187500.02235174447, -187500.02235174447, -0.22, 0.77, 0.548, 192.0, 0.0, 0.0, 0.0, 0.0, 0.0, 0.0, 0.0, 0.0, 0.0, 1.7297055644231746E9, 0.0, 2024-10-23 23:16:04.423
68.0, -42455.08223236588, -50199.112319840475, -21335.23182096861, -18546.494072257767, -9716.862108333364, -9101.496231734303, -187500.02235174447, -187500.02235174447, -0.22, 0.77, 0.548, 192.0, 0.0, 0.0, 0.0, 0.0, 0.0, 0.0, 0.0, 0.0, 0.0, 1.7297055644273372E9, 0.0, 2024-10-23 23:16:04.427
69.0, -42447.39323227325, -50142.607109857454, -21365.361972494364, -18318.729796258187, -9737.135140554326, -9104.737234680324, -187500.02235174447, -187500.02235174447, -0.22, 0.77, 0.548, 192.0, 0.0, 0.0, 0.0, 0.0, 0.0, 0.0, 0.0, 0.0, 0.0, 1.72970556443218E9, 0.0, 2024-10-23 23:16:04.432
70.0, -42619.36755411238, -50414.62783987854, -21431.165508170787, -18900.277483496367, -9761.297376310513, -9175.14522971454, -187500.02235174447, -187500.02235174447, -0.22, 0.77, 0.548, 192.0, 0.0, 0.0, 0.0, 0.0, 0.0, 0.0, 0.0, 0.0, 0.0, 1.729705564436278E9, 0.0, 2024-10-23 23:16:04.436
71.0, -42722.27498558462, -50592.30185655378, -21439.212136174698, -19409.874905332912, -9773.948463672217, -9220.072236069707, -187500.02235174447, -187500.02235174447, -0.22, 0.77, 0.548, 192.0, 0.0, 0.0, 0.0, 0.0, 0.0, 0.0, 0.0, 0.0, 0.0, 1.7297055644401927E9, 0.0, 2024-10-23 23:16:04.440
72.0, -42644.46856313569, -50479.33614007666, -21396.18502809823, -19250.261098177565, -9761.78911468853, -9201.363825960616, -187500.02235174447, -187500.02235174447, -0.22, 0.77, 0.548, 192.0, 0.0, 0.0, 0.0, 0.0, 0.0, 0.0, 0.0, 0.0, 0.0, 1.729705564443241E9, 0.0, 2024-10-23 23:16:04.443
73.0, -42481.814918734424, -50194.150232571395, -21354.431969455716, -18570.477494058312, -9750.188559316226, -9140.276508364263, -187500.02235174447, -187500.02235174447, -0.22, 0.77, 0.548, 192.0, 0.0, 0.0, 0.0, 0.0, 0.0, 0.0, 0.0, 0.0, 0.0, 1.7297055644472091E9, 0.0, 2024-10-23 23:16:04.447
74.0, -42469.40970056173, -50137.98029875521, -21388.630138472337, -18336.231212166695, -9769.545170014522, -9144.255118877307, -187500.02235174447, -187500.02235174447, -0.22, 0.77, 0.552, 192.0, 249.0, 32.0, 24.0, 16.0, 17.0, 64.0, 0.0, 0.0, 0.0, 1.72970556445122E9, 0.0, 2024-10-23 23:16:04.451
75.0, -42629.82817051747, -50406.29063919671, -21452.57847935897, -18912.235666779958, -9789.773498746574, -9209.76808187581, -187500.02235174447, -187500.02235174447, -0.22, 0.77, 0.552, 192.0, 0.0, 0.0, 0.0, 0.0, 0.0, 0.0, 0.0, 0.0, 0.0, 1.7297055644551709E9, 0.0, 2024-10-23 23:16:04.455
76.0, -42727.81821820953, -50585.79749891729, -21458.188767217252, -19410.433698944296, -9777.122411384871, -9232.633916453591, -187500.02235174447, -187500.02235174447, -0.22, 0.77, 0.552, 192.0, 0.0, 0.0, 0.0, 0.0, 0.0, 0.0, 0.0, 0.0, 0.0, 1.7297055644591975E9, 0.0, 2024-10-23 23:16:04.459
77.0, -42639.43942063325, -50469.54607600523, -21407.539714281527, -19239.48755735011, -9755.575329729954, -9198.212229992418, -187500.02235174447, -187500.02235174447, -0.22, 0.77, 0.552, 192.0, 0.0, 0.0, 0.0, 0.0, 0.0, 0.0, 0.0, 0.0, 0.0, 1.7297055644642377E9, 0.0, 2024-10-23 23:16:04.464
78.0, -42472.71775874111, -50190.21632554726, -21367.91007136227, -18554.875976428506, -9744.913547624774, -9129.882947192544, -187500.02235174447, -187500.02235174447, -0.22, 0.77, 0.552, 192.0, 0.0, 0.0, 0.0, 0.0, 0.0, 0.0, 0.0, 0.0, 0.0, 1.7297055644684505E9, 0.0, 2024-10-23 23:16:04.468
79.0, -42455.77513644399, -50136.34862140997, -21400.342452566918, -18321.881392226387, -9759.59864373191, -9122.216298844374, -187500.02235174447, -187500.02235174447, -0.22, 0.77, 0.552, 192.0, 0.0, 0.0, 0.0, 0.0, 0.0, 0.0, 0.0, 0.0, 0.0, 1.7297055644712465E9, 0.0, 2024-10-23 23:16:04.471
80.0, -42607.49877780661, -50398.154604214986, -21455.23833694915, -18885.92766355606, -9764.247806578614, -9181.023738506286, -187500.02235174447, -187500.02235174447, -0.22, 0.77, 0.552, 192.0, 0.0, 0.0, 0.0, 0.0, 0.0, 0.0, 0.0, 0.0, 0.0, 1.7297055644752152E9, 0.0, 2024-10-23 23:16:04.475
81.0, -42713.89308141388, -50587.60799021817, -21471.778627846077, -19392.64171035787, -9773.613187505387, -9225.257840783339, -187500.02235174447, -187500.02235174447, -0.22, 0.77, 0.552, 192.0, 0.0, 0.0, 0.0, 0.0, 0.0, 0.0, 0.0, 0.0, 0.0, 1.72970556447923E9, 0.0, 2024-10-23 23:16:04.479
82.0, -42629.06821120599, -50470.50720101681, -21424.728205767657, -19226.94822871068, -9758.25753906459, -9196.379386947083, -187500.02235174447, -187500.02235174447, -0.22, 0.77, 0.552, 192.0, 0.0, 0.0, 0.0, 0.0, 0.0, 0.0, 0.0, 0.0, 0.0, 1.72970556448332E9, 0.0, 2024-10-23 23:16:04.483
83.0, -42468.73914822807, -50190.97628485874, -21388.13840009432, -18542.269592555713, -9747.50634998159, -9131.961659426888, -187500.02235174447, -187500.02235174447, -0.22, 0.77, 0.552, 192.0, 0.0, 0.0, 0.0, 0.0, 0.0, 0.0, 0.0, 0.0, 0.0, 1.7297055644872613E9, 0.0, 2024-10-23 23:16:04.487
84.0, -42455.86454342181, -50137.60031909947, -21425.354054612406, -18308.068014153007, -9764.672489723265, -9128.608897758591, -187500.02235174447, -187500.02235174447, -0.216, 0.768, 0.558, 192.0, 249.0, 64.0, 24.0, 0.0, 17.0, 112.0, 0.0, 0.0, 0.0, 1.7297055644922428E9, 0.0, 2024-10-23 23:16:04.492
85.0, -42612.058533675496, -50402.826118806144, -21482.865093095912, -18872.874244794162, -9765.901835668306, -9182.074270495687, -187500.02235174447, -187500.02235174447, -0.216, 0.768, 0.558, 192.0, 0.0, 0.0, 0.0, 0.0, 0.0, 0.0, 0.0, 0.0, 0.0, 1.7297055644962437E9, 0.0, 2024-10-23 23:16:04.496
86.0, -42700.75025567416, -50575.44864123448, -21479.44527619425, -19366.333707133974, -9755.93295764124, -9204.470718439903, -187500.02235174447, -187500.02235174447, -0.216, 0.768, 0.558, 192.0, 0.0, 0.0, 0.0, 0.0, 0.0, 0.0, 0.0, 0.0, 0.0, 1.7297055644992874E9, 0.0, 2024-10-23 23:16:04.499
87.0, -42622.3626878694, -50468.540247504745, -21439.10037745242, -19203.858876688348, -9741.449027234201, -9175.14522971454, -187500.02235174447, -187500.02235174447, -0.216, 0.768, 0.558, 192.0, 0.0, 0.0, 0.0, 0.0, 0.0, 0.0, 0.0, 0.0, 0.0, 1.72970556450384E9, 0.0, 2024-10-23 23:16:04.503
88.0, -42464.38055805928, -50198.620581462455, -21408.254970104095, -18536.7263599308, -9732.68714340772, -9117.298915064206, -187500.02235174447, -187500.02235174447, -0.216, 0.768, 0.558, 192.0, 0.0, 0.0, 0.0, 0.0, 0.0, 0.0, 0.0, 0.0, 0.0, 1.7297055645072768E9, 0.0, 2024-10-23 23:16:04.507
89.0, -42438.07255483539, -50134.649888831365, -21434.182993672253, -18296.020423891598, -9734.072951563949, -9102.099728834597, -187500.02235174447, -187500.02235174447, -0.216, 0.768, 0.558, 192.0, 0.0, 0.0, 0.0, 0.0, 0.0, 0.0, 0.0, 0.0, 0.0, 1.7297055645112898E9, 0.0, 2024-10-23 23:16:04.511
90.0, -42598.1557486243, -50403.519022884255, -21497.39372699186, -18860.290212665823, -9740.197329544704, -9157.196778916928, -187500.02235174447, -187500.02235174447, -0.216, 0.768, 0.558, 192.0, 0.0, 0.0, 0.0, 0.0, 0.0, 0.0, 0.0, 0.0, 0.0, 1.7297055645153375E9, 0.0, 2024-10-23 23:16:04.515
91.0, -42705.62293596542, -50591.92187689804, -21513.7775556776, -19370.088800202466, -9752.155512828293, -9202.302599227738, -187500.02235174447, -187500.02235174447, -0.216, 0.768, 0.558, 192.0, 0.0, 0.0, 0.0, 0.0, 0.0, 0.0, 0.0, 0.0, 0.0, 1.729705564520333E9, 0.0, 2024-10-23 23:16:04.520
92.0, -42626.00602221561, -50480.632541255065, -21470.616337134405, -19209.22329535762, -9746.992259859117, -9184.465907152404, -187500.02235174447, -187500.02235174447, -0.216, 0.768, 0.558, 192.0, 0.0, 0.0, 0.0, 0.0, 0.0, 0.0, 0.0, 0.0, 0.0, 1.72970556452432E9, 0.0, 2024-10-23 23:16:04.524
93.0, -42467.01806390501, -50204.074407109554, -21437.491051851637, -18535.966400619316, -9745.964079614172, -9132.073418149164, -187500.02235174447, -187500.02235174447, -0.216, 0.768, 0.558, 192.0, 0.0, 0.0, 0.0, 0.0, 0.0, 0.0, 0.0, 0.0, 0.0, 1.729705564527558E9, 0.0, 2024-10-23 23:16:04.527
94.0, -42444.30869153842, -50141.48952263469, -21467.48709291066, -18301.541304772058, -9758.682222209241, -9124.943211667922, -187500.02235174447, -187500.02235174447, -0.222, 0.768, 0.556, 192.0, 249.0, 16.0, 24.0, 0.0, 17.0, 96.0, 0.0, 0.0, 0.0, 1.7297055645313332E9, 0.0, 2024-10-23 23:16:04.531
95.0, -42603.0060771711, -50408.25759270878, -21530.02727389661, -18874.416515161578, -9770.550998515011, -9191.260837466818, -187500.02235174447, -187500.02235174447, -0.222, 0.768, 0.556, 192.0, 0.0, 0.0, 0.0, 0.0, 0.0, 0.0, 0.0, 0.0, 0.0, 1.7297055645352883E9, 0.0, 2024-10-23 23:16:04.535
96.0, -42711.52379650161, -50596.10165311118, -21546.612268282446, -19386.293814932564, -9782.732699243154, -9234.01972460982, -187500.02235174447, -187500.02235174447, -0.222, 0.768, 0.556, 192.0, 0.0, 0.0, 0.0, 0.0, 0.0, 0.0, 0.0, 0.0, 0.0, 1.7297055645413392E9, 0.0, 2024-10-23 23:16:04.541
97.0, -42635.08083046447, -50487.695692502944, -21503.026366594597, -19232.71497878015, -9776.809486962497, -9214.193727277961, -187500.02235174447, -187500.02235174447, -0.222, 0.768, 0.556, 192.0, 0.0, 0.0, 0.0, 0.0, 0.0, 0.0, 0.0, 0.0, 0.0, 1.7297055645443661E9, 0.0, 2024-10-23 23:16:04.544
98.0, -42478.50686055504, -50211.94222115782, -21461.072142251985, -18563.4813980438, -9764.717193212175, -9156.43681960545, -187500.02235174447, -187500.02235174447, -0.222, 0.768, 0.556, 192.0, 0.0, 0.0, 0.0, 0.0, 0.0, 0.0, 0.0, 0.0, 0.0, 1.7297055645473928E9, 0.0, 2024-10-23 23:16:04.547
99.0, -42460.290188823965, -50149.31263319405, -21479.15470351633, -18324.00480794964, -9766.058297879494, -9148.971336957376, -187500.02235174447, -187500.02235174447, -0.222, 0.768, 0.556, 192.0, 0.0, 0.0, 0.0, 0.0, 0.0, 0.0, 0.0, 0.0, 0.0, 1.7297055645524647E9, 0.0, 2024-10-23 23:16:04.552
100.0, -42622.139170424845, -50420.21577599237, -21533.581201265002, -18893.773125859872, -9779.26817885258, -9212.24912551035, -187500.02235174447, -187500.02235174447, -0.222, 0.768, 0.556, 192.0, 0.0, 0.0, 0.0, 0.0, 0.0, 0.0, 0.0, 0.0, 0.0, 1.7297055645561044E9, 0.0, 2024-10-23 23:16:04.556
101.0, -42715.524758759115, -50597.28629556731, -21527.054491884053, -19398.631977871893, -9779.849324208419, -9243.58627123669, -187500.02235174447, -187500.02235174447, -0.222, 0.768, 0.556, 192.0, 0.0, 0.0, 0.0, 0.0, 0.0, 0.0, 0.0, 0.0, 0.0, 1.7297055645593698E9, 0.0, 2024-10-23 23:16:04.559
102.0, -42631.03516471806, -50480.94546567744, -21468.939956300255, -19233.89962123628, -9762.861998422384, -9211.422110965505, -187500.02235174447, -187500.02235174447, -0.222, 0.768, 0.556, 192.0, 0.0, 0.0, 0.0, 0.0, 0.0, 0.0, 0.0, 0.0, 0.0, 1.7297055645634022E9, 0.0, 2024-10-23 23:16:04.563
103.0, -42469.81203196193, -50203.06857860906, -21422.71654876668, -18551.813787438132, -9750.5014837386, -9147.116142167586, -187500.02235174447, -187500.02235174447, -0.222, 0.768, 0.556, 192.0, 0.0, 0.0, 0.0, 0.0, 0.0, 0.0, 0.0, 0.0, 0.0, 1.7297055645674071E9, 0.0, 2024-10-23 23:16:04.567
104.0, -42444.979243872076, -50136.6838975768, -21441.939048998243, -18306.682205996778, -9758.771629187064, -9137.437836818437, -187500.02235174447, -187500.02235174447, -0.21, 0.768, 0.55, 192.0, 249.0, 112.0, 24.0, 0.0, 17.0, 48.0, 0.0, 0.0, 0.0, 1.7297055645735765E9, 0.0, 2024-10-23 23:16:04.573
105.0, -42603.52016729357, -50401.082682738626, -21498.935997359276, -18868.359192414187, -9775.177809617258, -9198.212229992418, -187500.02235174447, -187500.02235174447, -0.21, 0.768, 0.55, 192.0, 0.0, 0.0, 0.0, 0.0, 0.0, 0.0, 0.0, 0.0, 0.0, 1.7297055645763893E9, 0.0, 2024-10-23 23:16:04.576
106.0, -42706.517005743626, -50586.4904029954, -21503.92043637281, -19376.21317818322, -9775.960120673195, -9236.791340922278, -187500.02235174447, -187500.02235174447, -0.21, 0.768, 0.55, 192.0, 0.0, 0.0, 0.0, 0.0, 0.0, 0.0, 0.0, 0.0, 0.0, 1.7297055645804005E9, 0.0, 2024-10-23 23:16:04.580
107.0, -42623.2120541587, -50472.80943069571, -21452.310258425507, -19212.888981448294, -9757.4528762642, -9207.331741730182, -187500.02235174447, -187500.02235174447, -0.21, 0.768, 0.55, 192.0, 0.0, 0.0, 0.0, 0.0, 0.0, 0.0, 0.0, 0.0, 0.0, 1.7297055645844052E9, 0.0, 2024-10-23 23:16:04.584
108.0, -42457.85384867834, -50188.003502846186, -21406.1539061253, -18529.596153449555, -9740.912585367274, -9141.997592687321, -187500.02235174447, -187500.02235174447, -0.21, 0.768, 0.55, 192.0, 0.0, 0.0, 0.0, 0.0, 0.0, 0.0, 0.0, 0.0, 0.0, 1.7297055645874488E9, 0.0, 2024-10-23 23:16:04.587
109.0, -42438.765458913505, -50128.52551085061, -21430.293790137028, -18287.99614763214, -9744.444160991212, -9134.465054805882, -187500.02235174447, -187500.02235174447, -0.21, 0.768, 0.55, 192.0, 0.0, 0.0, 0.0, 0.0, 0.0, 0.0, 0.0, 0.0, 0.0, 1.7297055645913763E9, 0.0, 2024-10-23 23:16:04.591
110.0, -42589.32680956445, -50390.040920977706, -21480.406401205826, -18849.427264860544, -9749.182730815737, -9180.062613494709, -187500.02235174447, -187500.02235174447, -0.21, 0.768, 0.55, 192.0, 0.0, 0.0, 0.0, 0.0, 0.0, 0.0, 0.0, 0.0, 0.0, 1.7297055645954208E9, 0.0, 2024-10-23 23:16:04.595
111.0, -42685.86399386692, -50570.84418187669, -21481.188712261763, -19351.760369749114, -9749.518006982566, -9212.360884232627, -187500.02235174447, -187500.02235174447, -0.21, 0.768, 0.55, 192.0, 0.0, 0.0, 0.0, 0.0, 0.0, 0.0, 0.0, 0.0, 0.0, 1.7297055645994325E9, 0.0, 2024-10-23 23:16:04.599
112.0, -42613.310231364994, -50467.60147423762, -21437.312237895996, -19197.734498707592, -9744.846492391407, -9194.971227046399, -187500.02235174447, -187500.02235174447, -0.21, 0.768, 0.55, 192.0, 0.0, 0.0, 0.0, 0.0, 0.0, 0.0, 0.0, 0.0, 0.0, 1.7297055646034636E9, 0.0, 2024-10-23 23:16:04.603
113.0, -42453.02587187599, -50188.58464820202, -21389.300690805994, -18521.817746379107, -9730.697838151198, -9126.641944246525, -187500.02235174447, -187500.02235174447, -0.21, 0.768, 0.55, 192.0, 0.0, 0.0, 0.0, 0.0, 0.0, 0.0, 0.0, 0.0, 0.0, 1.7297055646084335E9, 0.0, 2024-10-23 23:16:04.608
114.0, -42441.291206036956, -50136.34862140997, -21412.85942946189, -18287.37029878739, -9744.667678435764, -9124.518528523271, -187500.02235174447, -187500.02235174447, -0.212, 0.77, 0.552, 192.0, 249.0, 96.0, 24.0, 16.0, 17.0, 64.0, 0.0, 0.0, 0.0, 1.7297055646114452E9, 0.0, 2024-10-23 23:16:04.611
115.0, -42602.402580070804, -50404.77072057375, -21463.396723675338, -18861.63131733314, -9753.83189366244, -9188.221000220896, -187500.02235174447, -187500.02235174447, -0.212, 0.77, 0.552, 192.0, 0.0, 0.0, 0.0, 0.0, 0.0, 0.0, 0.0, 0.0, 0.0, 1.7297055646144707E9, 0.0, 2024-10-23 23:16:04.614
116.0, -42697.68806668378, -50579.96369361445, -21453.33843867045, -19371.318146147507, -9747.908681381785, -9220.116939558618, -187500.02235174447, -187500.02235174447, -0.212, 0.77, 0.552, 192.0, 0.0, 0.0, 0.0, 0.0, 0.0, 0.0, 0.0, 0.0, 0.0, 1.7297055646194758E9, 0.0, 2024-10-23 23:16:04.619
117.0, -42624.55315882601, -50475.3128260747, -21404.499877035603, -19222.61199028635, -9747.640460448321, -9207.152927774541, -187500.02235174447, -187500.02235174447, -0.212, 0.77, 0.552, 192.0, 0.0, 0.0, 0.0, 0.0, 0.0, 0.0, 0.0, 0.0, 0.0, 1.7297055646234672E9, 0.0, 2024-10-23 23:16:04.623
118.0, -42470.1249563843, -50202.50978499768, -21365.317269005453, -18556.5300055182, -9748.422771504256, -9158.023793461776, -187500.02235174447, -187500.02235174447, -0.212, 0.77, 0.552, 192.0, 0.0, 0.0, 0.0, 0.0, 0.0, 0.0, 0.0, 0.0, 0.0, 1.7297055646274626E9, 0.0, 2024-10-23 23:16:04.627
119.0, -42453.02587187599, -50144.01526975814, -21389.367746039363, -18325.77059576161, -9755.798847174508, -9155.654508549513, -187500.02235174447, -187500.02235174447, -0.212, 0.77, 0.552, 192.0, 0.0, 0.0, 0.0, 0.0, 0.0, 0.0, 0.0, 0.0, 0.0, 1.729705564632397E9, 0.0, 2024-10-23 23:16:04.632
120.0, -42619.07698143447, -50414.06904626716, -21451.684409580757, -18903.116155042193, -9777.524742785066, -9226.7777594063, -187500.02235174447, -187500.02235174447, -0.212, 0.77, 0.552, 192.0, 0.0, 0.0, 0.0, 0.0, 0.0, 0.0, 0.0, 0.0, 0.0, 1.7297055646356597E9, 0.0, 2024-10-23 23:16:04.635
121.0, -42715.54711050357, -50593.01711237635, -21450.209194446707, -19414.568771668528, -9776.98830091814, -9261.378259823116, -187500.02235174447, -187500.02235174447, -0.212, 0.77, 0.552, 192.0, 0.0, 0.0, 0.0, 0.0, 0.0, 0.0, 0.0, 0.0, 0.0, 1.7297055646394644E9, 0.0, 2024-10-23 23:16:04.639
122.0, -42639.77469680008, -50484.78996572375, -21406.109202636388, -19265.661450107273, -9770.41688804828, -9241.038172368786, -187500.02235174447, -187500.02235174447, -0.212, 0.77, 0.552, 192.0, 0.0, 0.0, 0.0, 0.0, 0.0, 0.0, 0.0, 0.0, 0.0, 1.729705564643463E9, 0.0, 2024-10-23 23:16:04.643
123.0, -42477.85865996584, -50200.76634893016, -21365.496082961094, -18590.504657090267, -9761.543245499523, -9180.084965239164, -187500.02235174447, -187500.02235174447, -0.212, 0.77, 0.552, 192.0, 0.0, 0.0, 0.0, 0.0, 0.0, 0.0, 0.0, 0.0, 0.0, 1.729705564647488E9, 0.0, 2024-10-23 23:16:04.647
124.0, -42459.41847079021, -50135.54395860958, -21390.641795473315, -18345.39542739337, -9758.97279488716, -9160.57189232968, -187500.02235174447, -187500.02235174447, -0.212, 0.77, 0.552, 192.0, 0.0, 0.0, 0.0, 0.0, 0.0, 0.0, 0.0, 0.0, 0.0, 1.729705564651488E9, 0.0, 2024-10-23 23:16:04.651
125.0, -42626.944795482734, -50409.5986973761, -21459.686334095757, -18916.102518570726, -9774.529609028055, -9224.341419260672, -187500.02235174447, -187500.02235174447, -0.21, 0.774, 0.552, 192.0, 249.0, 112.0, 24.0, 48.0, 17.0, 64.0, 0.0, 0.0, 0.0, 1.729705564655516E9, 0.0, 2024-10-23 23:16:04.655
126.0, -42729.1369711324, -50594.805251932776, -21472.11390401291, -19428.784481142102, -9779.715213741687, -9261.422963312027, -187500.02235174447, -187500.02235174447, -0.21, 0.774, 0.552, 192.0, 0.0, 0.0, 0.0, 0.0, 0.0, 0.0, 0.0, 0.0, 0.0, 1.729705564659757E9, 0.0, 2024-10-23 23:16:04.659
127.0, -42645.20617070272, -50479.62671275458, -21424.080005178454, -19266.108484996377, -9760.69387921022, -9227.716532673423, -187500.02235174447, -187500.02235174447, -0.21, 0.774, 0.552, 192.0, 0.0, 0.0, 0.0, 0.0, 0.0, 0.0, 0.0, 0.0, 0.0, 1.7297055646645277E9, 0.0, 2024-10-23 23:16:04.664
128.0, -42486.24056413658, -50204.29792455411, -21391.871141418356, -18585.900197732473, -9751.21673956117, -9163.790543531244, -187500.02235174447, -187500.02235174447, -0.21, 0.774, 0.552, 192.0, 0.0, 0.0, 0.0, 0.0, 0.0, 0.0, 0.0, 0.0, 0.0, 1.729705564667545E9, 0.0, 2024-10-23 23:16:04.667
129.0, -42464.335854570374, -50144.21643545824, -21425.06348193449, -18340.723912802212, -9763.152571100303, -9153.106409681608, -187500.02235174447, -187500.02235174447, -0.21, 0.774, 0.552, 192.0, 0.0, 0.0, 0.0, 0.0, 0.0, 0.0, 0.0, 0.0, 0.0, 1.7297055646705012E9, 0.0, 2024-10-23 23:16:04.670
130.0, -42631.43749611825, -50419.321706214156, -21496.63376768038, -18908.011187077904, -9782.777402732063, -9216.674770912501, -187500.02235174447, -187500.02235174447, -0.21, 0.774, 0.552, 192.0, 0.0, 0.0, 0.0, 0.0, 0.0, 0.0, 0.0, 0.0, 0.0, 1.7297055646755056E9, 0.0, 2024-10-23 23:16:04.675
131.0, -42727.70645948726, -50601.93545841402, -21498.26544502562, -19412.847687345467, -9775.401327061812, -9243.318050303227, -187500.02235174447, -187500.02235174447, -0.21, 0.774, 0.552, 192.0, 0.0, 0.0, 0.0, 0.0, 0.0, 0.0, 0.0, 0.0, 0.0, 1.7297055646795447E9, 0.0, 2024-10-23 23:16:04.679
132.0, -42646.21199920321, -50489.70734950392, -21448.175185701275, -19253.144473212298, -9762.526722255556, -9213.657285411035, -187500.02235174447, -187500.02235174447, -0.21, 0.774, 0.552, 192.0, 0.0, 0.0, 0.0, 0.0, 0.0, 0.0, 0.0, 0.0, 0.0, 1.7297055646835172E9, 0.0, 2024-10-23 23:16:04.683
133.0, -42475.75759598704, -50201.72747394174, -21397.414374043274, -18563.25788059925, -9738.967983599661, -9137.214319373885, -187500.02235174447, -187500.02235174447, -0.21, 0.774, 0.552, 192.0, 0.0, 0.0, 0.0, 0.0, 0.0, 0.0, 0.0, 0.0, 0.0, 1.729705564687575E9, 0.0, 2024-10-23 23:16:04.687
134.0, -42453.00352013153, -50137.935595266295, -21421.733072010647, -18316.449918323746, -9749.40624826029, -9126.083150635142, -187500.02235174447, -187500.02235174447, -0.21, 0.774, 0.552, 192.0, 0.0, 0.0, 0.0, 0.0, 0.0, 0.0, 0.0, 0.0, 0.0, 1.729705564691546E9, 0.0, 2024-10-23 23:16:04.691
135.0, -42610.27039411908, -50406.29063919671, -21479.15470351633, -18884.765372844384, -9764.001937389605, -9183.86241005211, -187500.02235174447, -187500.02235174447, -0.212, 0.776, 0.55, 192.0, 249.0, 96.0, 24.0, 64.0, 17.0, 48.0, 0.0, 0.0, 0.0, 1.729705564695616E9, 0.0, 2024-10-23 23:16:04.695
136.0, -42706.53935748808, -50591.29602805329, -21478.26063373812, -19392.753469080148, -9755.485922752134, -9205.431843451483, -187500.02235174447, -187500.02235174447, -0.212, 0.776, 0.55, 192.0, 0.0, 0.0, 0.0, 0.0, 0.0, 0.0, 0.0, 0.0, 0.0, 1.729705564698578E9, 0.0, 2024-10-23 23:16:04.698
137.0, -42619.59107155694, -50480.65489299952, -21423.18593540024, -19237.1406241823, -9736.330477753936, -9167.389174388549, -187500.02235174447, -187500.02235174447, -0.212, 0.776, 0.55, 192.0, 0.0, 0.0, 0.0, 0.0, 0.0, 0.0, 0.0, 0.0, 0.0, 1.7297055647035668E9, 0.0, 2024-10-23 23:16:04.703
138.0, -42456.62450273329, -50204.85671816549, -21382.88574014732, -18566.074200400617, -9725.06519854846, -9114.639057474025, -187500.02235174447, -187500.02235174447, -0.212, 0.776, 0.55, 192.0, 0.0, 0.0, 0.0, 0.0, 0.0, 0.0, 0.0, 0.0, 0.0, 1.7297055647075512E9, 0.0, 2024-10-23 23:16:04.707
139.0, -42434.18335130016, -50146.45160990377, -21414.222885873663, -18333.39254062087, -9735.794035887007, -9117.813005186677, -187500.02235174447, -187500.02235174447, -0.212, 0.776, 0.55, 192.0, 0.0, 0.0, 0.0, 0.0, 0.0, 0.0, 0.0, 0.0, 0.0, 1.7297055647115953E9, 0.0, 2024-10-23 23:16:04.711
140.0, -42595.87587068986, -50417.73473235783, -21487.8718838539, -18904.59137017624, -9759.151608842803, -9193.272494467796, -187500.02235174447, -187500.02235174447, -0.212, 0.776, 0.55, 192.0, 0.0, 0.0, 0.0, 0.0, 0.0, 0.0, 0.0, 0.0, 0.0, 1.729705564715577E9, 0.0, 2024-10-23 23:16:04.715
141.0, -42693.19536604826, -50604.05887413727, -21507.25084629665, -19423.017731072632, -9776.921245684773, -9247.542530005281, -187500.02235174447, -187500.02235174447, -0.212, 0.776, 0.55, 192.0, 0.0, 0.0, 0.0, 0.0, 0.0, 0.0, 0.0, 0.0, 0.0, 1.7297055647196343E9, 0.0, 2024-10-23 23:16:04.719
142.0, -42611.231519130655, -50490.75788149332, -21469.05171502253, -19273.171636244257, -9764.538379256534, -9223.804977393744, -187500.02235174447, -187500.02235174447, -0.212, 0.776, 0.55, 192.0, 0.0, 0.0, 0.0, 0.0, 0.0, 0.0, 0.0, 0.0, 0.0, 1.729705564723599E9, 0.0, 2024-10-23 23:16:04.723
143.0, -42446.20858981712, -50206.667209466366, -21430.20438315921, -18594.326805392124, -9743.88536737983, -9152.346450370127, -187500.02235174447, -187500.02235174447, -0.212, 0.776, 0.55, 192.0, 0.0, 0.0, 0.0, 0.0, 0.0, 0.0, 0.0, 0.0, 0.0, 1.729705564726673E9, 0.0, 2024-10-23 23:16:04.726
144.0, -42425.22030177359, -50144.998746514175, -21461.63093586337, -18348.927003017307, -9758.034021620038, -9146.087961922642, -187500.02235174447, -187500.02235174447, -0.212, 0.776, 0.55, 192.0, 0.0, 0.0, 0.0, 0.0, 0.0, 0.0, 0.0, 0.0, 0.0, 1.7297055647316215E9, 0.0, 2024-10-23 23:16:04.731
145.0, -42590.26558283158, -50415.00781953429, -21532.709483231247, -18915.811945892805, -9782.17390563177, -9216.54066044577, -187500.02235174447, -187500.02235174447, -0.214, 0.772, 0.55, 192.0, 249.0, 80.0, 24.0, 32.0, 17.0, 48.0, 0.0, 0.0, 0.0, 1.7297055647358367E9, 0.0, 2024-10-23 23:16:04.735
146.0, -42692.234241036684, -50596.81690893375, -21545.606439781957, -19431.04200733209, -9791.069899924982, -9258.249015599373, -187500.02235174447, -187500.02235174447, -0.214, 0.772, 0.55, 192.0, 0.0, 0.0, 0.0, 0.0, 0.0, 0.0, 0.0, 0.0, 0.0, 1.7297055647397091E9, 0.0, 2024-10-23 23:16:04.739
