%OpenBCI Raw EXG Data
%Number of channels = 8
%Sample Rate = 250 Hz
%Board = OpenBCI_GUI$BoardCytonSerial
Sample Index, EXG Channel 0, EXG Channel 1, EXG Channel 2, EXG Channel 3, EXG Channel 4, EXG Channel 5, EXG Channel 6, EXG Channel 7, Accel Channel 0, Accel Channel 1, Accel Channel 2, Other, Other, Other, Other, Other, Other, Other, Analog Channel 0, Analog Channel 1, Analog Channel 2, Timestamp, Other, Timestamp (Formatted)
0.0, 0.0, 0.0, 0.0, 0.0, 0.0, 0.0, 0.0, 0.0, 0.20400000000000001, 0.964, -0.084, 192.0, 6.0, 96.0, 30.0, 32.0, 253.0, 96.0, 0.0, 0.0, 0.0, 1.7296928834012613E9, 0.0, 2024-10-23 19:44:43.401
1.0, 9974.39890794741, 33822.6820615151, 38147.02935779445, 14418.395092296016, 24556.0958452339, 23248.943477743087, 187500.0, 187500.0, 0.20400000000000001, 0.964, -0.084, 192.0, 0.0, 0.0, 0.0, 0.0, 0.0, 0.0, 0.0, 0.0, 0.0, 1.7296928834134152E9, 0.0, 2024-10-23 19:44:43.413
2.0, 9998.762309403695, 33920.11331559579, 38161.557991690395, 14432.454339558404, 24569.61865062936, 23258.867652281246, 187500.0, 187500.0, 0.20400000000000001, 0.964, -0.084, 192.0, 0.0, 0.0, 0.0, 0.0, 0.0, 0.0, 0.0, 0.0, 0.0, 1.7296928834163032E9, 0.0, 2024-10-23 19:44:43.416
3.0, 10032.93812667586, 33840.89873324618, 38171.281000528455, 14452.593261312637, 24568.590470384417, 23252.720922556036, 187500.0, 187500.0, 0.20400000000000001, 0.964, -0.084, 192.0, 0.0, 0.0, 0.0, 0.0, 0.0, 0.0, 0.0, 0.0, 0.0, 1.7296928834203353E9, 0.0, 2024-10-23 19:44:43.420
4.0, 10051.423019340398, 33681.86607144667, 38169.02347433847, 14456.773037525778, 24550.95494400918, 23210.744346468968, 187500.0, 187500.0, 0.20400000000000001, 0.964, -0.084, 192.0, 0.0, 0.0, 0.0, 0.0, 0.0, 0.0, 0.0, 0.0, 0.0, 1.729692883423444E9, 0.0, 2024-10-23 19:44:43.423
5.0, 10019.370617791488, 33632.625178411625, 38156.55120093241, 14458.404714871016, 24543.064778216456, 23241.45564335056, 187500.0, 187500.0, 0.20400000000000001, 0.964, -0.084, 192.0, 0.0, 0.0, 0.0, 0.0, 0.0, 0.0, 0.0, 0.0, 0.0, 1.7296928834263413E9, 0.0, 2024-10-23 19:44:43.426
6.0, 9981.193838261825, 33837.41186111115, 38151.991445063526, 14446.33477286515, 24575.60891814338, 23306.700385415603, 187500.0, 187500.0, 0.20400000000000001, 0.964, -0.084, 192.0, 0.0, 0.0, 0.0, 0.0, 0.0, 0.0, 0.0, 0.0, 0.0, 1.7296928834303272E9, 0.0, 2024-10-23 19:44:43.430
7.0, 10004.193783306335, 33929.97043490058, 38164.284904513945, 14455.38722936955, 24571.496197163608, 23292.66348989767, 187500.0, 187500.0, 0.20400000000000001, 0.964, -0.084, 192.0, 0.0, 0.0, 0.0, 0.0, 0.0, 0.0, 0.0, 0.0, 0.0, 1.7296928834343848E9, 0.0, 2024-10-23 19:44:43.434
8.0, 10027.976039406782, 33834.57318956532, 38161.557991690395, 14460.639889316546, 24557.258135945576, 23252.653867322668, 187500.0, 187500.0, 0.20600000000000002, 0.96, -0.10400000000000001, 192.0, 6.0, 112.0, 30.0, 0.0, 252.0, 192.0, 0.0, 0.0, 0.0, 1.7296928834383335E9, 0.0, 2024-10-23 19:44:43.438
9.0, 10048.204368138835, 33673.595925998205, 38163.726110902564, 14469.804104543222, 24559.58271736893, 23253.391474889693, 187500.0, 187500.0, 0.20600000000000002, 0.96, -0.10400000000000001, 192.0, 0.0, 0.0, 0.0, 0.0, 0.0, 0.0, 0.0, 0.0, 0.0, 1.729692883442315E9, 0.0, 2024-10-23 19:44:43.442
10.0, 10022.611620737509, 33625.360861463654, 38160.03807306744, 14462.428028872971, 24557.258135945576, 23232.090262423786, 187500.0, 187500.0, 0.20600000000000002, 0.96, -0.10400000000000001, 192.0, 0.0, 0.0, 0.0, 0.0, 0.0, 0.0, 0.0, 0.0, 0.0, 1.729692883446347E9, 0.0, 2024-10-23 19:44:43.446
11.0, 9980.97032081727, 33818.45758181305, 38144.83888683783, 14430.733255235345, 24546.03756022901, 23248.742312042992, 187500.0, 187500.0, 0.20600000000000002, 0.96, -0.10400000000000001, 192.0, 0.0, 0.0, 0.0, 0.0, 0.0, 0.0, 0.0, 0.0, 0.0, 1.7296928834503555E9, 0.0, 2024-10-23 19:44:43.450
12.0, 10002.942085616838, 33901.024925830956, 38146.89524732772, 14427.626362756058, 24544.964676495158, 23257.615954591747, 187500.0, 187500.0, 0.20600000000000002, 0.96, -0.10400000000000001, 192.0, 0.0, 0.0, 0.0, 0.0, 0.0, 0.0, 0.0, 0.0, 0.0, 1.7296928834543583E9, 0.0, 2024-10-23 19:44:43.454
13.0, 10035.352115077034, 33806.767619462924, 38153.51136368649, 14436.500005304815, 24557.548708623497, 23240.85214625027, 187500.0, 187500.0, 0.20600000000000002, 0.96, -0.10400000000000001, 192.0, 0.0, 0.0, 0.0, 0.0, 0.0, 0.0, 0.0, 0.0, 0.0, 1.7296928834583652E9, 0.0, 2024-10-23 19:44:43.458
14.0, 10046.706801260329, 33631.64170165559, 38147.81166885039, 14436.276487860261, 24549.882060275326, 23222.903695452656, 187500.0, 187500.0, 0.20600000000000002, 0.96, -0.10400000000000001, 192.0, 0.0, 0.0, 0.0, 0.0, 0.0, 0.0, 0.0, 0.0, 0.0, 1.729692883463436E9, 0.0, 2024-10-23 19:44:43.463
15.0, 10008.574725219576, 33574.28712538328, 38130.377308175244, 14419.736196963335, 24536.739234535606, 23213.94064592608, 187500.0, 187500.0, 0.20600000000000002, 0.96, -0.10400000000000001, 192.0, 0.0, 0.0, 0.0, 0.0, 0.0, 0.0, 0.0, 0.0, 0.0, 1.7296928834674222E9, 0.0, 2024-10-23 19:44:43.467
16.0, 9970.017966034171, 33774.84932838075, 38123.51532262746, 14394.702243173391, 24542.640095071805, 23224.490669308983, 187500.0, 187500.0, 0.20600000000000002, 0.96, -0.10400000000000001, 192.0, 0.0, 0.0, 0.0, 0.0, 0.0, 0.0, 0.0, 0.0, 0.0, 1.7296928834704595E9, 0.0, 2024-10-23 19:44:43.470
17.0, 9992.459117467299, 33868.503137648484, 38132.9477587876, 14404.447603755905, 24552.027827743033, 23242.662637551148, 187500.0, 187500.0, 0.20600000000000002, 0.96, -0.10400000000000001, 192.0, 0.0, 0.0, 0.0, 0.0, 0.0, 0.0, 0.0, 0.0, 0.0, 1.729692883474394E9, 0.0, 2024-10-23 19:44:43.474
18.0, 10017.001332879227, 33777.57624120429, 38135.8534855668, 14417.858650429089, 24549.233859686123, 23239.30987588285, 187500.0, 187500.0, 0.216, 0.9520000000000001, -0.12, 192.0, 6.0, 192.0, 29.0, 192.0, 252.0, 64.0, 0.0, 0.0, 0.0, 1.729692883478384E9, 0.0, 2024-10-23 19:44:43.478
19.0, 10031.977001664281, 33614.14028574709, 38135.18293323314, 14419.75854870779, 24544.76351079506, 23211.727823225003, 187500.0, 187500.0, 0.216, 0.9520000000000001, -0.12, 192.0, 0.0, 0.0, 0.0, 0.0, 0.0, 0.0, 0.0, 0.0, 0.0, 1.7296928834824047E9, 0.0, 2024-10-23 19:44:43.482
20.0, 10000.237524537746, 33572.63309629358, 38125.30346218389, 14418.797423696213, 24535.12990893482, 23221.204962874053, 187500.0, 187500.0, 0.216, 0.9520000000000001, -0.12, 192.0, 0.0, 0.0, 0.0, 0.0, 0.0, 0.0, 0.0, 0.0, 0.0, 1.7296928834864233E9, 0.0, 2024-10-23 19:44:43.486
21.0, 9958.797390317606, 33776.59276444826, 38116.049839979394, 14398.122060075053, 24535.71105429066, 23236.06887293683, 187500.0, 187500.0, 0.216, 0.9520000000000001, -0.12, 192.0, 0.0, 0.0, 0.0, 0.0, 0.0, 0.0, 0.0, 0.0, 0.0, 1.7296928834913783E9, 0.0, 2024-10-23 19:44:43.491
22.0, 9986.267684253178, 33877.309724963874, 38131.51724714247, 14411.063720114676, 24551.781958554027, 23246.462434108547, 187500.0, 187500.0, 0.216, 0.9520000000000001, -0.12, 192.0, 0.0, 0.0, 0.0, 0.0, 0.0, 0.0, 0.0, 0.0, 0.0, 1.7296928834964702E9, 0.0, 2024-10-23 19:44:43.496
23.0, 10019.03534162466, 33799.79387519287, 38144.66007288219, 14432.521394791771, 24551.55844110947, 23248.675256809624, 187500.0, 187500.0, 0.216, 0.9520000000000001, -0.12, 192.0, 0.0, 0.0, 0.0, 0.0, 0.0, 0.0, 0.0, 0.0, 0.0, 1.7296928835004125E9, 0.0, 2024-10-23 19:44:43.500
24.0, 10028.914812673906, 33636.22380926893, 38143.43072693714, 14436.298839604717, 24544.316475905955, 23227.374044343716, 187500.0, 187500.0, 0.216, 0.9520000000000001, -0.12, 192.0, 0.0, 0.0, 0.0, 0.0, 0.0, 0.0, 0.0, 0.0, 0.0, 1.7296928835034742E9, 0.0, 2024-10-23 19:44:43.503
25.0, 9998.583495448052, 33599.41048615104, 38139.4521164241, 14433.057836658698, 24539.019112470047, 23218.58980877278, 187500.0, 187500.0, 0.216, 0.9520000000000001, -0.12, 192.0, 0.0, 0.0, 0.0, 0.0, 0.0, 0.0, 0.0, 0.0, 0.0, 1.7296928835064504E9, 0.0, 2024-10-23 19:44:43.506
26.0, 9966.665204365874, 33813.96488117753, 38140.368537946764, 14412.315417804173, 24541.72367354914, 23223.998930930964, 187500.0, 187500.0, 0.216, 0.9520000000000001, -0.12, 192.0, 0.0, 0.0, 0.0, 0.0, 0.0, 0.0, 0.0, 0.0, 0.0, 1.72969288351044E9, 0.0, 2024-10-23 19:44:43.510
27.0, 9991.36388198899, 33906.94813811161, 38150.42682295165, 14412.270714315262, 24542.170708438243, 23181.575319954794, 187500.0, 187500.0, 0.216, 0.9520000000000001, -0.12, 192.0, 0.0, 0.0, 0.0, 0.0, 0.0, 0.0, 0.0, 0.0, 0.0, 1.729692883514452E9, 0.0, 2024-10-23 19:44:43.514
28.0, 10021.941068403848, 33815.88713120069, 38165.760119647995, 14435.181252381952, 24556.498176634097, 23228.201058888564, 187500.0, 187500.0, 0.21, 0.9520000000000001, -0.124, 192.0, 6.0, 144.0, 29.0, 192.0, 252.0, 32.0, 0.0, 0.0, 0.0, 1.7296928835194588E9, 0.0, 2024-10-23 19:44:43.519
29.0, 10043.13052214748, 33654.48518448892, 38169.962247605596, 14448.793464755234, 24539.86847875935, 23214.275922092907, 187500.0, 187500.0, 0.21, 0.9520000000000001, -0.124, 192.0, 0.0, 0.0, 0.0, 0.0, 0.0, 0.0, 0.0, 0.0, 0.0, 1.7296928835234745E9, 0.0, 2024-10-23 19:44:43.523
30.0, 10013.089777599547, 33613.91676830254, 38164.55312544741, 14447.541767065737, 24542.126004949332, 23220.64616926267, 187500.0, 187500.0, 0.21, 0.9520000000000001, -0.124, 192.0, 0.0, 0.0, 0.0, 0.0, 0.0, 0.0, 0.0, 0.0, 0.0, 1.729692883526468E9, 0.0, 2024-10-23 19:44:43.526
31.0, 9980.769155117174, 33824.40314583816, 38174.05261684091, 14435.896508204522, 24561.348505180897, 23265.68493434011, 187500.0, 187500.0, 0.21, 0.9520000000000001, -0.124, 192.0, 0.0, 0.0, 0.0, 0.0, 0.0, 0.0, 0.0, 0.0, 0.0, 1.7296928835304394E9, 0.0, 2024-10-23 19:44:43.530
32.0, 10007.054806596614, 33912.6031294588, 38186.92722164717, 14450.7604182673, 24573.351391953398, 23296.910321344178, 187500.0, 187500.0, 0.21, 0.9520000000000001, -0.124, 192.0, 0.0, 0.0, 0.0, 0.0, 0.0, 0.0, 0.0, 0.0, 0.0, 1.7296928835345209E9, 0.0, 2024-10-23 19:44:43.534
33.0, 10035.620336010497, 33813.04845965486, 38185.29554430194, 14460.930461994465, 24572.59143264192, 23266.780169818423, 187500.0, 187500.0, 0.21, 0.9520000000000001, -0.124, 192.0, 0.0, 0.0, 0.0, 0.0, 0.0, 0.0, 0.0, 0.0, 0.0, 1.7296928835385141E9, 0.0, 2024-10-23 19:44:43.538
34.0, 10054.351097864044, 33642.772870394336, 38183.41799776769, 14468.48535162036, 24569.03750527352, 23260.387570904204, 187500.0, 187500.0, 0.21, 0.9520000000000001, -0.124, 192.0, 0.0, 0.0, 0.0, 0.0, 0.0, 0.0, 0.0, 0.0, 0.0, 1.7296928835424657E9, 0.0, 2024-10-23 19:44:43.542
35.0, 10020.577611992076, 33593.55432910375, 38162.09443355733, 14458.561177082203, 24550.3961503978, 23240.516870083437, 187500.0, 187500.0, 0.21, 0.9520000000000001, -0.124, 192.0, 0.0, 0.0, 0.0, 0.0, 0.0, 0.0, 0.0, 0.0, 0.0, 1.72969288354749E9, 0.0, 2024-10-23 19:44:43.547
36.0, 9980.478582439255, 33789.1767965766, 38144.503610671, 14423.670103987468, 24545.05408347298, 23226.79289898788, 187500.0, 187500.0, 0.21, 0.9520000000000001, -0.124, 192.0, 0.0, 0.0, 0.0, 0.0, 0.0, 0.0, 0.0, 0.0, 0.0, 1.729692883551515E9, 0.0, 2024-10-23 19:44:43.551
37.0, 9995.78952739114, 33863.116367234754, 38147.07406128336, 14418.529202762747, 24551.2455166871, 23236.56061131485, 187500.0, 187500.0, 0.21, 0.9520000000000001, -0.124, 192.0, 0.0, 0.0, 0.0, 0.0, 0.0, 0.0, 0.0, 0.0, 0.0, 1.7296928835545104E9, 0.0, 2024-10-23 19:44:43.554
38.0, 10029.920641174394, 33767.02621782139, 38157.445270710625, 14430.085054646142, 24556.54288012301, 23221.204962874053, 187500.0, 187500.0, 0.212, 0.9540000000000001, -0.122, 192.0, 6.0, 160.0, 29.0, 208.0, 252.0, 48.0, 0.0, 0.0, 0.0, 1.7296928835584948E9, 0.0, 2024-10-23 19:44:43.558
39.0, 10050.283080373178, 33597.465884383426, 38157.5570294329, 14436.947040193922, 24550.843185286903, 23226.345864098774, 187500.0, 187500.0, 0.212, 0.9540000000000001, -0.122, 192.0, 0.0, 0.0, 0.0, 0.0, 0.0, 0.0, 0.0, 0.0, 0.0, 1.729692883562516E9, 0.0, 2024-10-23 19:44:43.562
40.0, 10018.923582902382, 33552.89650593955, 38140.592055391324, 14425.27942958825, 24529.94430422119, 23222.411957074637, 187500.0, 187500.0, 0.212, 0.9540000000000001, -0.122, 192.0, 0.0, 0.0, 0.0, 0.0, 0.0, 0.0, 0.0, 0.0, 0.0, 1.729692883566492E9, 0.0, 2024-10-23 19:44:43.566
41.0, 9976.678785881852, 33737.72308084048, 38124.4987993835, 14387.974368092344, 24524.24460938509, 23218.858029706244, 187500.0, 187500.0, 0.212, 0.9540000000000001, -0.122, 192.0, 0.0, 0.0, 0.0, 0.0, 0.0, 0.0, 0.0, 0.0, 0.0, 1.7296928835725107E9, 0.0, 2024-10-23 19:44:43.572
42.0, 9993.889629112438, 33810.94739567606, 38128.566816874365, 14387.236760525318, 24528.55849606496, 23223.55189604186, 187500.0, 187500.0, 0.212, 0.9540000000000001, -0.122, 192.0, 0.0, 0.0, 0.0, 0.0, 0.0, 0.0, 0.0, 0.0, 0.0, 1.7296928835755453E9, 0.0, 2024-10-23 19:44:43.575
43.0, 10016.55429799012, 33712.82323751727, 38127.56098837388, 14395.193981551407, 24520.914199461247, 23193.086468349276, 187500.0, 187500.0, 0.212, 0.9540000000000001, -0.122, 192.0, 0.0, 0.0, 0.0, 0.0, 0.0, 0.0, 0.0, 0.0, 0.0, 1.7296928835795736E9, 0.0, 2024-10-23 19:44:43.579
44.0, 10026.545527761642, 33546.570962258695, 38121.5483691154, 14399.507868231281, 24512.37583307932, 23169.05834305982, 187500.0, 187500.0, 0.212, 0.9540000000000001, -0.122, 192.0, 0.0, 0.0, 0.0, 0.0, 0.0, 0.0, 0.0, 0.0, 0.0, 1.7296928835825355E9, 0.0, 2024-10-23 19:44:43.582
45.0, 9991.676806411364, 33510.227025774366, 38111.937118999616, 14394.456373984382, 24509.537161533495, 23176.792046641356, 187500.0, 187500.0, 0.212, 0.9540000000000001, -0.122, 192.0, 0.0, 0.0, 0.0, 0.0, 0.0, 0.0, 0.0, 0.0, 0.0, 1.72969288358657E9, 0.0, 2024-10-23 19:44:43.586
46.0, 9948.292070423613, 33702.49673157892, 38103.93519448462, 14370.204731250375, 24517.159106392755, 23214.722956982012, 187500.0, 187500.0, 0.212, 0.9540000000000001, -0.122, 192.0, 0.0, 0.0, 0.0, 0.0, 0.0, 0.0, 0.0, 0.0, 0.0, 1.7296928835906E9, 0.0, 2024-10-23 19:44:43.590
47.0, 9974.823591092061, 33791.00963962193, 38118.97791850304, 14384.398088979495, 24529.1396414208, 23217.271055849917, 187500.0, 187500.0, 0.212, 0.9540000000000001, -0.122, 192.0, 0.0, 0.0, 0.0, 0.0, 0.0, 0.0, 0.0, 0.0, 0.0, 1.7296928835945718E9, 0.0, 2024-10-23 19:44:43.594
48.0, 10004.59611470653, 33709.13519968214, 38130.91375004217, 14410.482574758838, 24539.33203689242, 23227.50815481045, 187500.0, 187500.0, 0.216, 0.9520000000000001, -0.11800000000000001, 192.0, 6.0, 192.0, 29.0, 192.0, 252.0, 80.0, 0.0, 0.0, 0.0, 1.7296928836005485E9, 0.0, 2024-10-23 19:44:43.600
49.0, 10025.60675449452, 33557.50096529734, 38138.51334315698, 14425.346484821617, 24538.929705492224, 23209.894980179666, 187500.0, 187500.0, 0.216, 0.9520000000000001, -0.11800000000000001, 192.0, 0.0, 0.0, 0.0, 0.0, 0.0, 0.0, 0.0, 0.0, 0.0, 1.729692883603583E9, 0.0, 2024-10-23 19:44:43.603
50.0, 9993.040262823137, 33527.59433121614, 38132.74659308751, 14421.390226053027, 24533.90056298978, 23206.475163278006, 187500.0, 187500.0, 0.216, 0.9520000000000001, -0.11800000000000001, 192.0, 0.0, 0.0, 0.0, 0.0, 0.0, 0.0, 0.0, 0.0, 0.0, 1.729692883608591E9, 0.0, 2024-10-23 19:44:43.608
51.0, 9958.506817639687, 33731.64340634864, 38127.31511918487, 14401.117193832064, 24526.23391464161, 23221.45083206306, 187500.0, 187500.0, 0.216, 0.9520000000000001, -0.11800000000000001, 192.0, 0.0, 0.0, 0.0, 0.0, 0.0, 0.0, 0.0, 0.0, 0.0, 1.7296928836115932E9, 0.0, 2024-10-23 19:44:43.611
52.0, 9976.634082392942, 33809.78510496439, 38128.20918896308, 14406.682778201435, 24511.481763301108, 23225.272980364916, 187500.0, 187500.0, 0.216, 0.9520000000000001, -0.11800000000000001, 192.0, 0.0, 0.0, 0.0, 0.0, 0.0, 0.0, 0.0, 0.0, 0.0, 1.7296928836156654E9, 0.0, 2024-10-23 19:44:43.615
53.0, 9994.046091323626, 33702.49673157892, 38124.00706100548, 14406.258095056784, 24506.653786498762, 23167.136093036665, 187500.0, 187500.0, 0.216, 0.9520000000000001, -0.11800000000000001, 192.0, 0.0, 0.0, 0.0, 0.0, 0.0, 0.0, 0.0, 0.0, 0.0, 1.7296928836186063E9, 0.0, 2024-10-23 19:44:43.618
54.0, 10022.812786437606, 33546.54861051424, 38145.88941882723, 14432.722560491868, 24554.41946439975, 23207.458640034038, 187500.0, 187500.0, 0.216, 0.9520000000000001, -0.11800000000000001, 192.0, 0.0, 0.0, 0.0, 0.0, 0.0, 0.0, 0.0, 0.0, 0.0, 1.729692883622688E9, 0.0, 2024-10-23 19:44:43.622
55.0, 10003.50087922822, 33523.571017214184, 38161.625046923764, 14451.05099094522, 24567.092903505913, 23240.002779960967, 187500.0, 187500.0, 0.216, 0.9520000000000001, -0.11800000000000001, 192.0, 0.0, 0.0, 0.0, 0.0, 0.0, 0.0, 0.0, 0.0, 0.0, 1.7296928836266832E9, 0.0, 2024-10-23 19:44:43.626
56.0, 9966.888721810428, 33722.255673677406, 38151.41029970769, 14432.253173858307, 24562.354333681385, 23262.108655227265, 187500.0, 187500.0, 0.216, 0.9520000000000001, -0.11800000000000001, 192.0, 0.0, 0.0, 0.0, 0.0, 0.0, 0.0, 0.0, 0.0, 0.0, 1.7296928836377568E9, 0.0, 2024-10-23 19:44:43.637
57.0, 9996.236562280246, 33807.43817179658, 38160.999198079015, 14439.517490806282, 24563.069589503957, 23250.46339636605, 187500.0, 187500.0, 0.216, 0.9520000000000001, -0.11800000000000001, 192.0, 0.0, 0.0, 0.0, 0.0, 0.0, 0.0, 0.0, 0.0, 0.0, 1.7296928836408718E9, 0.0, 2024-10-23 19:44:43.640
58.0, 10018.767120691195, 33703.52491182386, 38156.461793954586, 14439.204566383907, 24543.13183344982, 23198.69675620756, 187500.0, 187500.0, 0.212, 0.9480000000000001, -0.122, 192.0, 6.0, 160.0, 29.0, 160.0, 252.0, 48.0, 0.0, 0.0, 0.0, 1.7296928836448622E9, 0.0, 2024-10-23 19:44:43.644
59.0, 10032.155815619924, 33529.024842861276, 38152.39377646372, 14435.605935526602, 24539.220278170145, 23194.651090461146, 187500.0, 187500.0, 0.212, 0.9480000000000001, -0.122, 192.0, 0.0, 0.0, 0.0, 0.0, 0.0, 0.0, 0.0, 0.0, 0.0, 1.729692883647756E9, 0.0, 2024-10-23 19:44:43.647
60.0, 10006.406606007411, 33499.96757506938, 38151.87968634125, 14440.500967562315, 24537.700359547183, 23234.0348641914, 187500.0, 187500.0, 0.212, 0.9480000000000001, -0.122, 192.0, 0.0, 0.0, 0.0, 0.0, 0.0, 0.0, 0.0, 0.0, 0.0, 1.7296928836507273E9, 0.0, 2024-10-23 19:44:43.650
61.0, 9972.96839630227, 33695.50063556441, 38142.38019494774, 14412.270714315262, 24540.784900282015, 23237.78995725989, 187500.0, 187500.0, 0.212, 0.9480000000000001, -0.122, 192.0, 0.0, 0.0, 0.0, 0.0, 0.0, 0.0, 0.0, 0.0, 0.0, 1.729692883653714E9, 0.0, 2024-10-23 19:44:43.653
62.0, 9999.343454759533, 33769.864889367214, 38150.76209911849, 14415.534069005736, 24542.57303983844, 23242.70734104006, 187500.0, 187500.0, 0.212, 0.9480000000000001, -0.122, 192.0, 0.0, 0.0, 0.0, 0.0, 0.0, 0.0, 0.0, 0.0, 0.0, 1.7296928836576886E9, 0.0, 2024-10-23 19:44:43.657
63.0, 10029.3171440741, 33672.81361494227, 38155.54537243192, 14427.067569144676, 24543.243592172097, 23220.89203845168, 187500.0, 187500.0, 0.212, 0.9480000000000001, -0.122, 192.0, 0.0, 0.0, 0.0, 0.0, 0.0, 0.0, 0.0, 0.0, 0.0, 1.729692883660734E9, 0.0, 2024-10-23 19:44:43.660
64.0, 10040.135388390469, 33500.41460995848, 38146.73878511653, 14419.311513818684, 24525.965693708145, 23177.06026757482, 187500.0, 187500.0, 0.212, 0.9480000000000001, -0.122, 192.0, 0.0, 0.0, 0.0, 0.0, 0.0, 0.0, 0.0, 0.0, 0.0, 1.7296928836636953E9, 0.0, 2024-10-23 19:44:43.663
65.0, 10005.400777506922, 33465.79175779721, 38131.53959888692, 14403.821754911156, 24518.56726629344, 23173.752209395436, 187500.0, 187500.0, 0.212, 0.9480000000000001, -0.122, 192.0, 0.0, 0.0, 0.0, 0.0, 0.0, 0.0, 0.0, 0.0, 0.0, 1.729692883667694E9, 0.0, 2024-10-23 19:44:43.667
66.0, 9969.63798637843, 33659.268457802355, 38121.68247958213, 14379.681870899425, 24524.311664618454, 23211.526657524904, 187500.0, 187500.0, 0.212, 0.9480000000000001, -0.122, 192.0, 0.0, 0.0, 0.0, 0.0, 0.0, 0.0, 0.0, 0.0, 0.0, 1.7296928836707485E9, 0.0, 2024-10-23 19:44:43.670
67.0, 9987.519381942677, 33724.490848122936, 38123.89530228321, 14378.519580187749, 24525.541010563495, 23213.381852314695, 187500.0, 187500.0, 0.212, 0.9480000000000001, -0.122, 192.0, 0.0, 0.0, 0.0, 0.0, 0.0, 0.0, 0.0, 0.0, 0.0, 1.729692883674791E9, 0.0, 2024-10-23 19:44:43.674
68.0, 10013.715626444297, 33624.600902152175, 38126.890436040216, 14387.102650058587, 24524.177554151724, 23184.592805456257, 187500.0, 187500.0, 0.218, 0.9440000000000001, -0.124, 192.0, 6.0, 208.0, 29.0, 128.0, 252.0, 32.0, 0.0, 0.0, 0.0, 1.7296928836798308E9, 0.0, 2024-10-23 19:44:43.679
69.0, 10023.952725404826, 33454.772347780745, 38120.386078403724, 14385.314510502161, 24518.23199012661, 23158.955354566024, 187500.0, 187500.0, 0.218, 0.9440000000000001, -0.124, 192.0, 0.0, 0.0, 0.0, 0.0, 0.0, 0.0, 0.0, 0.0, 0.0, 1.729692883682737E9, 0.0, 2024-10-23 19:44:43.682
70.0, 9990.581570933053, 33427.77144047874, 38109.25490966498, 14381.470010455849, 24512.420536568232, 23179.11662806471, 187500.0, 187500.0, 0.218, 0.9440000000000001, -0.124, 192.0, 0.0, 0.0, 0.0, 0.0, 0.0, 0.0, 0.0, 0.0, 0.0, 1.7296928836867487E9, 0.0, 2024-10-23 19:44:43.686
71.0, 9956.718678083264, 33627.77484986482, 38100.738895027505, 14354.98319327631, 24516.019167425537, 23181.374154254696, 187500.0, 187500.0, 0.218, 0.9440000000000001, -0.124, 192.0, 0.0, 0.0, 0.0, 0.0, 0.0, 0.0, 0.0, 0.0, 0.0, 1.7296928836906805E9, 0.0, 2024-10-23 19:44:43.690
72.0, 9979.316291727579, 33709.00108921541, 38113.09940971129, 14365.197940492386, 24537.879173502824, 23196.103953850743, 187500.0, 187500.0, 0.218, 0.9440000000000001, -0.124, 192.0, 0.0, 0.0, 0.0, 0.0, 0.0, 0.0, 0.0, 0.0, 0.0, 1.7296928836948175E9, 0.0, 2024-10-23 19:44:43.694
73.0, 10007.83711765255, 33625.53967541929, 38121.078982481835, 14393.919932117455, 24534.70522579017, 23229.45275657806, 187500.0, 187500.0, 0.218, 0.9440000000000001, -0.124, 192.0, 0.0, 0.0, 0.0, 0.0, 0.0, 0.0, 0.0, 0.0, 0.0, 1.7296928836987808E9, 0.0, 2024-10-23 19:44:43.698
74.0, 10021.98577189276, 33470.41856889946, 38119.42495339215, 14403.777051422245, 24520.467164572143, 23197.176837584597, 187500.0, 187500.0, 0.218, 0.9440000000000001, -0.124, 192.0, 0.0, 0.0, 0.0, 0.0, 0.0, 0.0, 0.0, 0.0, 0.0, 1.7296928837028153E9, 0.0, 2024-10-23 19:44:43.702
75.0, 9988.234637765247, 33450.1455366785, 38111.11010445477, 14399.977254864843, 24513.292254601987, 23194.047593360854, 187500.0, 187500.0, 0.218, 0.9440000000000001, -0.124, 192.0, 0.0, 0.0, 0.0, 0.0, 0.0, 0.0, 0.0, 0.0, 0.0, 1.7296928837067494E9, 0.0, 2024-10-23 19:44:43.706
76.0, 9964.050050264603, 33657.01093161236, 38117.30153766889, 14390.209542537874, 24529.676083287726, 23223.35073034176, 187500.0, 187500.0, 0.218, 0.9440000000000001, -0.124, 192.0, 0.0, 0.0, 0.0, 0.0, 0.0, 0.0, 0.0, 0.0, 0.0, 1.7296928837097104E9, 0.0, 2024-10-23 19:44:43.709
77.0, 9989.486335454743, 33732.448069149024, 38134.04299426592, 14402.27948454374, 24541.254286915577, 23223.77541348641, 187500.0, 187500.0, 0.218, 0.9440000000000001, -0.124, 192.0, 0.0, 0.0, 0.0, 0.0, 0.0, 0.0, 0.0, 0.0, 0.0, 1.7296928837137806E9, 0.0, 2024-10-23 19:44:43.713
78.0, 10019.549431747131, 33641.029434326825, 38141.79904959191, 14417.903353918, 24539.779071781526, 23206.16223885563, 187500.0, 187500.0, 0.22, 0.9480000000000001, -0.128, 192.0, 6.0, 224.0, 29.0, 160.0, 252.0, 0.0, 0.0, 0.0, 0.0, 1.7296928837188656E9, 0.0, 2024-10-23 19:44:43.718
79.0, 10043.89048145896, 33490.91511856498, 38151.54441017442, 14429.973295923864, 24539.84612701489, 23190.940700881565, 187500.0, 187500.0, 0.22, 0.9480000000000001, -0.128, 192.0, 0.0, 0.0, 0.0, 0.0, 0.0, 0.0, 0.0, 0.0, 0.0, 1.7296928837227464E9, 0.0, 2024-10-23 19:44:43.722
80.0, 10013.603867722019, 33468.63042934304, 38145.04005253793, 14429.481557545849, 24532.33594087791, 23200.26137831943, 187500.0, 187500.0, 0.22, 0.9480000000000001, -0.128, 192.0, 0.0, 0.0, 0.0, 0.0, 0.0, 0.0, 0.0, 0.0, 0.0, 1.7296928837268648E9, 0.0, 2024-10-23 19:44:43.726
81.0, 9988.234637765247, 33667.940934651015, 38143.72129961506, 14414.841164927622, 24532.51475483355, 23215.54997152686, 187500.0, 187500.0, 0.22, 0.9480000000000001, -0.128, 192.0, 0.0, 0.0, 0.0, 0.0, 0.0, 0.0, 0.0, 0.0, 0.0, 1.729692883730764E9, 0.0, 2024-10-23 19:44:43.730
82.0, 10020.354094547522, 33742.215781476, 38156.9088288437, 14428.520432534271, 24535.040501957003, 23231.531468812405, 187500.0, 187500.0, 0.22, 0.9480000000000001, -0.128, 192.0, 0.0, 0.0, 0.0, 0.0, 0.0, 0.0, 0.0, 0.0, 0.0, 1.7296928837348626E9, 0.0, 2024-10-23 19:44:43.734
83.0, 10051.288908873667, 33642.81757388324, 38161.08860505684, 14438.154034394507, 24531.128946677323, 23204.329395810295, 187500.0, 187500.0, 0.22, 0.9480000000000001, -0.128, 192.0, 0.0, 0.0, 0.0, 0.0, 0.0, 0.0, 0.0, 0.0, 0.0, 1.7296928837377572E9, 0.0, 2024-10-23 19:44:43.737
84.0, 10066.130467191992, 33475.17949046844, 38157.020587565974, 14440.210394884396, 24522.300007617476, 23184.704564178537, 187500.0, 187500.0, 0.22, 0.9480000000000001, -0.128, 192.0, 0.0, 0.0, 0.0, 0.0, 0.0, 0.0, 0.0, 0.0, 0.0, 1.729692883741748E9, 0.0, 2024-10-23 19:44:43.741
85.0, 10033.876899942983, 33451.82191751265, 38150.98561656304, 14441.439740829437, 24532.738272278104, 23213.538314525882, 187500.0, 187500.0, 0.22, 0.9480000000000001, -0.128, 192.0, 0.0, 0.0, 0.0, 0.0, 0.0, 0.0, 0.0, 0.0, 0.0, 1.7296928837468033E9, 0.0, 2024-10-23 19:44:43.746
86.0, 10002.02566409417, 33646.393852996094, 38143.78835484843, 14408.828545669145, 24530.838373999402, 23187.25266304644, 187500.0, 187500.0, 0.22, 0.9480000000000001, -0.128, 192.0, 0.0, 0.0, 0.0, 0.0, 0.0, 0.0, 0.0, 0.0, 0.0, 1.7296928837507997E9, 0.0, 2024-10-23 19:44:43.750
87.0, 10018.275382313179, 33708.88933049313, 38145.66590138267, 14407.219220068362, 24545.411711384262, 23202.988291142978, 187500.0, 187500.0, 0.22, 0.9480000000000001, -0.128, 192.0, 0.0, 0.0, 0.0, 0.0, 0.0, 0.0, 0.0, 0.0, 0.0, 1.7296928837547548E9, 0.0, 2024-10-23 19:44:43.754
88.0, 10050.171321650902, 33617.71656485994, 38157.378215477256, 14432.253173858307, 24560.409731913776, 23247.468262609036, 187500.0, 187500.0, 0.214, 0.9500000000000001, -0.126, 192.0, 6.0, 176.0, 29.0, 176.0, 252.0, 16.0, 0.0, 0.0, 0.0, 1.7296928837587867E9, 0.0, 2024-10-23 19:44:43.758
89.0, 10058.776743266195, 33448.40210061098, 38143.40837519269, 14425.81587145518, 24545.9928567401, 23200.68606146408, 187500.0, 187500.0, 0.214, 0.9500000000000001, -0.126, 192.0, 0.0, 0.0, 0.0, 0.0, 0.0, 0.0, 0.0, 0.0, 0.0, 1.7296928837629044E9, 0.0, 2024-10-23 19:44:43.762
90.0, 10010.899306642927, 33418.27194908523, 38117.50270336899, 14411.309589303684, 24527.217391397644, 23205.849314433257, 187500.0, 187500.0, 0.214, 0.9500000000000001, -0.126, 192.0, 0.0, 0.0, 0.0, 0.0, 0.0, 0.0, 0.0, 0.0, 0.0, 1.7296928837667837E9, 0.0, 2024-10-23 19:44:43.766
91.0, 9975.672957381363, 33615.771963092324, 38102.34822062829, 14390.500115215793, 24526.546839063983, 23228.558686799846, 187500.0, 187500.0, 0.214, 0.9500000000000001, -0.126, 192.0, 0.0, 0.0, 0.0, 0.0, 0.0, 0.0, 0.0, 0.0, 0.0, 1.7296928837697937E9, 0.0, 2024-10-23 19:44:43.769
92.0, 9994.336664001545, 33681.32962957974, 38098.861348493265, 14389.51663845976, 24538.41561536975, 23214.946474426568, 187500.0, 187500.0, 0.214, 0.9500000000000001, -0.126, 192.0, 0.0, 0.0, 0.0, 0.0, 0.0, 0.0, 0.0, 0.0, 0.0, 1.7296928837747924E9, 0.0, 2024-10-23 19:44:43.774
93.0, 10019.4153212804, 33585.26183191083, 38093.80985424636, 14401.117193832064, 24550.731426564627, 23200.93193065309, 187500.0, 187500.0, 0.214, 0.9500000000000001, -0.126, 192.0, 0.0, 0.0, 0.0, 0.0, 0.0, 0.0, 0.0, 0.0, 0.0, 1.72969288377884E9, 0.0, 2024-10-23 19:44:43.778
94.0, 10030.904117930428, 33424.932768932915, 38083.259830863455, 14412.740100948824, 24552.720731821148, 23203.54708475436, 187500.0, 187500.0, 0.214, 0.9500000000000001, -0.126, 192.0, 0.0, 0.0, 0.0, 0.0, 0.0, 0.0, 0.0, 0.0, 0.0, 1.7296928837828078E9, 0.0, 2024-10-23 19:44:43.782
95.0, 9982.601998162509, 33395.786094163195, 38057.42121427313, 14394.769298406756, 24536.873345002336, 23168.164273281607, 187500.0, 187500.0, 0.214, 0.9500000000000001, -0.126, 192.0, 0.0, 0.0, 0.0, 0.0, 0.0, 0.0, 0.0, 0.0, 0.0, 1.7296928837878444E9, 0.0, 2024-10-23 19:44:43.787
96.0, 9945.11812271096, 33585.932384244494, 38049.016958357926, 14370.830580095122, 24541.455452615675, 23189.44313400306, 187500.0, 187500.0, 0.214, 0.9500000000000001, -0.126, 192.0, 0.0, 0.0, 0.0, 0.0, 0.0, 0.0, 0.0, 0.0, 0.0, 1.729692883790795E9, 0.0, 2024-10-23 19:44:43.790
97.0, 9971.336718957034, 33657.56972522375, 38064.9314004101, 14387.437926225415, 24561.52731913654, 23220.467355307028, 187500.0, 187500.0, 0.214, 0.9500000000000001, -0.126, 192.0, 0.0, 0.0, 0.0, 0.0, 0.0, 0.0, 0.0, 0.0, 0.0, 1.7296928837948568E9, 0.0, 2024-10-23 19:44:43.794
98.0, 10007.993579863738, 33572.05195093774, 38082.63398201871, 14419.8032521967, 24570.356258196385, 23234.548954313872, 187500.0, 187500.0, 0.218, 0.9460000000000001, -0.13, 192.0, 6.0, 208.0, 29.0, 144.0, 251.0, 240.0, 0.0, 0.0, 0.0, 1.729692883798886E9, 0.0, 2024-10-23 19:44:43.798
99.0, 10025.047960883137, 33415.343870561584, 38083.50570005247, 14434.62245877057, 24563.51662439306, 23221.294369851872, 187500.0, 187500.0, 0.218, 0.9460000000000001, -0.13, 192.0, 0.0, 0.0, 0.0, 0.0, 0.0, 0.0, 0.0, 0.0, 0.0, 1.7296928838028677E9, 0.0, 2024-10-23 19:44:43.802
100.0, 9983.384309218443, 33392.880367384, 38068.19475510058, 14425.167670865974, 24554.084188232922, 23208.665634234625, 187500.0, 187500.0, 0.218, 0.9460000000000001, -0.13, 192.0, 0.0, 0.0, 0.0, 0.0, 0.0, 0.0, 0.0, 0.0, 0.0, 1.7296928838068457E9, 0.0, 2024-10-23 19:44:43.806
101.0, 9949.834340791029, 33590.179215691, 38064.39495854318, 14405.65459795649, 24561.01322901407, 23215.16999187112, 187500.0, 187500.0, 0.218, 0.9460000000000001, -0.13, 192.0, 0.0, 0.0, 0.0, 0.0, 0.0, 0.0, 0.0, 0.0, 0.0, 1.7296928838099184E9, 0.0, 2024-10-23 19:44:43.809
102.0, 9976.410564948388, 33663.537640993316, 38077.336618582805, 14422.150185364508, 24573.597261142408, 23221.428480318606, 187500.0, 187500.0, 0.218, 0.9460000000000001, -0.13, 192.0, 0.0, 0.0, 0.0, 0.0, 0.0, 0.0, 0.0, 0.0, 0.0, 1.7296928838139522E9, 0.0, 2024-10-23 19:44:43.813
103.0, 10015.235545067257, 33581.86436675362, 38097.877871737226, 14458.583528826659, 24578.604051900395, 23242.372064873227, 187500.0, 187500.0, 0.218, 0.9460000000000001, -0.13, 192.0, 0.0, 0.0, 0.0, 0.0, 0.0, 0.0, 0.0, 0.0, 0.0, 1.7296928838189545E9, 0.0, 2024-10-23 19:44:43.818
104.0, 10032.491091786755, 33423.34579507659, 38097.36378161476, 14465.95960449691, 24561.05793250298, 23216.242875604974, 187500.0, 187500.0, 0.218, 0.9460000000000001, -0.13, 192.0, 0.0, 0.0, 0.0, 0.0, 0.0, 0.0, 0.0, 0.0, 0.0, 1.7296928838228672E9, 0.0, 2024-10-23 19:44:43.822
105.0, 10001.288056527144, 33410.15826584795, 38094.323944368836, 14461.645717817035, 24562.175519725744, 23222.210791374542, 187500.0, 187500.0, 0.218, 0.9460000000000001, -0.13, 192.0, 0.0, 0.0, 0.0, 0.0, 0.0, 0.0, 0.0, 0.0, 0.0, 1.7296928838268757E9, 0.0, 2024-10-23 19:44:43.826
106.0, 9975.002405047704, 33607.50181764386, 38093.25106063498, 14441.059761173698, 24564.075418004446, 23233.856050235754, 187500.0, 187500.0, 0.218, 0.9460000000000001, -0.13, 192.0, 0.0, 0.0, 0.0, 0.0, 0.0, 0.0, 0.0, 0.0, 0.0, 1.729692883830901E9, 0.0, 2024-10-23 19:44:43.830
107.0, 9998.44938498132, 33668.7455974514, 38095.88856648071, 14439.584546039647, 24557.9957435126, 23217.40516631665, 187500.0, 187500.0, 0.218, 0.9460000000000001, -0.13, 192.0, 0.0, 0.0, 0.0, 0.0, 0.0, 0.0, 0.0, 0.0, 0.0, 1.7296928838359127E9, 0.0, 2024-10-23 19:44:43.835
108.0, 10026.947859161837, 33570.330866614684, 38096.67087753664, 14452.034467701253, 24556.878156289837, 23212.353672069752, 187500.0, 187500.0, 0.226, 0.9500000000000001, -0.126, 192.0, 7.0, 16.0, 29.0, 176.0, 252.0, 16.0, 0.0, 0.0, 0.0, 1.7296928838388948E9, 0.0, 2024-10-23 19:44:43.838
109.0, 10050.819522240106, 33418.070783385134, 38097.07320893684, 14464.216168429395, 24554.06183648847, 23204.64232023267, 187500.0, 187500.0, 0.226, 0.9500000000000001, -0.126, 192.0, 0.0, 0.0, 0.0, 0.0, 0.0, 0.0, 0.0, 0.0, 0.0, 1.7296928838418996E9, 0.0, 2024-10-23 19:44:43.841
110.0, 10016.062559612103, 33404.100943100566, 38078.67772325012, 14453.777903768767, 24541.455452615675, 23202.58595974278, 187500.0, 187500.0, 0.226, 0.9500000000000001, -0.126, 192.0, 0.0, 0.0, 0.0, 0.0, 0.0, 0.0, 0.0, 0.0, 0.0, 1.7296928838479016E9, 0.0, 2024-10-23 19:44:43.847
111.0, 9988.033472065148, 33602.69619258597, 38064.55142075437, 14430.375627324061, 24533.833507756415, 23216.22052386052, 187500.0, 187500.0, 0.226, 0.9500000000000001, -0.126, 192.0, 0.0, 0.0, 0.0, 0.0, 0.0, 0.0, 0.0, 0.0, 0.0, 1.7296928838509133E9, 0.0, 2024-10-23 19:44:43.850
112.0, 10007.12186182998, 33664.76698693836, 38058.807022429355, 14425.793519710724, 24525.161030907755, 23209.872628435212, 187500.0, 187500.0, 0.226, 0.9500000000000001, -0.126, 192.0, 0.0, 0.0, 0.0, 0.0, 0.0, 0.0, 0.0, 0.0, 0.0, 1.7296928838549097E9, 0.0, 2024-10-23 19:44:43.854
113.0, 10037.408475566921, 33567.64865728005, 38071.39105455769, 14438.221089627874, 24558.509833635075, 23198.07090736281, 187500.0, 187500.0, 0.226, 0.9500000000000001, -0.126, 192.0, 0.0, 0.0, 0.0, 0.0, 0.0, 0.0, 0.0, 0.0, 0.0, 1.7296928838609316E9, 0.0, 2024-10-23 19:44:43.860
114.0, 10057.010955454225, 33407.49840825777, 38082.74574074099, 14445.23953738684, 24563.851900559894, 23191.387735770673, 187500.0, 187500.0, 0.226, 0.9500000000000001, -0.126, 192.0, 0.0, 0.0, 0.0, 0.0, 0.0, 0.0, 0.0, 0.0, 0.0, 1.7296928838639176E9, 0.0, 2024-10-23 19:44:43.863
115.0, 10017.98480963526, 33391.47220748332, 38071.39105455769, 14437.103502405109, 24546.99868524059, 23201.669538220114, 187500.0, 187500.0, 0.226, 0.9500000000000001, -0.126, 192.0, 0.0, 0.0, 0.0, 0.0, 0.0, 0.0, 0.0, 0.0, 0.0, 1.7296928838679705E9, 0.0, 2024-10-23 19:44:43.867
116.0, 9981.238541750734, 33583.11606444312, 38059.45522301856, 14409.119118347064, 24550.28439167552, 23212.979520914498, 187500.0, 187500.0, 0.226, 0.9500000000000001, -0.126, 192.0, 0.0, 0.0, 0.0, 0.0, 0.0, 0.0, 0.0, 0.0, 0.0, 1.7296928838709457E9, 0.0, 2024-10-23 19:44:43.870
117.0, 10001.26570478269, 33646.77383265184, 38065.020807387926, 14411.935438148432, 24556.252307445087, 23231.55382055686, 187500.0, 187500.0, 0.226, 0.9500000000000001, -0.126, 192.0, 0.0, 0.0, 0.0, 0.0, 0.0, 0.0, 0.0, 0.0, 0.0, 1.7296928838749464E9, 0.0, 2024-10-23 19:44:43.874
118.0, 10026.769045206196, 33548.76143321532, 38066.987760899996, 14419.020941140765, 24548.42919688573, 23205.31287256633, 187500.0, 187500.0, 0.226, 0.9500000000000001, -0.126, 192.0, 0.0, 0.0, 0.0, 0.0, 0.0, 0.0, 0.0, 0.0, 0.0, 1.7296928838789415E9, 0.0, 2024-10-23 19:44:43.878
119.0, 10036.290888344156, 33384.63257367999, 38061.176307341615, 14416.741063206324, 24530.458394343663, 23145.410197426107, 187500.0, 187500.0, 0.218, 0.9500000000000001, -0.124, 192.0, 6.0, 208.0, 29.0, 176.0, 252.0, 32.0, 0.0, 0.0, 0.0, 1.7296928838829732E9, 0.0, 2024-10-23 19:44:43.882
120.0, 9994.940161101838, 33374.998971819754, 38045.865362389726, 14406.950999134899, 24527.887943731304, 23145.141976492643, 187500.0, 187500.0, 0.218, 0.9500000000000001, -0.124, 192.0, 0.0, 0.0, 0.0, 0.0, 0.0, 0.0, 0.0, 0.0, 0.0, 1.729692883886942E9, 0.0, 2024-10-23 19:44:43.886
121.0, 9963.714774097774, 33577.058741695735, 38047.67585369061, 14402.36889152156, 24553.927726021735, 23231.263247878942, 187500.0, 187500.0, 0.218, 0.9500000000000001, -0.124, 192.0, 0.0, 0.0, 0.0, 0.0, 0.0, 0.0, 0.0, 0.0, 0.0, 1.7296928838899677E9, 0.0, 2024-10-23 19:44:43.889
122.0, 9992.861448867494, 33648.71843441945, 38069.1335283677, 14414.66235097198, 24568.881043062334, 23220.847334962767, 187500.0, 187500.0, 0.218, 0.9500000000000001, -0.124, 192.0, 0.0, 0.0, 0.0, 0.0, 0.0, 0.0, 0.0, 0.0, 0.0, 1.7296928838939629E9, 0.0, 2024-10-23 19:44:43.893
123.0, 10023.773911449183, 33554.52818328478, 38078.18598487211, 14437.572889038669, 24569.596298884906, 23239.756910771957, 187500.0, 187500.0, 0.218, 0.9500000000000001, -0.124, 192.0, 0.0, 0.0, 0.0, 0.0, 0.0, 0.0, 0.0, 0.0, 0.0, 1.7296928838979568E9, 0.0, 2024-10-23 19:44:43.897
124.0, 10045.522158804199, 33396.613108708036, 38084.35506634177, 14452.90618573501, 24563.807197070983, 23223.686006508593, 187500.0, 187500.0, 0.218, 0.9500000000000001, -0.124, 192.0, 0.0, 0.0, 0.0, 0.0, 0.0, 0.0, 0.0, 0.0, 0.0, 1.729692883902948E9, 0.0, 2024-10-23 19:44:43.902
125.0, 10001.466870482787, 33378.35173348805, 38071.74868246898, 14442.222051885374, 24557.9957435126, 23209.35853831274, 187500.0, 187500.0, 0.218, 0.9500000000000001, -0.124, 192.0, 0.0, 0.0, 0.0, 0.0, 0.0, 0.0, 0.0, 0.0, 0.0, 1.7296928839069636E9, 0.0, 2024-10-23 19:44:43.906
126.0, 9971.82845733505, 33576.85757599564, 38071.86044119125, 14425.502947032805, 24570.66918261876, 23231.442061834583, 187500.0, 187500.0, 0.218, 0.9500000000000001, -0.124, 192.0, 0.0, 0.0, 0.0, 0.0, 0.0, 0.0, 0.0, 0.0, 0.0, 1.72969288391097E9, 0.0, 2024-10-23 19:44:43.910
127.0, 9992.101489556015, 33638.90601860357, 38082.05283666287, 14434.443644814926, 24577.62057514436, 23231.911448468145, 187500.0, 187500.0, 0.218, 0.9500000000000001, -0.124, 192.0, 0.0, 0.0, 0.0, 0.0, 0.0, 0.0, 0.0, 0.0, 0.0, 1.729692883914978E9, 0.0, 2024-10-23 19:44:43.914
128.0, 10020.421149780888, 33542.05590987872, 38090.68061002262, 14451.542729323237, 24579.453418189696, 23219.30506459535, 187500.0, 187500.0, 0.218, 0.9500000000000001, -0.124, 192.0, 0.0, 0.0, 0.0, 0.0, 0.0, 0.0, 0.0, 0.0, 0.0, 1.7296928839189973E9, 0.0, 2024-10-23 19:44:43.918
129.0, 10034.614507510008, 33379.40226547745, 38090.30063036688, 14458.985860226854, 24570.53507215203, 23203.748250454457, 187500.0, 187500.0, 0.214, 0.9580000000000001, -0.124, 192.0, 6.0, 176.0, 29.0, 240.0, 252.0, 32.0, 0.0, 0.0, 0.0, 1.7296928839230115E9, 0.0, 2024-10-23 19:44:43.923
130.0, 9993.844925623527, 33367.68995138287, 38082.41046457415, 14454.560214824704, 24574.692496620715, 23201.915407409124, 187500.0, 187500.0, 0.214, 0.9580000000000001, -0.124, 192.0, 0.0, 0.0, 0.0, 0.0, 0.0, 0.0, 0.0, 0.0, 0.0, 1.7296928839260263E9, 0.0, 2024-10-23 19:44:43.926
131.0, 9968.810971833584, 33564.36295084512, 38084.936211697604, 14446.200662398418, 24584.639022903328, 23253.905565012166, 187500.0, 187500.0, 0.214, 0.9580000000000001, -0.124, 192.0, 0.0, 0.0, 0.0, 0.0, 0.0, 0.0, 0.0, 0.0, 0.0, 1.729692883930974E9, 0.0, 2024-10-23 19:44:43.930
132.0, 9992.704986656307, 33620.89051257259, 38091.798197245385, 14453.442627601939, 24585.354278725896, 23245.16603293014, 187500.0, 187500.0, 0.214, 0.9580000000000001, -0.124, 192.0, 0.0, 0.0, 0.0, 0.0, 0.0, 0.0, 0.0, 0.0, 0.0, 1.729692883935032E9, 0.0, 2024-10-23 19:44:43.935
133.0, 10018.118920101992, 33522.520485224784, 38090.83707223381, 14463.09858120663, 24574.983069298636, 23225.340035598285, 187500.0, 187500.0, 0.214, 0.9580000000000001, -0.124, 192.0, 0.0, 0.0, 0.0, 0.0, 0.0, 0.0, 0.0, 0.0, 0.0, 1.7296928839390533E9, 0.0, 2024-10-23 19:44:43.939
134.0, 10038.74958023424, 33371.35563747354, 38086.94786869858, 14470.564063854703, 24565.48357790513, 23206.765735955923, 187500.0, 187500.0, 0.214, 0.9580000000000001, -0.124, 192.0, 0.0, 0.0, 0.0, 0.0, 0.0, 0.0, 0.0, 0.0, 0.0, 1.7296928839429948E9, 0.0, 2024-10-23 19:44:43.942
135.0, 9994.135498301446, 33359.03982627867, 38062.02567363092, 14455.834264258656, 24543.914144505758, 23204.06117487683, 187500.0, 187500.0, 0.214, 0.9580000000000001, -0.124, 192.0, 0.0, 0.0, 0.0, 0.0, 0.0, 0.0, 0.0, 0.0, 0.0, 1.729692883946051E9, 0.0, 2024-10-23 19:44:43.946
136.0, 9973.97422480276, 33554.125851884586, 38058.76231894044, 14432.052008158209, 24552.76543531006, 23212.51013428094, 187500.0, 187500.0, 0.214, 0.9580000000000001, -0.124, 192.0, 0.0, 0.0, 0.0, 0.0, 0.0, 0.0, 0.0, 0.0, 0.0, 1.7296928839500663E9, 0.0, 2024-10-23 19:44:43.950
137.0, 10002.204478049813, 33614.90024505857, 38066.563077755345, 14439.919822206477, 24564.544804638008, 23224.714186753536, 187500.0, 187500.0, 0.214, 0.9580000000000001, -0.124, 192.0, 0.0, 0.0, 0.0, 0.0, 0.0, 0.0, 0.0, 0.0, 0.0, 1.7296928839540732E9, 0.0, 2024-10-23 19:44:43.954
138.0, 10028.780702207172, 33515.70320316592, 38064.529069009914, 14449.307554877705, 24553.458339388173, 23211.97369241401, 187500.0, 187500.0, 0.214, 0.9580000000000001, -0.124, 192.0, 0.0, 0.0, 0.0, 0.0, 0.0, 0.0, 0.0, 0.0, 0.0, 1.7296928839580696E9, 0.0, 2024-10-23 19:44:43.958
139.0, 10053.837007741573, 33366.348846715555, 38066.33956031079, 14454.627270058068, 24545.81404278446, 23186.380945012683, 187500.0, 187500.0, 0.222, 0.9520000000000001, -0.126, 192.0, 6.0, 240.0, 29.0, 192.0, 252.0, 16.0, 0.0, 0.0, 0.0, 1.7296928839630458E9, 0.0, 2024-10-23 19:44:43.963
140.0, 10013.536812488654, 33358.7716053452, 38046.93824612359, 14436.298839604717, 24536.158089179768, 23168.790122126356, 187500.0, 187500.0, 0.222, 0.9520000000000001, -0.126, 192.0, 0.0, 0.0, 0.0, 0.0, 0.0, 0.0, 0.0, 0.0, 0.0, 1.729692883967102E9, 0.0, 2024-10-23 19:44:43.967
141.0, 9979.003367305204, 33539.083127866164, 38037.77403089691, 14402.838278155123, 24543.57886833893, 23193.578206727292, 187500.0, 187500.0, 0.222, 0.9520000000000001, -0.126, 192.0, 0.0, 0.0, 0.0, 0.0, 0.0, 0.0, 0.0, 0.0, 0.0, 1.729692883971073E9, 0.0, 2024-10-23 19:44:43.971
142.0, 10006.294847285133, 33596.75062856086, 38051.27448454792, 14401.586580465626, 24547.62453408534, 23183.408163000127, 187500.0, 187500.0, 0.222, 0.9520000000000001, -0.126, 192.0, 0.0, 0.0, 0.0, 0.0, 0.0, 0.0, 0.0, 0.0, 0.0, 1.7296928839741933E9, 0.0, 2024-10-23 19:44:43.974
143.0, 10038.704876745329, 33506.24841526132, 38058.40469102916, 14413.745929449313, 24547.378664896332, 23171.181758783074, 187500.0, 187500.0, 0.222, 0.9520000000000001, -0.126, 192.0, 0.0, 0.0, 0.0, 0.0, 0.0, 0.0, 0.0, 0.0, 0.0, 1.7296928839781682E9, 0.0, 2024-10-23 19:44:43.978
144.0, 10058.79909501065, 33360.29152396817, 38067.27833357792, 14430.509737790793, 24546.8422230294, 23219.752099484456, 187500.0, 187500.0, 0.222, 0.9520000000000001, -0.126, 192.0, 0.0, 0.0, 0.0, 0.0, 0.0, 0.0, 0.0, 0.0, 0.0, 1.7296928839821377E9, 0.0, 2024-10-23 19:44:43.982
145.0, 10013.760329933206, 33360.045654779155, 38050.46982174752, 14419.512679518783, 24534.302894389977, 23211.303140080352, 187500.0, 187500.0, 0.222, 0.9520000000000001, -0.126, 192.0, 0.0, 0.0, 0.0, 0.0, 0.0, 0.0, 0.0, 0.0, 0.0, 1.7296928839861147E9, 0.0, 2024-10-23 19:44:43.986
146.0, 9981.573817917564, 33553.81292746221, 38046.33474902329, 14403.933513633432, 24548.13862420781, 23233.16314615764, 187500.0, 187500.0, 0.222, 0.9520000000000001, -0.126, 192.0, 0.0, 0.0, 0.0, 0.0, 0.0, 0.0, 0.0, 0.0, 0.0, 1.7296928839911654E9, 0.0, 2024-10-23 19:44:43.991
147.0, 10005.333722273555, 33612.575663635216, 38061.19865908607, 14414.66235097198, 24560.499138891595, 23223.50719255295, 187500.0, 187500.0, 0.222, 0.9520000000000001, -0.126, 192.0, 0.0, 0.0, 0.0, 0.0, 0.0, 0.0, 0.0, 0.0, 0.0, 1.7296928839951296E9, 0.0, 2024-10-23 19:44:43.995
148.0, 10029.071274885091, 33515.457333976905, 38067.09951962227, 14432.90137444751, 24567.025848272544, 23220.48970705148, 187500.0, 187500.0, 0.222, 0.9520000000000001, -0.126, 192.0, 0.0, 0.0, 0.0, 0.0, 0.0, 0.0, 0.0, 0.0, 0.0, 1.7296928839992113E9, 0.0, 2024-10-23 19:44:43.999
149.0, 10038.861338956516, 33357.609314633526, 38063.36677829824, 14442.33381060765, 24564.410694171274, 23201.73659345348, 187500.0, 187500.0, 0.218, 0.9480000000000001, -0.134, 192.0, 6.0, 208.0, 29.0, 160.0, 251.0, 208.0, 0.0, 0.0, 0.0, 1.7296928840021007E9, 0.0, 2024-10-23 19:44:44.002
150.0, 9990.849791866516, 33351.12730874149, 38045.3289205228, 14436.008266926798, 24551.13375796482, 23211.59371275827, 187500.0, 187500.0, 0.218, 0.9480000000000001, -0.134, 192.0, 0.0, 0.0, 0.0, 0.0, 0.0, 0.0, 0.0, 0.0, 0.0, 1.729692884006333E9, 0.0, 2024-10-23 19:44:44.006
151.0, 9961.144323485414, 33541.87709592308, 38042.66906293262, 14422.910144675989, 24566.444702916706, 23241.008608461456, 187500.0, 187500.0, 0.218, 0.9480000000000001, -0.134, 192.0, 0.0, 0.0, 0.0, 0.0, 0.0, 0.0, 0.0, 0.0, 0.0, 1.729692884010252E9, 0.0, 2024-10-23 19:44:44.010
152.0, 9988.838134865538, 33598.11408497263, 38061.57863874181, 14439.226918128363, 24585.801313615004, 23248.921125998633, 187500.0, 187500.0, 0.218, 0.9480000000000001, -0.134, 192.0, 0.0, 0.0, 0.0, 0.0, 0.0, 0.0, 0.0, 0.0, 0.0, 1.7296928840141473E9, 0.0, 2024-10-23 19:44:44.014
153.0, 10017.627181723974, 33495.76544711178, 38075.12379588173, 14458.985860226854, 24591.076325306454, 23236.31474212584, 187500.0, 187500.0, 0.218, 0.9480000000000001, -0.134, 192.0, 0.0, 0.0, 0.0, 0.0, 0.0, 0.0, 0.0, 0.0, 0.0, 1.7296928840192106E9, 0.0, 2024-10-23 19:44:44.019
154.0, 10036.313240088612, 33337.80566904612, 38076.73312148251, 14472.307499922217, 24578.11231352238, 23210.274959835406, 187500.0, 187500.0, 0.218, 0.9480000000000001, -0.134, 192.0, 0.0, 0.0, 0.0, 0.0, 0.0, 0.0, 0.0, 0.0, 0.0, 1.7296928840232496E9, 0.0, 2024-10-23 19:44:44.023
155.0, 9993.554352945608, 33327.88149450797, 38062.785632942396, 14460.43872361645, 24560.521490636052, 23186.805628157334, 187500.0, 187500.0, 0.218, 0.9480000000000001, -0.134, 192.0, 0.0, 0.0, 0.0, 0.0, 0.0, 0.0, 0.0, 0.0, 0.0, 1.7296928840272486E9, 0.0, 2024-10-23 19:44:44.027
156.0, 9970.129724756447, 33515.412630488, 38063.143260853685, 14452.034467701253, 24568.322249450954, 23234.794823502878, 187500.0, 187500.0, 0.218, 0.9480000000000001, -0.134, 192.0, 0.0, 0.0, 0.0, 0.0, 0.0, 0.0, 0.0, 0.0, 0.0, 1.7296928840302043E9, 0.0, 2024-10-23 19:44:44.030
157.0, 9996.974169847272, 33563.670046767, 38073.04508364738, 14462.070400961686, 24575.988897799125, 23237.968771215532, 187500.0, 187500.0, 0.218, 0.9480000000000001, -0.134, 192.0, 0.0, 0.0, 0.0, 0.0, 0.0, 0.0, 0.0, 0.0, 0.0, 1.7296928840342057E9, 0.0, 2024-10-23 19:44:44.034
158.0, 10025.36088530551, 33457.76748153776, 38079.571793028335, 14476.040241246254, 24578.179368755744, 23222.769584985923, 187500.0, 187500.0, 0.218, 0.9480000000000001, -0.134, 192.0, 0.0, 0.0, 0.0, 0.0, 0.0, 0.0, 0.0, 0.0, 0.0, 1.7296928840381625E9, 0.0, 2024-10-23 19:44:44.038
159.0, 10046.907966960427, 33299.00304067171, 38083.59510703029, 14474.38621215656, 24560.566194124964, 23159.335334221763, 187500.0, 187500.0, 0.224, 0.9460000000000001, -0.13, 192.0, 7.0, 0.0, 29.0, 144.0, 251.0, 240.0, 0.0, 0.0, 0.0, 1.7296928840423896E9, 0.0, 2024-10-23 19:44:44.042
160.0, 10006.317199029589, 33295.71733423678, 38072.151013869174, 14472.48631387786, 24562.644906359306, 23233.990160702488, 187500.0, 187500.0, 0.224, 0.9460000000000001, -0.13, 192.0, 0.0, 0.0, 0.0, 0.0, 0.0, 0.0, 0.0, 0.0, 0.0, 1.72969288404618E9, 0.0, 2024-10-23 19:44:44.046
161.0, 9984.54659993012, 33486.467121418376, 38064.84199343229, 14453.86731074659, 24560.43208365823, 23229.720977511523, 187500.0, 187500.0, 0.224, 0.9460000000000001, -0.13, 192.0, 0.0, 0.0, 0.0, 0.0, 0.0, 0.0, 0.0, 0.0, 0.0, 1.7296928840512028E9, 0.0, 2024-10-23 19:44:44.051
162.0, 10007.4124345079, 33536.646787720536, 38068.239458589494, 14448.748761266323, 24565.885909305325, 23212.241913347472, 187500.0, 187500.0, 0.224, 0.9460000000000001, -0.13, 192.0, 0.0, 0.0, 0.0, 0.0, 0.0, 0.0, 0.0, 0.0, 0.0, 1.729692884055296E9, 0.0, 2024-10-23 19:44:44.055
163.0, 10036.55910927762, 33442.76946100825, 38070.96637141304, 14465.490217863347, 24557.81692955696, 23231.911448468145, 187500.0, 187500.0, 0.224, 0.9460000000000001, -0.13, 192.0, 0.0, 0.0, 0.0, 0.0, 0.0, 0.0, 0.0, 0.0, 0.0, 1.7296928840583098E9, 0.0, 2024-10-23 19:44:44.058
164.0, 10055.17811240889, 33291.64931674592, 38067.39009230019, 14468.48535162036, 24555.626458600338, 23206.609273744736, 187500.0, 187500.0, 0.224, 0.9460000000000001, -0.13, 192.0, 0.0, 0.0, 0.0, 0.0, 0.0, 0.0, 0.0, 0.0, 0.0, 1.7296928840622797E9, 0.0, 2024-10-23 19:44:44.062
165.0, 10014.207364822312, 33292.72220047977, 38057.734138695494, 14455.297822391729, 24555.872327789348, 23210.342015068774, 187500.0, 187500.0, 0.224, 0.9460000000000001, -0.13, 192.0, 0.0, 0.0, 0.0, 0.0, 0.0, 0.0, 0.0, 0.0, 0.0, 1.7296928840662541E9, 0.0, 2024-10-23 19:44:44.066
166.0, 9988.88283835445, 33479.98511552633, 38053.66612120463, 14430.532089535249, 24554.28535393302, 23221.227314618507, 187500.0, 187500.0, 0.224, 0.9460000000000001, -0.13, 192.0, 0.0, 0.0, 0.0, 0.0, 0.0, 0.0, 0.0, 0.0, 0.0, 1.7296928840702665E9, 0.0, 2024-10-23 19:44:44.070
167.0, 10016.330780545566, 33528.64486320554, 38063.92557190962, 14428.498080789816, 24566.422351172252, 23215.661730249136, 187500.0, 187500.0, 0.224, 0.9460000000000001, -0.13, 192.0, 0.0, 0.0, 0.0, 0.0, 0.0, 0.0, 0.0, 0.0, 0.0, 1.7296928840742264E9, 0.0, 2024-10-23 19:44:44.074
168.0, 10035.575632521586, 33418.09313512959, 38058.33763579579, 14425.346484821617, 24549.502080619586, 23179.898939120645, 187500.0, 187500.0, 0.224, 0.9460000000000001, -0.13, 192.0, 0.0, 0.0, 0.0, 0.0, 0.0, 0.0, 0.0, 0.0, 0.0, 1.7296928840793347E9, 0.0, 2024-10-23 19:44:44.079
169.0, 10055.17811240889, 33262.3014762761, 38060.259885818945, 14431.42615931346, 24549.94911550869, 23174.44511347355, 187500.0, 187500.0, 0.226, 0.9460000000000001, -0.128, 192.0, 7.0, 16.0, 29.0, 144.0, 252.0, 0.0, 0.0, 0.0, 0.0, 1.7296928840834267E9, 0.0, 2024-10-23 19:44:44.083
170.0, 10012.530983988165, 33260.15570880839, 38048.41346125764, 14419.557383007692, 24549.032693986024, 23201.513076008927, 187500.0, 187500.0, 0.226, 0.9460000000000001, -0.128, 192.0, 0.0, 0.0, 0.0, 0.0, 0.0, 0.0, 0.0, 0.0, 0.0, 1.7296928840862284E9, 0.0, 2024-10-23 19:44:44.086
171.0, 9981.529114428653, 33436.91330396096, 38040.00920534244, 14394.970464106855, 24557.10167373439, 23219.0815471508, 187500.0, 187500.0, 0.226, 0.9460000000000001, -0.128, 192.0, 0.0, 0.0, 0.0, 0.0, 0.0, 0.0, 0.0, 0.0, 0.0, 1.7296928840913503E9, 0.0, 2024-10-23 19:44:44.091
172.0, 10000.572800704575, 33477.05703700269, 38045.61949320072, 14396.020996096255, 24557.705170834684, 23211.481954035993, 187500.0, 187500.0, 0.226, 0.9460000000000001, -0.128, 192.0, 0.0, 0.0, 0.0, 0.0, 0.0, 0.0, 0.0, 0.0, 0.0, 1.7296928840953026E9, 0.0, 2024-10-23 19:44:44.095
173.0, 10024.310353316112, 33370.84154735107, 38047.76526066843, 14408.739138691324, 24549.211507941665, 23190.560721225826, 187500.0, 187500.0, 0.226, 0.9460000000000001, -0.128, 192.0, 0.0, 0.0, 0.0, 0.0, 0.0, 0.0, 0.0, 0.0, 0.0, 1.7296928840982223E9, 0.0, 2024-10-23 19:44:44.098
174.0, 10038.74958023424, 33211.25009194018, 38049.28517929139, 14417.635132984537, 24553.793615555005, 23179.496607720448, 187500.0, 187500.0, 0.226, 0.9460000000000001, -0.128, 192.0, 0.0, 0.0, 0.0, 0.0, 0.0, 0.0, 0.0, 0.0, 0.0, 1.7296928841022627E9, 0.0, 2024-10-23 19:44:44.102
175.0, 9985.887704597439, 33200.70006855727, 38030.93439709359, 14401.541876976715, 24534.07937694542, 23182.64820368865, 187500.0, 187500.0, 0.226, 0.9460000000000001, -0.128, 192.0, 0.0, 0.0, 0.0, 0.0, 0.0, 0.0, 0.0, 0.0, 0.0, 1.7296928841063852E9, 0.0, 2024-10-23 19:44:44.106
176.0, 9963.714774097774, 33386.21954753632, 38037.394051241165, 14387.080298314131, 24549.18915619721, 23205.916369666622, 187500.0, 187500.0, 0.226, 0.9460000000000001, -0.128, 192.0, 0.0, 0.0, 0.0, 0.0, 0.0, 0.0, 0.0, 0.0, 0.0, 1.7296928841123655E9, 0.0, 2024-10-23 19:44:44.112
177.0, 9987.78760287614, 33431.772402736235, 38052.012092114936, 14395.931589118432, 24569.23867097362, 23204.68702372158, 187500.0, 187500.0, 0.226, 0.9460000000000001, -0.128, 192.0, 0.0, 0.0, 0.0, 0.0, 0.0, 0.0, 0.0, 0.0, 0.0, 1.729692884115342E9, 0.0, 2024-10-23 19:44:44.115
178.0, 10017.671885212885, 33332.709471310314, 38064.462013776545, 14416.338731806129, 24576.927671066245, 23211.303140080352, 187500.0, 187500.0, 0.226, 0.9460000000000001, -0.128, 192.0, 0.0, 0.0, 0.0, 0.0, 0.0, 0.0, 0.0, 0.0, 0.0, 1.7296928841302872E9, 0.0, 2024-10-23 19:44:44.130
179.0, 10040.18009187938, 33183.91390847134, 38068.999417900974, 14431.783787224746, 24576.212415243677, 23196.171009084108, 187500.0, 187500.0, 0.22, 0.9500000000000001, -0.126, 192.0, 6.0, 224.0, 29.0, 176.0, 252.0, 16.0, 0.0, 0.0, 0.0, 1.729692884130344E9, 0.0, 2024-10-23 19:44:44.130
180.0, 9992.280303511656, 33184.830329994, 38052.4814787485, 14418.305685318195, 24551.446682387195, 23173.8192646288, 187500.0, 187500.0, 0.22, 0.9500000000000001, -0.126, 192.0, 0.0, 0.0, 0.0, 0.0, 0.0, 0.0, 0.0, 0.0, 0.0, 1.7296928841303737E9, 0.0, 2024-10-23 19:44:44.130
181.0, 9971.649643379407, 33378.95523058835, 38055.20839157205, 14413.768281193768, 24559.82858655794, 23221.74140474098, 187500.0, 187500.0, 0.22, 0.9500000000000001, -0.126, 192.0, 0.0, 0.0, 0.0, 0.0, 0.0, 0.0, 0.0, 0.0, 0.0, 1.729692884130402E9, 0.0, 2024-10-23 19:44:44.130
182.0, 10002.919733872382, 33436.958007449866, 38067.457147533554, 14432.610801769591, 24572.457322175185, 23245.300143396875, 187500.0, 187500.0, 0.22, 0.9500000000000001, -0.126, 192.0, 0.0, 0.0, 0.0, 0.0, 0.0, 0.0, 0.0, 0.0, 0.0, 1.7296928841353118E9, 0.0, 2024-10-23 19:44:44.135
183.0, 10031.954649919826, 33345.62877960548, 38073.44741504758, 14447.273546132274, 24570.49036866312, 23208.755041212447, 187500.0, 187500.0, 0.22, 0.9500000000000001, -0.126, 192.0, 0.0, 0.0, 0.0, 0.0, 0.0, 0.0, 0.0, 0.0, 0.0, 1.7296928841393735E9, 0.0, 2024-10-23 19:44:44.139
184.0, 10045.61156578202, 33195.15683593236, 38070.742853968484, 14454.157883424508, 24568.210490728678, 23187.230311301984, 187500.0, 187500.0, 0.22, 0.9500000000000001, -0.126, 192.0, 0.0, 0.0, 0.0, 0.0, 0.0, 0.0, 0.0, 0.0, 0.0, 1.7296928841423004E9, 0.0, 2024-10-23 19:44:44.142
185.0, 10003.366768761489, 33211.071277984534, 38059.05289161836, 14455.230767158362, 24561.147339480798, 23231.59852404577, 187500.0, 187500.0, 0.22, 0.9500000000000001, -0.126, 192.0, 0.0, 0.0, 0.0, 0.0, 0.0, 0.0, 0.0, 0.0, 0.0, 1.729692884146322E9, 0.0, 2024-10-23 19:44:44.146
186.0, 9974.488314925233, 33397.06014359715, 38051.810926414844, 14436.723522749367, 24560.18621446922, 23239.913372983145, 187500.0, 187500.0, 0.22, 0.9500000000000001, -0.126, 192.0, 0.0, 0.0, 0.0, 0.0, 0.0, 0.0, 0.0, 0.0, 0.0, 1.729692884150447E9, 0.0, 2024-10-23 19:44:44.150
187.0, 9997.845887881027, 33439.28258887322, 38055.18603982759, 14439.539842550737, 24558.3980749128, 23224.64713152017, 187500.0, 187500.0, 0.22, 0.9500000000000001, -0.126, 192.0, 0.0, 0.0, 0.0, 0.0, 0.0, 0.0, 0.0, 0.0, 0.0, 1.7296928841543162E9, 0.0, 2024-10-23 19:44:44.154
188.0, 10032.044056897648, 33341.538410370165, 38063.970275398526, 14453.509682835303, 24556.498176634097, 23204.865837677222, 187500.0, 187500.0, 0.22, 0.9500000000000001, -0.126, 192.0, 0.0, 0.0, 0.0, 0.0, 0.0, 0.0, 0.0, 0.0, 0.0, 1.729692884158337E9, 0.0, 2024-10-23 19:44:44.158
189.0, 10054.84283624206, 33187.19961490627, 38065.89252542168, 14461.310441650206, 24552.340752165408, 23195.96984338401, 187500.0, 187500.0, 0.22, 0.9520000000000001, -0.132, 192.0, 6.0, 224.0, 29.0, 192.0, 251.0, 224.0, 0.0, 0.0, 0.0, 1.729692884162462E9, 0.0, 2024-10-23 19:44:44.162
190.0, 10007.45713799681, 33185.45617883875, 38046.088879834286, 14443.518453063782, 24545.299952661986, 23202.11657310922, 187500.0, 187500.0, 0.22, 0.9520000000000001, -0.132, 192.0, 0.0, 0.0, 0.0, 0.0, 0.0, 0.0, 0.0, 0.0, 0.0, 1.7296928841684468E9, 0.0, 2024-10-23 19:44:44.168
191.0, 9989.866315110483, 33369.83571885058, 38045.373624011714, 14422.954848164898, 24552.18428995422, 23216.064061649333, 187500.0, 187500.0, 0.22, 0.9520000000000001, -0.132, 192.0, 0.0, 0.0, 0.0, 0.0, 0.0, 0.0, 0.0, 0.0, 0.0, 1.729692884171458E9, 0.0, 2024-10-23 19:44:44.171
192.0, 10016.576649734576, 33407.878387913515, 38052.86145840424, 14420.406749296993, 24556.922859778748, 23188.034974102375, 187500.0, 187500.0, 0.22, 0.9520000000000001, -0.132, 192.0, 0.0, 0.0, 0.0, 0.0, 0.0, 0.0, 0.0, 0.0, 0.0, 1.729692884175462E9, 0.0, 2024-10-23 19:44:44.175
193.0, 10040.470664557299, 33292.72220047977, 38053.5320107379, 14414.908220160989, 24555.0453132445, 23130.09925247422, 187500.0, 187500.0, 0.22, 0.9520000000000001, -0.132, 192.0, 0.0, 0.0, 0.0, 0.0, 0.0, 0.0, 0.0, 0.0, 0.0, 1.7296928841784818E9, 0.0, 2024-10-23 19:44:44.178
194.0, 10065.817542769617, 33141.6244079619, 38061.64569397517, 14430.174461623963, 24551.80431029848, 23174.19924428454, 187500.0, 187500.0, 0.22, 0.9520000000000001, -0.132, 192.0, 0.0, 0.0, 0.0, 0.0, 0.0, 0.0, 0.0, 0.0, 0.0, 1.729692884182374E9, 0.0, 2024-10-23 19:44:44.182
195.0, 10015.07908285607, 33140.529172483584, 38042.17732455461, 14420.317342319173, 24533.609990311863, 23207.101012122752, 187500.0, 187500.0, 0.22, 0.9520000000000001, -0.132, 192.0, 0.0, 0.0, 0.0, 0.0, 0.0, 0.0, 0.0, 0.0, 0.0, 1.7296928841864564E9, 0.0, 2024-10-23 19:44:44.186
196.0, 9987.273512753667, 33312.659956533906, 38035.40474598465, 14391.930626860933, 24548.608010841373, 23212.197209858565, 187500.0, 187500.0, 0.22, 0.9520000000000001, -0.132, 192.0, 0.0, 0.0, 0.0, 0.0, 0.0, 0.0, 0.0, 0.0, 0.0, 1.7296928841903455E9, 0.0, 2024-10-23 19:44:44.190
197.0, 10013.55916423311, 33350.344997685555, 38048.23464730199, 14399.351406020094, 24567.67404886175, 23236.538259570392, 187500.0, 187500.0, 0.22, 0.9520000000000001, -0.132, 192.0, 0.0, 0.0, 0.0, 0.0, 0.0, 0.0, 0.0, 0.0, 0.0, 1.7296928841953683E9, 0.0, 2024-10-23 19:44:44.195
198.0, 10035.84385345505, 33239.949731820794, 38053.75552818245, 14412.449528270905, 24561.169691225256, 23224.982407687, 187500.0, 187500.0, 0.22, 0.9520000000000001, -0.132, 192.0, 0.0, 0.0, 0.0, 0.0, 0.0, 0.0, 0.0, 0.0, 0.0, 1.729692884198402E9, 0.0, 2024-10-23 19:44:44.198
199.0, 10043.421094825399, 33073.988029240136, 38043.071394332816, 14410.683740458935, 24542.081301460425, 23194.807552672333, 187500.0, 187500.0, 0.22, 0.9460000000000001, -0.132, 192.0, 6.0, 224.0, 29.0, 144.0, 251.0, 224.0, 0.0, 0.0, 0.0, 1.7296928842024083E9, 0.0, 2024-10-23 19:44:44.202
200.0, 10002.875030383471, 33085.70034333472, 38031.80611512734, 14399.776089164745, 24548.205679441176, 23192.05828810433, 187500.0, 187500.0, 0.22, 0.9460000000000001, -0.132, 192.0, 0.0, 0.0, 0.0, 0.0, 0.0, 0.0, 0.0, 0.0, 0.0, 1.72969288420639E9, 0.0, 2024-10-23 19:44:44.206
201.0, 9978.243407993723, 33268.403502512396, 38031.06850756032, 14382.252321511785, 24563.404865670786, 23200.283730063886, 187500.0, 187500.0, 0.22, 0.9460000000000001, -0.132, 192.0, 0.0, 0.0, 0.0, 0.0, 0.0, 0.0, 0.0, 0.0, 0.0, 1.7296928842103755E9, 0.0, 2024-10-23 19:44:44.210
202.0, 9995.208382035302, 33302.62402327347, 38034.01893782842, 14383.504019201282, 24568.38930468432, 23204.038823132378, 187500.0, 187500.0, 0.22, 0.9460000000000001, -0.132, 192.0, 0.0, 0.0, 0.0, 0.0, 0.0, 0.0, 0.0, 0.0, 0.0, 1.729692884214416E9, 0.0, 2024-10-23 19:44:44.214
203.0, 10017.738940446252, 33197.436713866795, 38036.499981462955, 14393.741118161812, 24557.52635687904, 23178.848407131245, 187500.0, 187500.0, 0.22, 0.9460000000000001, -0.132, 192.0, 0.0, 0.0, 0.0, 0.0, 0.0, 0.0, 0.0, 0.0, 0.0, 1.729692884218432E9, 0.0, 2024-10-23 19:44:44.218
204.0, 10034.79332146565, 33045.62366552635, 38040.16566755363, 14414.595295738614, 24559.694476091205, 23208.486820278984, 187500.0, 187500.0, 0.22, 0.9460000000000001, -0.132, 192.0, 0.0, 0.0, 0.0, 0.0, 0.0, 0.0, 0.0, 0.0, 0.0, 1.729692884223403E9, 0.0, 2024-10-23 19:44:44.223
205.0, 9982.959626073793, 33052.06096792948, 38020.965519066514, 14404.984045622832, 24540.67314155974, 23206.11753536672, 187500.0, 187500.0, 0.22, 0.9460000000000001, -0.132, 192.0, 0.0, 0.0, 0.0, 0.0, 0.0, 0.0, 0.0, 0.0, 0.0, 1.7296928842273946E9, 0.0, 2024-10-23 19:44:44.227
206.0, 9959.378535673444, 33234.27238872914, 38016.69633587555, 14386.32033900265, 24539.0414642145, 23207.34688131176, 187500.0, 187500.0, 0.22, 0.9460000000000001, -0.132, 192.0, 0.0, 0.0, 0.0, 0.0, 0.0, 0.0, 0.0, 0.0, 0.0, 1.729692884230562E9, 0.0, 2024-10-23 19:44:44.230
207.0, 9985.887704597439, 33273.656162459396, 38030.5767691823, 14398.010301352777, 24556.72169407865, 23216.756965727447, 187500.0, 187500.0, 0.22, 0.9460000000000001, -0.132, 192.0, 0.0, 0.0, 0.0, 0.0, 0.0, 0.0, 0.0, 0.0, 0.0, 1.7296928842344368E9, 0.0, 2024-10-23 19:44:44.234
208.0, 10013.045074110636, 33169.11705364192, 38038.735155908485, 14417.27750507325, 24549.792653297503, 23209.336186568285, 187500.0, 187500.0, 0.22, 0.9460000000000001, -0.132, 192.0, 0.0, 0.0, 0.0, 0.0, 0.0, 0.0, 0.0, 0.0, 0.0, 1.7296928842384703E9, 0.0, 2024-10-23 19:44:44.238
209.0, 10033.385161564966, 33022.2437408261, 38043.4290222441, 14434.220127370374, 24542.28246716052, 23188.616119458213, 187500.0, 187500.0, 0.216, 0.9520000000000001, -0.132, 192.0, 6.0, 192.0, 29.0, 192.0, 251.0, 224.0, 0.0, 0.0, 0.0, 1.7296928842424707E9, 0.0, 2024-10-23 19:44:44.242
210.0, 9985.26185575269, 33035.051290398995, 38029.436830215076, 14424.363008065584, 24538.370911880844, 23178.82605538679, 187500.0, 187500.0, 0.216, 0.9520000000000001, -0.132, 192.0, 0.0, 0.0, 0.0, 0.0, 0.0, 0.0, 0.0, 0.0, 0.0, 1.7296928842465796E9, 0.0, 2024-10-23 19:44:44.246
211.0, 9963.82653282005, 33220.48136240022, 38027.33576623628, 14407.934475890932, 24541.634266571316, 23200.864875419724, 187500.0, 187500.0, 0.216, 0.9520000000000001, -0.132, 192.0, 0.0, 0.0, 0.0, 0.0, 0.0, 0.0, 0.0, 0.0, 0.0, 1.729692884251616E9, 0.0, 2024-10-23 19:44:44.251
212.0, 9997.845887881027, 33266.72712167825, 38042.73611816599, 14420.451452785905, 24546.641057329307, 23204.664671977123, 187500.0, 187500.0, 0.216, 0.9520000000000001, -0.132, 192.0, 0.0, 0.0, 0.0, 0.0, 0.0, 0.0, 0.0, 0.0, 0.0, 1.7296928842545347E9, 0.0, 2024-10-23 19:44:44.254
213.0, 10027.730170217774, 33166.72541698521, 38050.00043511396, 14436.075322160164, 24552.787787054516, 23198.562645740825, 187500.0, 187500.0, 0.216, 0.9520000000000001, -0.132, 192.0, 0.0, 0.0, 0.0, 0.0, 0.0, 0.0, 0.0, 0.0, 0.0, 1.7296928842584648E9, 0.0, 2024-10-23 19:44:44.258
214.0, 10050.216025139813, 33019.025089624534, 38057.331807295304, 14445.95479320941, 24555.022961500046, 23201.53542775338, 187500.0, 187500.0, 0.216, 0.9520000000000001, -0.132, 192.0, 0.0, 0.0, 0.0, 0.0, 0.0, 0.0, 0.0, 0.0, 0.0, 1.7296928842625065E9, 0.0, 2024-10-23 19:44:44.262
215.0, 10002.718568172284, 33033.26315084257, 38039.83039138679, 14432.38728432504, 24538.48267060312, 23211.97369241401, 187500.0, 187500.0, 0.216, 0.9520000000000001, -0.132, 192.0, 0.0, 0.0, 0.0, 0.0, 0.0, 0.0, 0.0, 0.0, 0.0, 1.7296928842665932E9, 0.0, 2024-10-23 19:44:44.266
216.0, 9981.529114428653, 33217.307414687566, 38034.01893782842, 14405.006397367288, 24538.728539792126, 23206.273997577908, 187500.0, 187500.0, 0.216, 0.9520000000000001, -0.132, 192.0, 0.0, 0.0, 0.0, 0.0, 0.0, 0.0, 0.0, 0.0, 0.0, 1.7296928842705808E9, 0.0, 2024-10-23 19:44:44.270
217.0, 10012.732149688263, 33263.32965652104, 38044.07722283331, 14409.56615323617, 24544.405882883773, 23204.865837677222, 187500.0, 187500.0, 0.216, 0.9520000000000001, -0.132, 192.0, 0.0, 0.0, 0.0, 0.0, 0.0, 0.0, 0.0, 0.0, 0.0, 1.7296928842745016E9, 0.0, 2024-10-23 19:44:44.274
218.0, 10041.990583180259, 33165.2278501067, 38054.448432260564, 14423.312476076184, 24550.91024052027, 23205.335224310784, 187500.0, 187500.0, 0.216, 0.9520000000000001, -0.132, 192.0, 0.0, 0.0, 0.0, 0.0, 0.0, 0.0, 0.0, 0.0, 0.0, 1.729692884279501E9, 0.0, 2024-10-23 19:44:44.279
219.0, 10058.08383918808, 33009.50324648658, 38052.794403170876, 14426.307609833195, 24540.181403181723, 23185.799799656845, 187500.0, 187500.0, 0.216, 0.9520000000000001, -0.132, 192.0, 6.0, 192.0, 29.0, 192.0, 251.0, 224.0, 0.0, 0.0, 0.0, 1.7296928842837217E9, 0.0, 2024-10-23 19:44:44.283
220.0, 10006.853640896517, 33015.82879016743, 38034.84595237326, 14401.631283954535, 24530.704263532672, 23176.032087329877, 187500.0, 187500.0, 0.216, 0.9520000000000001, -0.132, 192.0, 0.0, 0.0, 0.0, 0.0, 0.0, 0.0, 0.0, 0.0, 0.0, 1.729692884286534E9, 0.0, 2024-10-23 19:44:44.286
221.0, 9988.838134865538, 33197.48141735571, 38047.34057752378, 14384.867475613055, 24569.931575051734, 23223.21661987503, 187500.0, 187500.0, 0.216, 0.9520000000000001, -0.132, 192.0, 0.0, 0.0, 0.0, 0.0, 0.0, 0.0, 0.0, 0.0, 0.0, 1.7296928842905393E9, 0.0, 2024-10-23 19:44:44.290
222.0, 10016.55429799012, 33235.85936258547, 38063.25501957596, 14390.880094871532, 24581.263909490575, 23231.576172301313, 187500.0, 187500.0, 0.216, 0.9520000000000001, -0.132, 192.0, 0.0, 0.0, 0.0, 0.0, 0.0, 0.0, 0.0, 0.0, 0.0, 1.7296928842945611E9, 0.0, 2024-10-23 19:44:44.294
223.0, 10047.958498949827, 33134.96358811422, 38070.72050222403, 14404.738176433824, 24574.67014487626, 23221.473183807517, 187500.0, 187500.0, 0.216, 0.9520000000000001, -0.132, 192.0, 0.0, 0.0, 0.0, 0.0, 0.0, 0.0, 0.0, 0.0, 0.0, 1.729692884298631E9, 0.0, 2024-10-23 19:44:44.298
224.0, 10054.552263564143, 32964.777405831504, 38054.80606017185, 14400.647807198502, 24546.43989162921, 23184.92808162309, 187500.0, 187500.0, 0.216, 0.9520000000000001, -0.132, 192.0, 0.0, 0.0, 0.0, 0.0, 0.0, 0.0, 0.0, 0.0, 0.0, 1.7296928843025303E9, 0.0, 2024-10-23 19:44:44.302
225.0, 10006.496012985232, 32971.46057742364, 38036.2764640184, 14384.152219790485, 24551.692551576205, 23186.33624152377, 187500.0, 187500.0, 0.216, 0.9520000000000001, -0.132, 192.0, 0.0, 0.0, 0.0, 0.0, 0.0, 0.0, 0.0, 0.0, 0.0, 1.7296928843075287E9, 0.0, 2024-10-23 19:44:44.307
226.0, 9990.805088377607, 33149.73809119917, 38036.634091929685, 14370.897635328489, 24562.354333681385, 23201.513076008927, 187500.0, 187500.0, 0.216, 0.9520000000000001, -0.132, 192.0, 0.0, 0.0, 0.0, 0.0, 0.0, 0.0, 0.0, 0.0, 0.0, 1.729692884311561E9, 0.0, 2024-10-23 19:44:44.311
227.0, 10017.090739857047, 33182.39398984837, 38044.23368504449, 14382.878170356533, 24562.197871470198, 23209.179724357098, 187500.0, 187500.0, 0.216, 0.9520000000000001, -0.132, 192.0, 0.0, 0.0, 0.0, 0.0, 0.0, 0.0, 0.0, 0.0, 0.0, 1.7296928843156068E9, 0.0, 2024-10-23 19:44:44.315
228.0, 10043.622260525497, 33077.18432869724, 38046.982949612495, 14399.932551375932, 24556.0958452339, 23201.803648686844, 187500.0, 187500.0, 0.216, 0.9520000000000001, -0.132, 192.0, 0.0, 0.0, 0.0, 0.0, 0.0, 0.0, 0.0, 0.0, 0.0, 1.7296928843186471E9, 0.0, 2024-10-23 19:44:44.318
229.0, 10063.761182279728, 32927.53939956897, 38048.83814440229, 14411.37664453705, 24549.81500504196, 23190.471314248003, 187500.0, 187500.0, 0.214, 0.9500000000000001, -0.13, 192.0, 6.0, 176.0, 29.0, 176.0, 251.0, 240.0, 0.0, 0.0, 0.0, 1.7296928843225517E9, 0.0, 2024-10-23 19:44:44.322
230.0, 10006.898344385427, 32934.6249025613, 38024.43003945709, 14393.450545483893, 24530.95013272168, 23183.63168044468, 187500.0, 187500.0, 0.214, 0.9500000000000001, -0.13, 192.0, 0.0, 0.0, 0.0, 0.0, 0.0, 0.0, 0.0, 0.0, 0.0, 1.7296928843271542E9, 0.0, 2024-10-23 19:44:44.327
231.0, 9987.742899387229, 33112.27656749208, 38022.53014117839, 14376.262053997763, 24537.275676402533, 23193.242930560464, 187500.0, 187500.0, 0.214, 0.9500000000000001, -0.13, 192.0, 0.0, 0.0, 0.0, 0.0, 0.0, 0.0, 0.0, 0.0, 0.0, 1.7296928843338096E9, 0.0, 2024-10-23 19:44:44.333
232.0, 10010.653437453919, 33143.85958240743, 38027.894559847664, 14381.09003080011, 24541.634266571316, 23204.64232023267, 187500.0, 187500.0, 0.214, 0.9500000000000001, -0.13, 192.0, 0.0, 0.0, 0.0, 0.0, 0.0, 0.0, 0.0, 0.0, 0.0, 1.7296928843357372E9, 0.0, 2024-10-23 19:44:44.335
233.0, 10034.189824365358, 33039.61104626788, 38032.946054094566, 14399.261999042274, 24540.628438070828, 23193.98053812749, 187500.0, 187500.0, 0.214, 0.9500000000000001, -0.13, 192.0, 0.0, 0.0, 0.0, 0.0, 0.0, 0.0, 0.0, 0.0, 0.0, 1.7296928843386033E9, 0.0, 2024-10-23 19:44:44.338
234.0, 10045.924490204394, 32884.244070559034, 38028.386298225676, 14404.268789800262, 24535.442833357196, 23156.183738253563, 187500.0, 187500.0, 0.214, 0.9500000000000001, -0.13, 192.0, 0.0, 0.0, 0.0, 0.0, 0.0, 0.0, 0.0, 0.0, 0.0, 1.7296928843425863E9, 0.0, 2024-10-23 19:44:44.342
235.0, 9997.823536136573, 32900.87376843378, 38019.4232486991, 14392.46706872786, 24530.704263532672, 23164.744456379947, 187500.0, 187500.0, 0.214, 0.9500000000000001, -0.13, 192.0, 0.0, 0.0, 0.0, 0.0, 0.0, 0.0, 0.0, 0.0, 0.0, 1.7296928843466072E9, 0.0, 2024-10-23 19:44:44.346
236.0, 9977.3046347266, 33078.525433364564, 38020.29496673286, 14380.955920333377, 24538.66148455876, 23196.59569222876, 187500.0, 187500.0, 0.214, 0.9500000000000001, -0.13, 192.0, 0.0, 0.0, 0.0, 0.0, 0.0, 0.0, 0.0, 0.0, 0.0, 1.7296928843505898E9, 0.0, 2024-10-23 19:44:44.350
237.0, 10011.525155487676, 33123.22892227518, 38039.31630126433, 14403.240609555318, 24551.71490332066, 23219.863858206732, 187500.0, 187500.0, 0.214, 0.9500000000000001, -0.13, 192.0, 0.0, 0.0, 0.0, 0.0, 0.0, 0.0, 0.0, 0.0, 0.0, 1.7296928843546977E9, 0.0, 2024-10-23 19:44:44.354
238.0, 10039.263670356711, 33026.06588912796, 38047.0276531014, 14419.535031263236, 24545.746987551094, 23193.377041027194, 187500.0, 187500.0, 0.214, 0.9500000000000001, -0.13, 192.0, 0.0, 0.0, 0.0, 0.0, 0.0, 0.0, 0.0, 0.0, 0.0, 1.7296928843606284E9, 0.0, 2024-10-23 19:44:44.360
239.0, 10060.743696778261, 32881.29364029093, 38055.655426461155, 14432.47669130286, 24546.775167796037, 23178.73664840897, 187500.0, 187500.0, 0.22, 0.9560000000000001, -0.13, 192.0, 6.0, 224.0, 29.0, 224.0, 251.0, 240.0, 0.0, 0.0, 0.0, 1.7296928843637092E9, 0.0, 2024-10-23 19:44:44.363
240.0, 10013.782681677661, 32900.7173062226, 38046.64767344567, 14420.339694063628, 24543.80238578348, 23200.417840530616, 187500.0, 187500.0, 0.22, 0.9560000000000001, -0.13, 192.0, 0.0, 0.0, 0.0, 0.0, 0.0, 0.0, 0.0, 0.0, 0.0, 1.7296928843667405E9, 0.0, 2024-10-23 19:44:44.366
241.0, 9993.21907677878, 33074.39036064033, 38044.99364435597, 14399.641978698013, 24548.38449339682, 23200.887227164178, 187500.0, 187500.0, 0.22, 0.9560000000000001, -0.13, 192.0, 0.0, 0.0, 0.0, 0.0, 0.0, 0.0, 0.0, 0.0, 0.0, 1.7296928843708537E9, 0.0, 2024-10-23 19:44:44.370
242.0, 10020.242335825245, 33107.58270115646, 38056.37068228373, 14403.41942351096, 24549.32326666394, 23197.847389918257, 187500.0, 187500.0, 0.22, 0.9560000000000001, -0.13, 192.0, 0.0, 0.0, 0.0, 0.0, 0.0, 0.0, 0.0, 0.0, 0.0, 1.7296928843737216E9, 0.0, 2024-10-23 19:44:44.373
243.0, 10048.718458261306, 33008.05038309698, 38069.848784190275, 14428.028694156254, 24568.076380261944, 23251.51392835545, 187500.0, 187500.0, 0.22, 0.9560000000000001, -0.13, 192.0, 0.0, 0.0, 0.0, 0.0, 0.0, 0.0, 0.0, 0.0, 0.0, 1.7296928843786936E9, 0.0, 2024-10-23 19:44:44.378
244.0, 10066.689260803374, 32856.93023883465, 38068.91001092315, 14437.394075083028, 24560.409731913776, 23235.040692691888, 187500.0, 187500.0, 0.22, 0.9560000000000001, -0.13, 192.0, 0.0, 0.0, 0.0, 0.0, 0.0, 0.0, 0.0, 0.0, 0.0, 1.7296928843827057E9, 0.0, 2024-10-23 19:44:44.382
245.0, 10012.463928754798, 32867.6590761732, 38045.664196689635, 14405.431080511938, 24545.9928567401, 23198.74145969647, 187500.0, 187500.0, 0.22, 0.9560000000000001, -0.13, 192.0, 0.0, 0.0, 0.0, 0.0, 0.0, 0.0, 0.0, 0.0, 0.0, 1.729692884386741E9, 0.0, 2024-10-23 19:44:44.386
246.0, 9998.225867536768, 33049.4011103393, 38048.6816821911, 14386.633263425025, 24560.901470291792, 23228.134003655196, 187500.0, 187500.0, 0.22, 0.9560000000000001, -0.13, 192.0, 0.0, 0.0, 0.0, 0.0, 0.0, 0.0, 0.0, 0.0, 0.0, 1.7296928843907387E9, 0.0, 2024-10-23 19:44:44.390
247.0, 10019.50472825822, 33078.70424732021, 38050.29100779188, 14383.079336056631, 24555.827624300437, 23226.904657710154, 187500.0, 187500.0, 0.22, 0.9560000000000001, -0.13, 192.0, 0.0, 0.0, 0.0, 0.0, 0.0, 0.0, 0.0, 0.0, 0.0, 1.7296928843947923E9, 0.0, 2024-10-23 19:44:44.394
248.0, 10038.928394189883, 32971.10294951236, 38049.75456592495, 14380.441830210904, 24549.122100963843, 23201.647186475657, 187500.0, 187500.0, 0.22, 0.9560000000000001, -0.13, 192.0, 0.0, 0.0, 0.0, 0.0, 0.0, 0.0, 0.0, 0.0, 0.0, 1.729692884398711E9, 0.0, 2024-10-23 19:44:44.398
249.0, 10063.314147390622, 32830.8010495664, 38062.1821358421, 14392.198847794396, 24567.405827928287, 23209.090317379276, 187500.0, 187500.0, 0.22, 0.9560000000000001, -0.13, 192.0, 0.0, 0.0, 0.0, 0.0, 0.0, 0.0, 0.0, 0.0, 0.0, 1.7296928844027386E9, 0.0, 2024-10-23 19:44:44.402
250.0, 10019.817652680595, 32858.316046990876, 38053.688472949085, 14378.497228443293, 24567.092903505913, 23212.51013428094, 187500.0, 187500.0, 0.218, 0.9500000000000001, -0.128, 192.0, 6.0, 208.0, 29.0, 176.0, 252.0, 0.0, 0.0, 0.0, 0.0, 1.7296928844066668E9, 0.0, 2024-10-23 19:44:44.406
251.0, 9999.008178592703, 33034.0454618985, 38051.85562990375, 14354.245585709285, 24571.004458785592, 23216.64520700517, 187500.0, 187500.0, 0.218, 0.9500000000000001, -0.128, 192.0, 0.0, 0.0, 0.0, 0.0, 0.0, 0.0, 0.0, 0.0, 0.0, 1.7296928844107563E9, 0.0, 2024-10-23 19:44:44.410
252.0, 10021.516385259198, 33064.57794482445, 38054.22491481601, 14356.726629343824, 24573.44079893122, 23191.67830844859, 187500.0, 187500.0, 0.218, 0.9500000000000001, -0.128, 192.0, 0.0, 0.0, 0.0, 0.0, 0.0, 0.0, 0.0, 0.0, 0.0, 1.7296928844147696E9, 0.0, 2024-10-23 19:44:44.414
253.0, 10042.057638413626, 32958.228344706105, 38053.3308450378, 14371.076449284132, 24567.29406920601, 23186.425648501594, 187500.0, 187500.0, 0.218, 0.9500000000000001, -0.128, 192.0, 0.0, 0.0, 0.0, 0.0, 0.0, 0.0, 0.0, 0.0, 0.0, 1.7296928844207602E9, 0.0, 2024-10-23 19:44:44.420
254.0, 10053.166455407913, 32805.744744031996, 38047.85466764625, 14383.213446523363, 24553.9947812551, 23207.74921271196, 187500.0, 187500.0, 0.218, 0.9500000000000001, -0.128, 192.0, 0.0, 0.0, 0.0, 0.0, 0.0, 0.0, 0.0, 0.0, 0.0, 1.7296928844237332E9, 0.0, 2024-10-23 19:44:44.423
255.0, 9994.336664001545, 32818.93227326063, 38021.23373999998, 14358.000678777777, 24536.247496157586, 23181.374154254696, 187500.0, 187500.0, 0.218, 0.9500000000000001, -0.128, 192.0, 0.0, 0.0, 0.0, 0.0, 0.0, 0.0, 0.0, 0.0, 0.0, 1.7296928844267497E9, 0.0, 2024-10-23 19:44:44.426
0.0, 9977.5058004267, 32994.14759804578, 38024.20652201254, 14348.925870528921, 24547.825699785437, 23204.932892910587, 187500.0, 187500.0, 0.218, 0.9500000000000001, -0.128, 192.0, 0.0, 0.0, 0.0, 0.0, 0.0, 0.0, 0.0, 0.0, 0.0, 1.7296928844308472E9, 0.0, 2024-10-23 19:44:44.430
1.0, 10015.213193322801, 33033.3972613093, 38044.99364435597, 14375.077411541632, 24562.175519725744, 23235.845355492278, 187500.0, 187500.0, 0.218, 0.9500000000000001, -0.128, 192.0, 0.0, 0.0, 0.0, 0.0, 0.0, 0.0, 0.0, 0.0, 0.0, 1.7296928844347692E9, 0.0, 2024-10-23 19:44:44.434
2.0, 10040.135388390469, 32927.807620502426, 38047.94407462407, 14395.75277516279, 24555.179423711234, 23208.911503423635, 187500.0, 187500.0, 0.218, 0.9500000000000001, -0.128, 192.0, 0.0, 0.0, 0.0, 0.0, 0.0, 0.0, 0.0, 0.0, 0.0, 1.7296928844387548E9, 0.0, 2024-10-23 19:44:44.438
3.0, 10055.848664742549, 32772.328886071315, 38047.56409496833, 14405.520487489759, 24545.523470106542, 23192.214750315517, 187500.0, 187500.0, 0.218, 0.9500000000000001, -0.128, 192.0, 0.0, 0.0, 0.0, 0.0, 0.0, 0.0, 0.0, 0.0, 0.0, 1.7296928844427447E9, 0.0, 2024-10-23 19:44:44.442
4.0, 10011.860431654506, 32785.94109844459, 38037.617568685724, 14394.590484451115, 24539.197926425688, 23212.46543079203, 187500.0, 187500.0, 0.224, 0.9460000000000001, -0.132, 192.0, 7.0, 0.0, 29.0, 144.0, 251.0, 224.0, 0.0, 0.0, 0.0, 1.7296928844467945E9, 0.0, 2024-10-23 19:44:44.446
5.0, 10000.751614660217, 32942.135088698284, 38044.546609466866, 14386.722670402845, 24547.155147451776, 23224.624779775713, 187500.0, 187500.0, 0.224, 0.9460000000000001, -0.132, 192.0, 0.0, 0.0, 0.0, 0.0, 0.0, 0.0, 0.0, 0.0, 0.0, 1.72969288444978E9, 0.0, 2024-10-23 19:44:44.449
6.0, 10034.770969721196, 32963.97274303112, 38062.62917073121, 14401.899504888, 24556.76639756756, 23215.37115757122, 187500.0, 187500.0, 0.224, 0.9460000000000001, -0.132, 192.0, 0.0, 0.0, 0.0, 0.0, 0.0, 0.0, 0.0, 0.0, 0.0, 1.7296928844537513E9, 0.0, 2024-10-23 19:44:44.453
7.0, 10059.60375781104, 32856.23733475654, 38070.85461269076, 14416.182269594941, 24554.307705677475, 23196.46158176203, 187500.0, 187500.0, 0.224, 0.9460000000000001, -0.132, 192.0, 0.0, 0.0, 0.0, 0.0, 0.0, 0.0, 0.0, 0.0, 0.0, 1.7296928844577813E9, 0.0, 2024-10-23 19:44:44.457
8.0, 10086.649368601962, 32719.444658690056, 38088.579546043824, 14436.343543093628, 24565.707095349684, 23227.01641643243, 187500.0, 187500.0, 0.224, 0.9460000000000001, -0.132, 192.0, 0.0, 0.0, 0.0, 0.0, 0.0, 0.0, 0.0, 0.0, 0.0, 1.7296928844628758E9, 0.0, 2024-10-23 19:44:44.462
9.0, 10045.589214037564, 32740.790574644874, 38083.86332796375, 14425.547650521714, 24553.01130449907, 23223.194268130574, 187500.0, 187500.0, 0.224, 0.9460000000000001, -0.132, 192.0, 0.0, 0.0, 0.0, 0.0, 0.0, 0.0, 0.0, 0.0, 0.0, 1.7296928844669633E9, 0.0, 2024-10-23 19:44:44.466
10.0, 10031.641725497453, 32889.54143399494, 38090.16651990015, 14407.845068913111, 24564.81302557147, 23216.376986071708, 187500.0, 187500.0, 0.224, 0.9460000000000001, -0.132, 192.0, 0.0, 0.0, 0.0, 0.0, 0.0, 0.0, 0.0, 0.0, 0.0, 1.7296928844707873E9, 0.0, 2024-10-23 19:44:44.470
11.0, 10062.75535377924, 32904.00301265753, 38110.797180032394, 14416.182269594941, 24583.521435680563, 23250.12812019922, 187500.0, 187500.0, 0.224, 0.9460000000000001, -0.132, 192.0, 0.0, 0.0, 0.0, 0.0, 0.0, 0.0, 0.0, 0.0, 0.0, 1.7296928844747913E9, 0.0, 2024-10-23 19:44:44.474
12.0, 10090.359758181543, 32801.78848526341, 38116.25100567949, 14423.893621432022, 24572.792598342014, 23234.70541652506, 187500.0, 187500.0, 0.224, 0.9460000000000001, -0.132, 192.0, 0.0, 0.0, 0.0, 0.0, 0.0, 0.0, 0.0, 0.0, 0.0, 1.7296928844778116E9, 0.0, 2024-10-23 19:44:44.477
13.0, 10111.549211925176, 32663.922925463074, 38118.75440105848, 14421.211412097386, 24568.25519421759, 23206.8774946782, 187500.0, 187500.0, 0.224, 0.9460000000000001, -0.132, 192.0, 0.0, 0.0, 0.0, 0.0, 0.0, 0.0, 0.0, 0.0, 0.0, 1.7296928844818296E9, 0.0, 2024-10-23 19:44:44.481
14.0, 10065.169342180412, 32688.599251341733, 38108.58435733132, 14401.966560121366, 24564.76832208256, 23232.35848335725, 187500.0, 187500.0, 0.20600000000000002, 0.9500000000000001, -0.126, 192.0, 6.0, 112.0, 29.0, 176.0, 252.0, 16.0, 0.0, 0.0, 0.0, 1.729692884485822E9, 0.0, 2024-10-23 19:44:44.485
15.0, 10053.389972852467, 32843.18391599464, 38114.46286612307, 14384.062812812665, 24581.420371701763, 23257.28067842492, 187500.0, 187500.0, 0.20600000000000002, 0.9500000000000001, -0.126, 192.0, 0.0, 0.0, 0.0, 0.0, 0.0, 0.0, 0.0, 0.0, 0.0, 1.7296928844908583E9, 0.0, 2024-10-23 19:44:44.490
16.0, 10072.768935295217, 32858.58426792434, 38116.11689521276, 14376.418516208949, 24577.19589199971, 23241.746216028478, 187500.0, 187500.0, 0.20600000000000002, 0.9500000000000001, -0.126, 192.0, 0.0, 0.0, 0.0, 0.0, 0.0, 0.0, 0.0, 0.0, 0.0, 1.7296928844948432E9, 0.0, 2024-10-23 19:44:44.494
17.0, 10096.260618717744, 32766.67389472412, 38116.42981963514, 14380.218312766352, 24572.926708808747, 23219.30506459535, 187500.0, 187500.0, 0.20600000000000002, 0.9500000000000001, -0.126, 192.0, 0.0, 0.0, 0.0, 0.0, 0.0, 0.0, 0.0, 0.0, 0.0, 1.7296928844988341E9, 0.0, 2024-10-23 19:44:44.498
18.0, 10108.062339790147, 32634.485678015433, 38122.151866215696, 14387.28146401423, 24596.48544746464, 23222.993102430475, 187500.0, 187500.0, 0.20600000000000002, 0.9500000000000001, -0.126, 192.0, 0.0, 0.0, 0.0, 0.0, 0.0, 0.0, 0.0, 0.0, 0.0, 1.7296928845028424E9, 0.0, 2024-10-23 19:44:44.502
19.0, 10045.857434971027, 32663.47589057397, 38106.34918288579, 14368.12601901603, 24572.90435706429, 23238.30404738236, 187500.0, 187500.0, 0.20600000000000002, 0.9500000000000001, -0.126, 192.0, 0.0, 0.0, 0.0, 0.0, 0.0, 0.0, 0.0, 0.0, 0.0, 1.7296928845058486E9, 0.0, 2024-10-23 19:44:44.505
20.0, 10027.529004517675, 32832.99152052301, 38101.90118573918, 14349.015277506744, 24586.382458970842, 23237.387625859694, 187500.0, 187500.0, 0.20600000000000002, 0.9500000000000001, -0.126, 192.0, 0.0, 0.0, 0.0, 0.0, 0.0, 0.0, 0.0, 0.0, 0.0, 1.72969288450994E9, 0.0, 2024-10-23 19:44:44.509
21.0, 10051.51242631822, 32860.46181445859, 38107.734991042016, 14354.782027576213, 24594.853770119404, 23248.69760855408, 187500.0, 187500.0, 0.20600000000000002, 0.9500000000000001, -0.126, 192.0, 0.0, 0.0, 0.0, 0.0, 0.0, 0.0, 0.0, 0.0, 0.0, 1.729692884513857E9, 0.0, 2024-10-23 19:44:44.513
22.0, 10073.104211462047, 32763.701112711566, 38105.32100264085, 14366.27082422624, 24597.06659282048, 23230.279771122907, 187500.0, 187500.0, 0.20600000000000002, 0.9500000000000001, -0.126, 192.0, 0.0, 0.0, 0.0, 0.0, 0.0, 0.0, 0.0, 0.0, 0.0, 1.7296928845178516E9, 0.0, 2024-10-23 19:44:44.517
23.0, 10080.480287132297, 32617.006613851383, 38096.35795311427, 14376.507923186771, 24588.282357249544, 23229.855087978256, 187500.0, 187500.0, 0.20600000000000002, 0.9500000000000001, -0.126, 192.0, 0.0, 0.0, 0.0, 0.0, 0.0, 0.0, 0.0, 0.0, 0.0, 1.7296928845229168E9, 0.0, 2024-10-23 19:44:44.522
24.0, 10016.353132290022, 32633.569256492767, 38061.91391490864, 14348.612946106548, 24568.501063406595, 23212.73365172549, 187500.0, 187500.0, 0.212, 0.9440000000000001, -0.124, 192.0, 6.0, 160.0, 29.0, 128.0, 252.0, 32.0, 0.0, 0.0, 0.0, 1.729692884526842E9, 0.0, 2024-10-23 19:44:44.526
25.0, 9999.365806503989, 32789.875005468726, 38064.41731028764, 14340.052227980164, 24580.705115879195, 23251.201003933074, 187500.0, 187500.0, 0.212, 0.9440000000000001, -0.124, 192.0, 0.0, 0.0, 0.0, 0.0, 0.0, 0.0, 0.0, 0.0, 0.0, 1.7296928845309079E9, 0.0, 2024-10-23 19:44:44.530
26.0, 10021.65049572593, 32801.49791258549, 38071.34635106878, 14350.021106007232, 24580.168674012268, 23250.150471943674, 187500.0, 187500.0, 0.212, 0.9440000000000001, -0.124, 192.0, 0.0, 0.0, 0.0, 0.0, 0.0, 0.0, 0.0, 0.0, 0.0, 1.7296928845349128E9, 0.0, 2024-10-23 19:44:44.534
27.0, 10038.079027900581, 32686.721704807485, 38071.68162723561, 14363.432152680416, 24583.29791823601, 23224.82594547581, 187500.0, 187500.0, 0.212, 0.9440000000000001, -0.124, 192.0, 0.0, 0.0, 0.0, 0.0, 0.0, 0.0, 0.0, 0.0, 0.0, 1.7296928845388541E9, 0.0, 2024-10-23 19:44:44.538
28.0, 10050.931280962383, 32543.44702284897, 38071.189888857596, 14376.709088886868, 24573.91018556478, 23213.761831970434, 187500.0, 187500.0, 0.212, 0.9440000000000001, -0.124, 192.0, 0.0, 0.0, 0.0, 0.0, 0.0, 0.0, 0.0, 0.0, 0.0, 1.7296928845419104E9, 0.0, 2024-10-23 19:44:44.541
29.0, 9997.756480903206, 32576.952287787473, 38058.49409800698, 14366.851969582078, 24570.46801691866, 23221.406128574148, 187500.0, 187500.0, 0.212, 0.9440000000000001, -0.124, 192.0, 0.0, 0.0, 0.0, 0.0, 0.0, 0.0, 0.0, 0.0, 0.0, 1.7296928845459304E9, 0.0, 2024-10-23 19:44:44.545
30.0, 9984.323082485567, 32733.3250919968, 38065.19962134357, 14358.738286344802, 24588.170598527267, 23233.16314615764, 187500.0, 187500.0, 0.212, 0.9440000000000001, -0.124, 192.0, 0.0, 0.0, 0.0, 0.0, 0.0, 0.0, 0.0, 0.0, 0.0, 1.7296928845508716E9, 0.0, 2024-10-23 19:44:44.550
31.0, 10017.448367768333, 32750.021845104915, 38079.79531047289, 14379.279539499228, 24596.843075375924, 23248.116463198243, 187500.0, 187500.0, 0.212, 0.9440000000000001, -0.124, 192.0, 0.0, 0.0, 0.0, 0.0, 0.0, 0.0, 0.0, 0.0, 0.0, 1.7296928845549026E9, 0.0, 2024-10-23 19:44:44.554
32.0, 10040.247147112745, 32640.319483318268, 38083.77392098593, 14399.28435078673, 24592.86446486288, 23239.131061927208, 187500.0, 187500.0, 0.212, 0.9440000000000001, -0.124, 192.0, 0.0, 0.0, 0.0, 0.0, 0.0, 0.0, 0.0, 0.0, 0.0, 1.72969288455888E9, 0.0, 2024-10-23 19:44:44.558
33.0, 10054.552263564143, 32497.089504848664, 38083.37158958573, 14410.236705569829, 24581.934461824236, 23220.422651818117, 187500.0, 187500.0, 0.212, 0.9440000000000001, -0.124, 192.0, 0.0, 0.0, 0.0, 0.0, 0.0, 0.0, 0.0, 0.0, 0.0, 1.7296928845629568E9, 0.0, 2024-10-23 19:44:44.562
34.0, 9999.276399526168, 32525.073888906707, 38067.72536846702, 14393.271731528252, 24573.39609544231, 23220.422651818117, 187500.0, 187500.0, 0.212, 0.9500000000000001, -0.11800000000000001, 192.0, 6.0, 160.0, 29.0, 176.0, 252.0, 80.0, 0.0, 0.0, 0.0, 1.7296928845659251E9, 0.0, 2024-10-23 19:44:44.565
35.0, 9987.429974964854, 32682.541928594346, 38076.86723194924, 14379.65951915497, 24589.645813661315, 23230.41388158964, 187500.0, 187500.0, 0.212, 0.9500000000000001, -0.11800000000000001, 192.0, 0.0, 0.0, 0.0, 0.0, 0.0, 0.0, 0.0, 0.0, 0.0, 1.729692884569956E9, 0.0, 2024-10-23 19:44:44.569
36.0, 10011.368693276489, 32693.42722814408, 38086.00909543146, 14385.582731435625, 24590.80810437299, 23229.855087978256, 187500.0, 187500.0, 0.212, 0.9500000000000001, -0.11800000000000001, 192.0, 0.0, 0.0, 0.0, 0.0, 0.0, 0.0, 0.0, 0.0, 0.0, 1.7296928845739255E9, 0.0, 2024-10-23 19:44:44.573
37.0, 10033.675734242885, 32581.243822722892, 38089.45126407758, 14399.70903393138, 24585.1531130258, 23235.733596770002, 187500.0, 187500.0, 0.212, 0.9500000000000001, -0.11800000000000001, 192.0, 0.0, 0.0, 0.0, 0.0, 0.0, 0.0, 0.0, 0.0, 0.0, 1.7296928845789297E9, 0.0, 2024-10-23 19:44:44.578
38.0, 10063.939996235371, 32454.531783405757, 38102.772903772944, 14417.724539962357, 24595.189046286232, 23236.44885259257, 187500.0, 187500.0, 0.212, 0.9500000000000001, -0.11800000000000001, 192.0, 0.0, 0.0, 0.0, 0.0, 0.0, 0.0, 0.0, 0.0, 0.0, 1.7296928845829651E9, 0.0, 2024-10-23 19:44:44.582
39.0, 10018.565954991098, 32496.19543507045, 38088.221918132534, 14402.748871177302, 24588.885854349835, 23237.678198537615, 187500.0, 187500.0, 0.212, 0.9500000000000001, -0.11800000000000001, 192.0, 0.0, 0.0, 0.0, 0.0, 0.0, 0.0, 0.0, 0.0, 0.0, 1.7296928845869615E9, 0.0, 2024-10-23 19:44:44.586
40.0, 10002.383292005456, 32651.763576479385, 38084.19860413058, 14379.145429032496, 24591.47865670665, 23245.724826541526, 187500.0, 187500.0, 0.212, 0.9500000000000001, -0.11800000000000001, 192.0, 0.0, 0.0, 0.0, 0.0, 0.0, 0.0, 0.0, 0.0, 0.0, 1.7296928845909529E9, 0.0, 2024-10-23 19:44:44.590
41.0, 10028.311315573612, 32675.99286746894, 38095.39682810269, 14388.331996003628, 24603.21332254569, 23269.59648961979, 187500.0, 187500.0, 0.212, 0.9500000000000001, -0.11800000000000001, 192.0, 0.0, 0.0, 0.0, 0.0, 0.0, 0.0, 0.0, 0.0, 0.0, 1.7296928845939724E9, 0.0, 2024-10-23 19:44:44.593
42.0, 10061.615414812019, 32586.272965225337, 38108.13732244221, 14403.195906066407, 24611.796392416527, 23253.03384697841, 187500.0, 187500.0, 0.212, 0.9500000000000001, -0.11800000000000001, 192.0, 0.0, 0.0, 0.0, 0.0, 0.0, 0.0, 0.0, 0.0, 0.0, 1.7296928845979924E9, 0.0, 2024-10-23 19:44:44.597
43.0, 10076.389917896977, 32444.920533289976, 38101.655316550175, 14401.899504888, 24593.311499751988, 23235.9347624701, 187500.0, 187500.0, 0.212, 0.9500000000000001, -0.11800000000000001, 192.0, 0.0, 0.0, 0.0, 0.0, 0.0, 0.0, 0.0, 0.0, 0.0, 1.7296928846021383E9, 0.0, 2024-10-23 19:44:44.602
44.0, 10026.679638228374, 32478.04581857274, 38084.42212157513, 14374.920949330444, 24579.743990867617, 23230.8832682232, 187500.0, 187500.0, 0.214, 0.9560000000000001, -0.122, 192.0, 6.0, 176.0, 29.0, 224.0, 252.0, 48.0, 0.0, 0.0, 0.0, 1.7296928846060083E9, 0.0, 2024-10-23 19:44:44.606
45.0, 10010.005236864716, 32641.772346707865, 38079.79531047289, 14351.563376374648, 24585.1531130258, 23253.45853012306, 187500.0, 187500.0, 0.214, 0.9560000000000001, -0.122, 192.0, 0.0, 0.0, 0.0, 0.0, 0.0, 0.0, 0.0, 0.0, 0.0, 1.7296928846109655E9, 0.0, 2024-10-23 19:44:44.610
46.0, 10043.354039592034, 32671.053131944318, 38093.541633312896, 14358.000678777777, 24606.119049324876, 23258.532376114414, 187500.0, 187500.0, 0.214, 0.9560000000000001, -0.122, 192.0, 0.0, 0.0, 0.0, 0.0, 0.0, 0.0, 0.0, 0.0, 0.0, 1.729692884614999E9, 0.0, 2024-10-23 19:44:44.614
47.0, 10065.504618347242, 32562.7365783139, 38096.894394981195, 14362.202806735375, 24602.431011489753, 23208.486820278984, 187500.0, 187500.0, 0.214, 0.9560000000000001, -0.122, 192.0, 0.0, 0.0, 0.0, 0.0, 0.0, 0.0, 0.0, 0.0, 0.0, 1.729692884619043E9, 0.0, 2024-10-23 19:44:44.619
48.0, 10073.327728906599, 32410.677660784444, 38084.44447331959, 14357.106608999564, 24585.66720314827, 23185.419820001105, 187500.0, 187500.0, 0.214, 0.9560000000000001, -0.122, 192.0, 0.0, 0.0, 0.0, 0.0, 0.0, 0.0, 0.0, 0.0, 0.0, 1.7296928846230533E9, 0.0, 2024-10-23 19:44:44.623
49.0, 10015.056731111614, 32441.05368149921, 38062.919743409126, 14341.54979485867, 24580.72746762365, 23228.201058888564, 187500.0, 187500.0, 0.214, 0.9560000000000001, -0.122, 192.0, 0.0, 0.0, 0.0, 0.0, 0.0, 0.0, 0.0, 0.0, 0.0, 1.729692884626106E9, 0.0, 2024-10-23 19:44:44.626
50.0, 9996.549486702621, 32607.35066024669, 38060.05872011885, 14330.910364497944, 24586.851845604404, 23256.006628990966, 187500.0, 187500.0, 0.214, 0.9560000000000001, -0.122, 192.0, 0.0, 0.0, 0.0, 0.0, 0.0, 0.0, 0.0, 0.0, 0.0, 1.7296928846300423E9, 0.0, 2024-10-23 19:44:44.630
51.0, 10021.203460836823, 32639.157192606595, 38068.01594114494, 14339.739303557792, 24579.47576993415, 23241.813271261846, 187500.0, 187500.0, 0.214, 0.9560000000000001, -0.122, 192.0, 0.0, 0.0, 0.0, 0.0, 0.0, 0.0, 0.0, 0.0, 0.0, 1.7296928846351037E9, 0.0, 2024-10-23 19:44:44.635
52.0, 10048.047905927648, 32551.5830578307, 38073.04508364738, 14362.403972435472, 24574.80425534299, 23226.122346654218, 187500.0, 187500.0, 0.214, 0.9560000000000001, -0.122, 192.0, 0.0, 0.0, 0.0, 0.0, 0.0, 0.0, 0.0, 0.0, 0.0, 1.729692884639056E9, 0.0, 2024-10-23 19:44:44.639
53.0, 10067.493923603764, 32424.93807374693, 38076.17432787113, 14380.978272077833, 24580.503950179096, 23210.07379413531, 187500.0, 187500.0, 0.214, 0.9560000000000001, -0.122, 192.0, 0.0, 0.0, 0.0, 0.0, 0.0, 0.0, 0.0, 0.0, 0.0, 1.7296928846430228E9, 0.0, 2024-10-23 19:44:44.643
54.0, 10010.720492687286, 32462.84663234313, 38061.5339352529, 14367.790742849202, 24579.29695597851, 23209.894980179666, 187500.0, 187500.0, 0.216, 0.9520000000000001, -0.114, 192.0, 6.0, 192.0, 29.0, 192.0, 252.0, 112.0, 0.0, 0.0, 0.0, 1.7296928846470733E9, 0.0, 2024-10-23 19:44:44.647
55.0, 10001.243353038235, 32636.966721649973, 38070.45228129057, 14366.22612073733, 24587.053011304502, 23244.160204429652, 187500.0, 187500.0, 0.216, 0.9520000000000001, -0.114, 192.0, 0.0, 0.0, 0.0, 0.0, 0.0, 0.0, 0.0, 0.0, 0.0, 1.7296928846500747E9, 0.0, 2024-10-23 19:44:44.650
56.0, 10021.784606192661, 32659.541983549832, 38073.38035981421, 14375.390335964006, 24583.409676958287, 23236.337093870294, 187500.0, 187500.0, 0.216, 0.9520000000000001, -0.114, 192.0, 0.0, 0.0, 0.0, 0.0, 0.0, 0.0, 0.0, 0.0, 0.0, 1.7296928846541321E9, 0.0, 2024-10-23 19:44:44.654
57.0, 10052.22768214079, 32567.653962094068, 38082.03048491842, 14396.043347840709, 24584.616671158874, 23235.55478281436, 187500.0, 187500.0, 0.216, 0.9520000000000001, -0.114, 192.0, 0.0, 0.0, 0.0, 0.0, 0.0, 0.0, 0.0, 0.0, 0.0, 1.72969288465825E9, 0.0, 2024-10-23 19:44:44.658
58.0, 10066.510446847731, 32426.681509814443, 38084.86915646424, 14409.029711369243, 24583.00734555809, 23224.669483264624, 187500.0, 187500.0, 0.216, 0.9520000000000001, -0.114, 192.0, 0.0, 0.0, 0.0, 0.0, 0.0, 0.0, 0.0, 0.0, 0.0, 1.7296928846621003E9, 0.0, 2024-10-23 19:44:44.662
59.0, 10013.000370621727, 32458.219821240884, 38074.27442959243, 14389.449583226393, 24583.499083936105, 23209.671462735114, 187500.0, 187500.0, 0.216, 0.9520000000000001, -0.114, 192.0, 0.0, 0.0, 0.0, 0.0, 0.0, 0.0, 0.0, 0.0, 0.0, 1.729692884667097E9, 0.0, 2024-10-23 19:44:44.667
60.0, 9992.392062233934, 32611.64219518211, 38070.34052256829, 14364.03564978071, 24584.77313337006, 23196.483933506483, 187500.0, 187500.0, 0.216, 0.9520000000000001, -0.114, 192.0, 0.0, 0.0, 0.0, 0.0, 0.0, 0.0, 0.0, 0.0, 0.0, 1.729692884671104E9, 0.0, 2024-10-23 19:44:44.671
61.0, 10021.628143981474, 32638.710157717487, 38084.64563901969, 14378.363117976562, 24601.179313800254, 23234.191326402586, 187500.0, 187500.0, 0.216, 0.9520000000000001, -0.114, 192.0, 0.0, 0.0, 0.0, 0.0, 0.0, 0.0, 0.0, 0.0, 0.0, 1.7296928846750996E9, 0.0, 2024-10-23 19:44:44.675
62.0, 10050.819522240106, 32548.744386284878, 38096.04502869189, 14404.984045622832, 24607.661319692295, 23261.326344171328, 187500.0, 187500.0, 0.216, 0.9520000000000001, -0.114, 192.0, 0.0, 0.0, 0.0, 0.0, 0.0, 0.0, 0.0, 0.0, 0.0, 1.7296928846781497E9, 0.0, 2024-10-23 19:44:44.678
63.0, 10064.118810191014, 32411.66113754048, 38093.25106063498, 14415.936400405932, 24595.613729430883, 23254.0396754789, 187500.0, 187500.0, 0.216, 0.9520000000000001, -0.114, 192.0, 0.0, 0.0, 0.0, 0.0, 0.0, 0.0, 0.0, 0.0, 0.0, 1.7296928846821003E9, 0.0, 2024-10-23 19:44:44.682
64.0, 10005.780757162662, 32447.647446113522, 38069.51350802345, 14392.444716983406, 24571.58560414143, 23245.277791652417, 187500.0, 187500.0, 0.22, 0.9500000000000001, -0.116, 192.0, 6.0, 224.0, 29.0, 176.0, 252.0, 96.0, 0.0, 0.0, 0.0, 1.7296928846880963E9, 0.0, 2024-10-23 19:44:44.688
65.0, 9991.587399433542, 32609.317613758758, 38071.033426646405, 14374.339803974606, 24588.885854349835, 23253.100902211776, 187500.0, 187500.0, 0.22, 0.9500000000000001, -0.116, 192.0, 0.0, 0.0, 0.0, 0.0, 0.0, 0.0, 0.0, 0.0, 0.0, 1.7296928846910677E9, 0.0, 2024-10-23 19:44:44.691
66.0, 10018.476548013276, 32633.122221603662, 38078.029522660916, 14376.776144120235, 24593.020927074067, 23217.78514597239, 187500.0, 187500.0, 0.22, 0.9500000000000001, -0.116, 192.0, 0.0, 0.0, 0.0, 0.0, 0.0, 0.0, 0.0, 0.0, 0.0, 1.7296928846950924E9, 0.0, 2024-10-23 19:44:44.695
67.0, 10046.304469860133, 32540.29542688077, 38083.8409762193, 14394.791650151212, 24588.99761307211, 23228.73750075549, 187500.0, 187500.0, 0.22, 0.9500000000000001, -0.116, 192.0, 0.0, 0.0, 0.0, 0.0, 0.0, 0.0, 0.0, 0.0, 0.0, 1.7296928846991212E9, 0.0, 2024-10-23 19:44:44.699
68.0, 10064.14116193547, 32403.16747464746, 38083.37158958573, 14408.627379969048, 24590.964566584178, 23245.79188177489, 187500.0, 187500.0, 0.22, 0.9500000000000001, -0.116, 192.0, 0.0, 0.0, 0.0, 0.0, 0.0, 0.0, 0.0, 0.0, 0.0, 1.729692884703128E9, 0.0, 2024-10-23 19:44:44.703
69.0, 10013.760329933206, 32437.097422730618, 38069.80408070136, 14387.393222736506, 24599.525284710562, 23246.618896319735, 187500.0, 187500.0, 0.22, 0.9500000000000001, -0.116, 192.0, 0.0, 0.0, 0.0, 0.0, 0.0, 0.0, 0.0, 0.0, 0.0, 1.7296928847061172E9, 0.0, 2024-10-23 19:44:44.706
70.0, 9998.069405325581, 32587.189386748003, 38071.458109791056, 14363.588614891603, 24600.084078321946, 23243.9366869851, 187500.0, 187500.0, 0.22, 0.9500000000000001, -0.116, 192.0, 0.0, 0.0, 0.0, 0.0, 0.0, 0.0, 0.0, 0.0, 0.0, 1.729692884710156E9, 0.0, 2024-10-23 19:44:44.710
71.0, 10024.377408549477, 32606.30012825729, 38075.928458682116, 14367.611928893559, 24593.400906729807, 23257.101864469274, 187500.0, 187500.0, 0.22, 0.9500000000000001, -0.116, 192.0, 0.0, 0.0, 0.0, 0.0, 0.0, 0.0, 0.0, 0.0, 0.0, 1.729692884714167E9, 0.0, 2024-10-23 19:44:44.714
72.0, 10046.617394282508, 32506.20901658643, 38070.7875574574, 14373.132809774019, 24583.85671184739, 23225.474146065015, 187500.0, 187500.0, 0.22, 0.9500000000000001, -0.116, 192.0, 0.0, 0.0, 0.0, 0.0, 0.0, 0.0, 0.0, 0.0, 0.0, 1.7296928847181368E9, 0.0, 2024-10-23 19:44:44.718
73.0, 10059.4249438554, 32367.382331774515, 38063.0315021314, 14367.790742849202, 24570.266851218566, 23174.802741384836, 187500.0, 187500.0, 0.22, 0.9500000000000001, -0.116, 192.0, 0.0, 0.0, 0.0, 0.0, 0.0, 0.0, 0.0, 0.0, 0.0, 1.7296928847231295E9, 0.0, 2024-10-23 19:44:44.723
74.0, 10009.111167086503, 32410.074163684152, 38051.229781059, 14350.401085662972, 24567.62934537284, 23207.145715611663, 187500.0, 187500.0, 0.20800000000000002, 0.9500000000000001, -0.124, 192.0, 6.0, 128.0, 29.0, 176.0, 252.0, 32.0, 0.0, 0.0, 0.0, 1.7296928847271724E9, 0.0, 2024-10-23 19:44:44.727
75.0, 9995.610713435497, 32568.235107449906, 38048.12288857972, 14333.525518599216, 24568.72458085115, 23210.58788425778, 187500.0, 187500.0, 0.20800000000000002, 0.9500000000000001, -0.124, 192.0, 0.0, 0.0, 0.0, 0.0, 0.0, 0.0, 0.0, 0.0, 0.0, 1.7296928847311645E9, 0.0, 2024-10-23 19:44:44.731
76.0, 10024.042132382649, 32596.107732785673, 38057.84589741778, 14347.31654492814, 24578.33583096693, 23233.386663602196, 187500.0, 187500.0, 0.20800000000000002, 0.9500000000000001, -0.124, 192.0, 0.0, 0.0, 0.0, 0.0, 0.0, 0.0, 0.0, 0.0, 0.0, 1.729692884734168E9, 0.0, 2024-10-23 19:44:44.734
77.0, 10046.773856493695, 32496.486007748368, 38059.857554418755, 14360.325260201129, 24572.52437740855, 23228.245762377475, 187500.0, 187500.0, 0.20800000000000002, 0.9500000000000001, -0.124, 192.0, 0.0, 0.0, 0.0, 0.0, 0.0, 0.0, 0.0, 0.0, 0.0, 1.7296928847381592E9, 0.0, 2024-10-23 19:44:44.738
78.0, 10065.526970091698, 32361.481471238312, 38062.785632942396, 14367.813094593657, 24572.56908089746, 23204.59761674376, 187500.0, 187500.0, 0.20800000000000002, 0.9500000000000001, -0.124, 192.0, 0.0, 0.0, 0.0, 0.0, 0.0, 0.0, 0.0, 0.0, 0.0, 1.7296928847421987E9, 0.0, 2024-10-23 19:44:44.742
79.0, 10011.301638043124, 32400.038230423717, 38047.29587403487, 14351.004582763266, 24565.48357790513, 23208.442116790073, 187500.0, 187500.0, 0.20800000000000002, 0.9500000000000001, -0.124, 192.0, 0.0, 0.0, 0.0, 0.0, 0.0, 0.0, 0.0, 0.0, 0.0, 1.7296928847461693E9, 0.0, 2024-10-23 19:44:44.746
80.0, 10001.042187338137, 32560.6355143351, 38049.59810371377, 14340.78983554719, 24571.026810530046, 23219.03684366189, 187500.0, 187500.0, 0.20800000000000002, 0.9500000000000001, -0.124, 192.0, 0.0, 0.0, 0.0, 0.0, 0.0, 0.0, 0.0, 0.0, 0.0, 1.729692884750201E9, 0.0, 2024-10-23 19:44:44.750
81.0, 10026.344362061544, 32581.422636678537, 38057.86824916223, 14352.524501386226, 24574.2007582427, 23219.752099484456, 187500.0, 187500.0, 0.20800000000000002, 0.9500000000000001, -0.124, 192.0, 0.0, 0.0, 0.0, 0.0, 0.0, 0.0, 0.0, 0.0, 0.0, 1.729692884755292E9, 0.0, 2024-10-23 19:44:44.755
82.0, 10055.446333342354, 32487.455902988426, 38071.81573770234, 14376.418516208949, 24579.38636295633, 23223.104861152755, 187500.0, 187500.0, 0.20800000000000002, 0.9500000000000001, -0.124, 192.0, 0.0, 0.0, 0.0, 0.0, 0.0, 0.0, 0.0, 0.0, 0.0, 1.729692884759198E9, 0.0, 2024-10-23 19:44:44.759
83.0, 10077.932188264393, 32359.760386915255, 38082.701037252074, 14395.37279550705, 24578.91697632277, 23212.06309939183, 187500.0, 187500.0, 0.20800000000000002, 0.9500000000000001, -0.124, 192.0, 0.0, 0.0, 0.0, 0.0, 0.0, 0.0, 0.0, 0.0, 0.0, 1.7296928847622156E9, 0.0, 2024-10-23 19:44:44.762
84.0, 10017.515423001698, 32398.6971257564, 38068.57473475632, 14376.12794353103, 24571.96558379717, 23217.494573294473, 187500.0, 187500.0, 0.212, 0.9580000000000001, -0.122, 192.0, 6.0, 160.0, 29.0, 240.0, 252.0, 48.0, 0.0, 0.0, 0.0, 1.7296928847661862E9, 0.0, 2024-10-23 19:44:44.766
85.0, 10004.149079817424, 32559.741444556887, 38072.285124335904, 14364.326222458629, 24577.642926888817, 23227.709320510545, 187500.0, 187500.0, 0.212, 0.9580000000000001, -0.122, 192.0, 0.0, 0.0, 0.0, 0.0, 0.0, 0.0, 0.0, 0.0, 0.0, 1.7296928847702491E9, 0.0, 2024-10-23 19:44:44.770
86.0, 10028.311315573612, 32582.83079657922, 38080.6893802511, 14369.80239985018, 24578.738162367128, 23225.898829209666, 187500.0, 187500.0, 0.212, 0.9580000000000001, -0.122, 192.0, 0.0, 0.0, 0.0, 0.0, 0.0, 0.0, 0.0, 0.0, 0.0, 1.7296928847742083E9, 0.0, 2024-10-23 19:44:44.774
87.0, 10052.965289707816, 32483.14201630855, 38086.65729602067, 14382.31937674515, 24586.784790371035, 23205.581093499793, 187500.0, 187500.0, 0.212, 0.9580000000000001, -0.122, 192.0, 0.0, 0.0, 0.0, 0.0, 0.0, 0.0, 0.0, 0.0, 0.0, 1.7296928847781987E9, 0.0, 2024-10-23 19:44:44.778
88.0, 10075.51819986322, 32354.999465346275, 38096.93909847011, 14401.296007787707, 24596.86542712038, 23223.395433830672, 187500.0, 187500.0, 0.212, 0.9580000000000001, -0.122, 192.0, 0.0, 0.0, 0.0, 0.0, 0.0, 0.0, 0.0, 0.0, 0.0, 1.7296928847834122E9, 0.0, 2024-10-23 19:44:44.783
89.0, 10020.89053641445, 32398.607718778578, 38078.61066801676, 14382.31937674515, 24576.279470477042, 23220.802631473856, 187500.0, 187500.0, 0.212, 0.9580000000000001, -0.122, 192.0, 0.0, 0.0, 0.0, 0.0, 0.0, 0.0, 0.0, 0.0, 0.0, 1.7296928847872553E9, 0.0, 2024-10-23 19:44:44.787
90.0, 10009.64760895343, 32561.01549399084, 38081.7399122405, 14371.724649873335, 24584.68372639224, 23233.27490487992, 187500.0, 187500.0, 0.212, 0.9580000000000001, -0.122, 192.0, 0.0, 0.0, 0.0, 0.0, 0.0, 0.0, 0.0, 0.0, 0.0, 1.7296928847902439E9, 0.0, 2024-10-23 19:44:44.790
91.0, 10040.157740134924, 32586.675296625534, 38093.36281935726, 14382.542894189704, 24590.182255528245, 23233.69958802457, 187500.0, 187500.0, 0.212, 0.9580000000000001, -0.122, 192.0, 0.0, 0.0, 0.0, 0.0, 0.0, 0.0, 0.0, 0.0, 0.0, 1.7296928847942789E9, 0.0, 2024-10-23 19:44:44.794
92.0, 10067.717441048319, 32485.645411687543, 38104.024601462435, 14398.546743219704, 24601.87221787837, 23234.861878736243, 187500.0, 187500.0, 0.212, 0.9580000000000001, -0.122, 192.0, 0.0, 0.0, 0.0, 0.0, 0.0, 0.0, 0.0, 0.0, 0.0, 1.7296928847982087E9, 0.0, 2024-10-23 19:44:44.798
93.0, 10085.911761034939, 32349.478584465814, 38109.18785443161, 14413.500060260303, 24593.91499685228, 23247.468262609036, 187500.0, 187500.0, 0.212, 0.9580000000000001, -0.122, 192.0, 0.0, 0.0, 0.0, 0.0, 0.0, 0.0, 0.0, 0.0, 0.0, 1.729692884802262E9, 0.0, 2024-10-23 19:44:44.802
94.0, 10030.099455130035, 32390.426980307937, 38088.06545592135, 14393.249379783796, 24582.180331013245, 23250.12812019922, 187500.0, 187500.0, 0.216, 0.9540000000000001, -0.124, 192.0, 6.0, 192.0, 29.0, 208.0, 252.0, 32.0, 0.0, 0.0, 0.0, 1.7296928848062525E9, 0.0, 2024-10-23 19:44:44.806
95.0, 10018.923582902382, 32547.626799062113, 38090.457092578064, 14374.831542352624, 24598.541807954527, 23257.41478889165, 187500.0, 187500.0, 0.216, 0.9540000000000001, -0.124, 192.0, 0.0, 0.0, 0.0, 0.0, 0.0, 0.0, 0.0, 0.0, 0.0, 1.7296928848112855E9, 0.0, 2024-10-23 19:44:44.811
96.0, 10041.789417480162, 32563.36242715865, 38093.65339203518, 14374.585673163614, 24600.553464955505, 23244.674294552126, 187500.0, 187500.0, 0.216, 0.9540000000000001, -0.124, 192.0, 0.0, 0.0, 0.0, 0.0, 0.0, 0.0, 0.0, 0.0, 0.0, 1.7296928848153067E9, 0.0, 2024-10-23 19:44:44.815
97.0, 10062.978871223793, 32456.6104956401, 38088.75835999946, 14385.22510352434, 24589.779924128048, 23232.60435254626, 187500.0, 187500.0, 0.216, 0.9540000000000001, -0.124, 192.0, 0.0, 0.0, 0.0, 0.0, 0.0, 0.0, 0.0, 0.0, 0.0, 1.7296928848182673E9, 0.0, 2024-10-23 19:44:44.818
98.0, 10070.690223060874, 32307.926691523397, 38081.047008162386, 14392.377661750039, 24579.52047342306, 23233.431367091103, 187500.0, 187500.0, 0.216, 0.9540000000000001, -0.124, 192.0, 0.0, 0.0, 0.0, 0.0, 0.0, 0.0, 0.0, 0.0, 0.0, 1.7296928848223088E9, 0.0, 2024-10-23 19:44:44.822
99.0, 10014.341475289044, 32344.002407074262, 38062.31624630884, 14371.188208006408, 24570.46801691866, 23233.8336984913, 187500.0, 187500.0, 0.216, 0.9540000000000001, -0.124, 192.0, 0.0, 0.0, 0.0, 0.0, 0.0, 0.0, 0.0, 0.0, 0.0, 1.7296928848272982E9, 0.0, 2024-10-23 19:44:44.827
100.0, 10005.423129251378, 32496.441304259457, 38069.02176964543, 14361.12992300152, 24586.76243862658, 23251.64803882218, 187500.0, 187500.0, 0.216, 0.9540000000000001, -0.124, 192.0, 0.0, 0.0, 0.0, 0.0, 0.0, 0.0, 0.0, 0.0, 0.0, 1.7296928848312829E9, 0.0, 2024-10-23 19:44:44.831
101.0, 10029.406551051921, 32506.588996242168, 38073.91680168114, 14367.053135282176, 24594.697307908216, 23250.239878921497, 187500.0, 187500.0, 0.216, 0.9540000000000001, -0.124, 192.0, 0.0, 0.0, 0.0, 0.0, 0.0, 0.0, 0.0, 0.0, 0.0, 1.7296928848342865E9, 0.0, 2024-10-23 19:44:44.834
102.0, 10051.46772282931, 32392.908023942477, 38073.559173769856, 14373.311623729662, 24591.38924972883, 23230.480936823005, 187500.0, 187500.0, 0.216, 0.9540000000000001, -0.124, 192.0, 0.0, 0.0, 0.0, 0.0, 0.0, 0.0, 0.0, 0.0, 0.0, 1.7296928848383043E9, 0.0, 2024-10-23 19:44:44.838
103.0, 10065.526970091698, 32249.409824539405, 38072.75451096946, 14381.84999011159, 24579.900453078804, 23212.130154625196, 187500.0, 187500.0, 0.216, 0.9540000000000001, -0.124, 192.0, 0.0, 0.0, 0.0, 0.0, 0.0, 0.0, 0.0, 0.0, 0.0, 1.729692884843407E9, 0.0, 2024-10-23 19:44:44.843
104.0, 10011.301638043124, 32293.219243671807, 38057.130641595206, 14363.208635235864, 24571.876176819347, 23218.120422139218, 187500.0, 187500.0, 0.218, 0.9520000000000001, -0.126, 192.0, 6.0, 208.0, 29.0, 192.0, 252.0, 16.0, 0.0, 0.0, 0.0, 1.7296928848463316E9, 0.0, 2024-10-23 19:44:44.846
105.0, 9998.941123359338, 32445.12169899007, 38055.70012995006, 14352.904481041967, 24576.346525710407, 23244.69664629658, 187500.0, 187500.0, 0.218, 0.9520000000000001, -0.126, 192.0, 0.0, 0.0, 0.0, 0.0, 0.0, 0.0, 0.0, 0.0, 0.0, 1.7296928848503184E9, 0.0, 2024-10-23 19:44:44.850
106.0, 10029.183033607369, 32461.594934653633, 38063.85851667625, 14358.961803789354, 24574.42427568725, 23234.481899080503, 187500.0, 187500.0, 0.218, 0.9520000000000001, -0.126, 192.0, 0.0, 0.0, 0.0, 0.0, 0.0, 0.0, 0.0, 0.0, 0.0, 1.7296928848543801E9, 0.0, 2024-10-23 19:44:44.854
107.0, 10053.278214130189, 32359.760386915255, 38068.61943824523, 14373.110458029565, 24574.714848365173, 23211.0796226358, 187500.0, 187500.0, 0.218, 0.9520000000000001, -0.126, 192.0, 0.0, 0.0, 0.0, 0.0, 0.0, 0.0, 0.0, 0.0, 0.0, 1.7296928848584297E9, 0.0, 2024-10-23 19:44:44.858
108.0, 10072.880694017495, 32232.28838828664, 38077.62719126072, 14391.483591971826, 24576.23476698813, 23211.01256740243, 187500.0, 187500.0, 0.218, 0.9520000000000001, -0.126, 192.0, 0.0, 0.0, 0.0, 0.0, 0.0, 0.0, 0.0, 0.0, 0.0, 1.7296928848623424E9, 0.0, 2024-10-23 19:44:44.862
109.0, 10019.616486980496, 32277.953002208833, 38063.545592253875, 14375.591501664103, 24573.261984975576, 23212.979520914498, 187500.0, 187500.0, 0.218, 0.9520000000000001, -0.126, 192.0, 0.0, 0.0, 0.0, 0.0, 0.0, 0.0, 0.0, 0.0, 0.0, 1.729692884867352E9, 0.0, 2024-10-23 19:44:44.867
110.0, 10007.233620552257, 32421.98764347883, 38064.171441098624, 14359.162969489453, 24580.302784478998, 23213.94064592608, 187500.0, 187500.0, 0.218, 0.9520000000000001, -0.126, 192.0, 0.0, 0.0, 0.0, 0.0, 0.0, 0.0, 0.0, 0.0, 0.0, 1.7296928848714423E9, 0.0, 2024-10-23 19:44:44.871
111.0, 10036.246184855245, 32437.879733786554, 38077.85070870527, 14371.098801028587, 24590.49517995062, 23209.60440750175, 187500.0, 187500.0, 0.218, 0.9520000000000001, -0.126, 192.0, 0.0, 0.0, 0.0, 0.0, 0.0, 0.0, 0.0, 0.0, 0.0, 1.7296928848753629E9, 0.0, 2024-10-23 19:44:44.875
112.0, 10059.827275255595, 32342.750709384767, 38082.92455469663, 14393.718766417358, 24579.609880400883, 23217.919256439123, 187500.0, 187500.0, 0.218, 0.9520000000000001, -0.126, 192.0, 0.0, 0.0, 0.0, 0.0, 0.0, 0.0, 0.0, 0.0, 0.0, 1.7296928848784893E9, 0.0, 2024-10-23 19:44:44.878
113.0, 10085.308263934645, 32229.71793767428, 38093.42987459062, 14414.394130038516, 24585.778961870546, 23225.563553042837, 187500.0, 187500.0, 0.218, 0.9520000000000001, -0.126, 192.0, 0.0, 0.0, 0.0, 0.0, 0.0, 0.0, 0.0, 0.0, 0.0, 1.7296928848825393E9, 0.0, 2024-10-23 19:44:44.882
114.0, 10037.900213944939, 32288.637136058467, 38086.7914064874, 14400.51369673177, 24587.656508404794, 23247.200041675573, 187500.0, 187500.0, 0.214, 0.9500000000000001, -0.116, 192.0, 6.0, 176.0, 29.0, 176.0, 252.0, 96.0, 0.0, 0.0, 0.0, 1.7296928848864465E9, 0.0, 2024-10-23 19:44:44.886
115.0, 10030.971173163793, 32443.534725133744, 38087.39490358769, 14389.673100670947, 24590.29401425052, 23259.64996333718, 187500.0, 187500.0, 0.214, 0.9500000000000001, -0.116, 192.0, 0.0, 0.0, 0.0, 0.0, 0.0, 0.0, 0.0, 0.0, 0.0, 1.7296928848904424E9, 0.0, 2024-10-23 19:44:44.890
116.0, 10060.31901363361, 32465.70765563341, 38099.37543861574, 14395.104574573586, 24593.043278818524, 23255.537242357404, 187500.0, 187500.0, 0.214, 0.9500000000000001, -0.116, 192.0, 0.0, 0.0, 0.0, 0.0, 0.0, 0.0, 0.0, 0.0, 0.0, 1.7296928848944485E9, 0.0, 2024-10-23 19:44:44.894
117.0, 10083.94480752287, 32373.17143358844, 38101.40944736117, 14402.324188032651, 24585.019002559067, 23214.32062558182, 187500.0, 187500.0, 0.214, 0.9500000000000001, -0.116, 192.0, 0.0, 0.0, 0.0, 0.0, 0.0, 0.0, 0.0, 0.0, 0.0, 1.7296928848994462E9, 0.0, 2024-10-23 19:44:44.899
118.0, 10095.746528595273, 32250.885039673456, 38097.72140952604, 14409.47674625835, 24574.80425534299, 23203.770602198914, 187500.0, 187500.0, 0.214, 0.9500000000000001, -0.116, 192.0, 0.0, 0.0, 0.0, 0.0, 0.0, 0.0, 0.0, 0.0, 0.0, 1.729692884902527E9, 0.0, 2024-10-23 19:44:44.902
119.0, 10036.60381276653, 32307.747877567755, 38077.314266838344, 14384.554551190682, 24563.628383115338, 23213.31479708133, 187500.0, 187500.0, 0.214, 0.9500000000000001, -0.116, 192.0, 0.0, 0.0, 0.0, 0.0, 0.0, 0.0, 0.0, 0.0, 0.0, 1.729692884906397E9, 0.0, 2024-10-23 19:44:44.906
120.0, 10027.305487073123, 32458.219821240884, 38079.19181337259, 14365.309699214662, 24577.978203055645, 23224.267151864427, 187500.0, 187500.0, 0.214, 0.9500000000000001, -0.116, 192.0, 0.0, 0.0, 0.0, 0.0, 0.0, 0.0, 0.0, 0.0, 0.0, 1.729692884910624E9, 0.0, 2024-10-23 19:44:44.910
121.0, 10054.261690886224, 32478.962240095407, 38088.91482221065, 14374.65272839698, 24592.81976137397, 23262.622745349738, 187500.0, 187500.0, 0.214, 0.9500000000000001, -0.116, 192.0, 0.0, 0.0, 0.0, 0.0, 0.0, 0.0, 0.0, 0.0, 0.0, 1.7296928849146547E9, 0.0, 2024-10-23 19:44:44.914
122.0, 10079.586217354086, 32381.8439104371, 38093.00519144597, 14386.297987258195, 24595.613729430883, 23250.64221032169, 187500.0, 187500.0, 0.214, 0.9500000000000001, -0.116, 192.0, 0.0, 0.0, 0.0, 0.0, 0.0, 0.0, 0.0, 0.0, 0.0, 1.7296928849185283E9, 0.0, 2024-10-23 19:44:44.918
123.0, 10096.551191395663, 32259.5128130332, 38091.19470014509, 14392.020033838753, 24577.464112933176, 23218.63451226169, 187500.0, 187500.0, 0.214, 0.9500000000000001, -0.116, 192.0, 0.0, 0.0, 0.0, 0.0, 0.0, 0.0, 0.0, 0.0, 0.0, 1.729692884922466E9, 0.0, 2024-10-23 19:44:44.922
124.0, 10036.55910927762, 32309.24544444626, 38070.742853968484, 14369.757696361268, 24569.23867097362, 23226.681140265602, 187500.0, 187500.0, 0.214, 0.9500000000000001, -0.116, 192.0, 0.0, 0.0, 0.0, 0.0, 0.0, 0.0, 0.0, 0.0, 0.0, 1.7296928849274423E9, 0.0, 2024-10-23 19:44:44.927
125.0, 10022.812786437606, 32449.368530436583, 38068.507679522954, 14350.065809496142, 24574.893662320814, 23236.672370037126, 187500.0, 187500.0, 0.218, 0.9520000000000001, -0.128, 192.0, 6.0, 208.0, 29.0, 192.0, 252.0, 0.0, 0.0, 0.0, 0.0, 1.7296928849316804E9, 0.0, 2024-10-23 19:44:44.931
126.0, 10047.757333249729, 32462.645466643033, 38076.93428718261, 14354.826731065123, 24585.264871748077, 23234.12427116922, 187500.0, 187500.0, 0.218, 0.9520000000000001, -0.128, 192.0, 0.0, 0.0, 0.0, 0.0, 0.0, 0.0, 0.0, 0.0, 0.0, 1.7296928849344566E9, 0.0, 2024-10-23 19:44:44.934
127.0, 10070.779630038694, 32360.766215415744, 38080.01882791744, 14368.707164371868, 24583.72260138066, 23212.39837555866, 187500.0, 187500.0, 0.218, 0.9520000000000001, -0.128, 192.0, 0.0, 0.0, 0.0, 0.0, 0.0, 0.0, 0.0, 0.0, 0.0, 1.7296928849397247E9, 0.0, 2024-10-23 19:44:44.939
128.0, 10085.129449979002, 32230.835524897044, 38075.503775537465, 14376.55262667568, 24578.67110713376, 23195.276939305895, 187500.0, 187500.0, 0.218, 0.9520000000000001, -0.128, 192.0, 0.0, 0.0, 0.0, 0.0, 0.0, 0.0, 0.0, 0.0, 0.0, 1.729692884942562E9, 0.0, 2024-10-23 19:44:44.942
129.0, 10024.064484127102, 32275.874289974487, 38059.74579569647, 14358.60417587807, 24579.72163912316, 23229.273942622418, 187500.0, 187500.0, 0.218, 0.9520000000000001, -0.128, 192.0, 0.0, 0.0, 0.0, 0.0, 0.0, 0.0, 0.0, 0.0, 0.0, 1.7296928849464552E9, 0.0, 2024-10-23 19:44:44.946
130.0, 10010.876954898471, 32415.237416653326, 38063.2326678315, 14347.36124841705, 24586.315403737477, 23239.39928286067, 187500.0, 187500.0, 0.218, 0.9520000000000001, -0.128, 192.0, 0.0, 0.0, 0.0, 0.0, 0.0, 0.0, 0.0, 0.0, 0.0, 1.7296928849505174E9, 0.0, 2024-10-23 19:44:44.950
131.0, 10036.89438544445, 32422.769954534764, 38071.27929583541, 14357.531292144215, 24585.264871748077, 23243.847280007278, 187500.0, 187500.0, 0.218, 0.9520000000000001, -0.128, 192.0, 0.0, 0.0, 0.0, 0.0, 0.0, 0.0, 0.0, 0.0, 0.0, 1.729692884955571E9, 0.0, 2024-10-23 19:44:44.955
132.0, 10061.838932256573, 32314.229883459793, 38075.03438890391, 14378.161952276463, 24581.19685425721, 23243.31083814035, 187500.0, 187500.0, 0.218, 0.9520000000000001, -0.128, 192.0, 0.0, 0.0, 0.0, 0.0, 0.0, 0.0, 0.0, 0.0, 0.0, 1.729692884958621E9, 0.0, 2024-10-23 19:44:44.958
133.0, 10077.686319075385, 32178.778312060633, 38077.38132207171, 14390.924798360444, 24572.97141229766, 23217.15929712764, 187500.0, 187500.0, 0.218, 0.9520000000000001, -0.128, 192.0, 0.0, 0.0, 0.0, 0.0, 0.0, 0.0, 0.0, 0.0, 0.0, 1.7296928849615097E9, 0.0, 2024-10-23 19:44:44.961
134.0, 10019.4153212804, 32226.6557486839, 38065.55724925485, 14374.250396996786, 24568.411656428776, 23218.45569830605, 187500.0, 187500.0, 0.218, 0.9520000000000001, -0.128, 192.0, 0.0, 0.0, 0.0, 0.0, 0.0, 0.0, 0.0, 0.0, 0.0, 1.7296928849665184E9, 0.0, 2024-10-23 19:44:44.966
135.0, 10004.93139087336, 32364.096625339585, 38065.04315913238, 14358.939452044899, 24576.592394899417, 23225.40709083165, 187500.0, 187500.0, 0.216, 0.9500000000000001, -0.134, 192.0, 6.0, 192.0, 29.0, 176.0, 251.0, 208.0, 0.0, 0.0, 0.0, 1.7296928849705205E9, 0.0, 2024-10-23 19:44:44.970
136.0, 10029.406551051921, 32373.26084056626, 38071.01107490195, 14364.75090560328, 24580.615708901372, 23237.231163648506, 187500.0, 187500.0, 0.216, 0.9500000000000001, -0.134, 192.0, 0.0, 0.0, 0.0, 0.0, 0.0, 0.0, 0.0, 0.0, 0.0, 1.7296928849746013E9, 0.0, 2024-10-23 19:44:44.974
137.0, 10057.36858336551, 32265.368970080493, 38078.00717091646, 14381.000623822287, 24583.29791823601, 23207.011605144933, 187500.0, 187500.0, 0.216, 0.9500000000000001, -0.134, 192.0, 0.0, 0.0, 0.0, 0.0, 0.0, 0.0, 0.0, 0.0, 0.0, 1.72969288497862E9, 0.0, 2024-10-23 19:44:44.978
138.0, 10066.845723014561, 32123.994186400676, 38070.56404001285, 14378.720745887846, 24568.545766895506, 23157.793063854348, 187500.0, 187500.0, 0.216, 0.9500000000000001, -0.134, 192.0, 0.0, 0.0, 0.0, 0.0, 0.0, 0.0, 0.0, 0.0, 0.0, 1.729692884983537E9, 0.0, 2024-10-23 19:44:44.983
139.0, 10009.804071164617, 32187.94252728731, 38062.3833015422, 14368.505998671772, 24571.496197163608, 23220.780279729403, 187500.0, 187500.0, 0.216, 0.9500000000000001, -0.134, 192.0, 0.0, 0.0, 0.0, 0.0, 0.0, 0.0, 0.0, 0.0, 0.0, 1.729692884986611E9, 0.0, 2024-10-23 19:44:44.986
140.0, 10005.579591462563, 32350.998503088776, 38071.70397898006, 14366.784914348713, 24582.29208973552, 23262.93566977211, 187500.0, 187500.0, 0.216, 0.9500000000000001, -0.134, 192.0, 0.0, 0.0, 0.0, 0.0, 0.0, 0.0, 0.0, 0.0, 0.0, 1.7296928849905424E9, 0.0, 2024-10-23 19:44:44.990
141.0, 10033.653382498429, 32374.02079987774, 38077.82835696082, 14369.109495772063, 24579.67693563425, 23252.810329533855, 187500.0, 187500.0, 0.216, 0.9500000000000001, -0.134, 192.0, 0.0, 0.0, 0.0, 0.0, 0.0, 0.0, 0.0, 0.0, 0.0, 1.7296928849946084E9, 0.0, 2024-10-23 19:44:44.994
142.0, 10072.99245273977, 32265.257211358217, 38085.89733670918, 14382.98992907881, 24578.04525828901, 23237.611143304246, 187500.0, 187500.0, 0.216, 0.9500000000000001, -0.134, 192.0, 0.0, 0.0, 0.0, 0.0, 0.0, 0.0, 0.0, 0.0, 0.0, 1.7296928849985173E9, 0.0, 2024-10-23 19:44:44.998
143.0, 10093.757223338751, 32129.984453914698, 38089.18304314411, 14390.56717044916, 24584.348450225407, 23207.637453989682, 187500.0, 187500.0, 0.216, 0.9500000000000001, -0.134, 192.0, 0.0, 0.0, 0.0, 0.0, 0.0, 0.0, 0.0, 0.0, 0.0, 1.729692885002535E9, 0.0, 2024-10-23 19:44:45.002
144.0, 10028.512481273709, 32183.47217839625, 38073.31330458085, 14367.790742849202, 24573.01611578657, 23213.806535459345, 187500.0, 187500.0, 0.216, 0.9500000000000001, -0.134, 192.0, 0.0, 0.0, 0.0, 0.0, 0.0, 0.0, 0.0, 0.0, 0.0, 1.729692885006548E9, 0.0, 2024-10-23 19:44:45.006
145.0, 10017.157795090414, 32334.949950569866, 38070.31817082383, 14355.765504332247, 24567.919918050757, 23243.802576518367, 187500.0, 187500.0, 0.22, 0.9540000000000001, -0.134, 192.0, 6.0, 224.0, 29.0, 208.0, 251.0, 208.0, 0.0, 0.0, 0.0, 1.7296928850115547E9, 0.0, 2024-10-23 19:44:45.011
146.0, 10046.639746026964, 32351.110261811053, 38073.78269121441, 14360.861702068056, 24572.703191364195, 23232.134965912697, 187500.0, 187500.0, 0.22, 0.9540000000000001, -0.134, 192.0, 0.0, 0.0, 0.0, 0.0, 0.0, 0.0, 0.0, 0.0, 0.0, 1.7296928850145552E9, 0.0, 2024-10-23 19:44:45.014
147.0, 10075.629958585496, 32223.168876548873, 38072.53099352491, 14367.924853315933, 24569.328077951443, 23200.976634142, 187500.0, 187500.0, 0.22, 0.9540000000000001, -0.134, 192.0, 0.0, 0.0, 0.0, 0.0, 0.0, 0.0, 0.0, 0.0, 0.0, 1.7296928850176053E9, 0.0, 2024-10-23 19:44:45.017
148.0, 10087.208162213346, 32068.9194880628, 38068.932362667605, 14375.166818519452, 24563.941307537712, 23195.075773605797, 187500.0, 187500.0, 0.22, 0.9540000000000001, -0.134, 192.0, 0.0, 0.0, 0.0, 0.0, 0.0, 0.0, 0.0, 0.0, 0.0, 1.7296928850225503E9, 0.0, 2024-10-23 19:44:45.022
149.0, 10019.392969535944, 32116.796924686067, 38047.05000484586, 14348.50118738427, 24552.586621354418, 23194.069945105308, 187500.0, 187500.0, 0.22, 0.9540000000000001, -0.134, 192.0, 0.0, 0.0, 0.0, 0.0, 0.0, 0.0, 0.0, 0.0, 0.0, 1.7296928850266256E9, 0.0, 2024-10-23 19:44:45.026
150.0, 10007.054806596614, 32267.648848014935, 38047.117060079225, 14332.966724987833, 24556.0958452339, 23205.44698303306, 187500.0, 187500.0, 0.22, 0.9540000000000001, -0.134, 192.0, 0.0, 0.0, 0.0, 0.0, 0.0, 0.0, 0.0, 0.0, 0.0, 1.729692885033615E9, 0.0, 2024-10-23 19:44:45.033
151.0, 10037.631993011475, 32290.514682592715, 38056.86242066174, 14344.679039082414, 24562.309630192474, 23223.663654764136, 187500.0, 187500.0, 0.22, 0.9540000000000001, -0.134, 192.0, 0.0, 0.0, 0.0, 0.0, 0.0, 0.0, 0.0, 0.0, 0.0, 1.7296928850366127E9, 0.0, 2024-10-23 19:44:45.036
152.0, 10078.468630131321, 32174.66559108086, 38071.72633072452, 14374.876245841533, 24571.809121585982, 23238.30404738236, 187500.0, 187500.0, 0.22, 0.9540000000000001, -0.134, 192.0, 0.0, 0.0, 0.0, 0.0, 0.0, 0.0, 0.0, 0.0, 0.0, 1.7296928850406413E9, 0.0, 2024-10-23 19:44:45.040
153.0, 10102.183830998401, 32035.391871379838, 38084.802101230875, 14394.143449562009, 24576.61474664387, 23215.773488971412, 187500.0, 187500.0, 0.22, 0.9540000000000001, -0.134, 192.0, 0.0, 0.0, 0.0, 0.0, 0.0, 0.0, 0.0, 0.0, 0.0, 1.7296928850436273E9, 0.0, 2024-10-23 19:44:45.043
154.0, 10027.305487073123, 32084.766874881614, 38060.66221721914, 14370.003565550276, 24566.556461638986, 23226.614085032237, 187500.0, 187500.0, 0.22, 0.9540000000000001, -0.134, 192.0, 0.0, 0.0, 0.0, 0.0, 0.0, 0.0, 0.0, 0.0, 0.0, 1.7296928850466192E9, 0.0, 2024-10-23 19:44:45.046
155.0, 10015.168489833892, 32237.988083122742, 38064.99845564347, 14357.106608999564, 24585.019002559067, 23244.651942807668, 187500.0, 187500.0, 0.218, 0.9500000000000001, -0.122, 192.0, 6.0, 208.0, 29.0, 176.0, 252.0, 48.0, 0.0, 0.0, 0.0, 1.729692885050156E9, 0.0, 2024-10-23 19:44:45.050
156.0, 10040.314202346111, 32256.160051364906, 38072.93332492511, 14362.739248602302, 24584.616671158874, 23237.007646203954, 187500.0, 187500.0, 0.218, 0.9500000000000001, -0.122, 192.0, 0.0, 0.0, 0.0, 0.0, 0.0, 0.0, 0.0, 0.0, 0.0, 1.7296928850547023E9, 0.0, 2024-10-23 19:44:45.054
157.0, 10072.545417850664, 32131.660834748847, 38072.17336561363, 14379.860684855066, 24573.127874508846, 23209.224427846006, 187500.0, 187500.0, 0.218, 0.9500000000000001, -0.122, 192.0, 0.0, 0.0, 0.0, 0.0, 0.0, 0.0, 0.0, 0.0, 0.0, 1.7296928850586774E9, 0.0, 2024-10-23 19:44:45.058
158.0, 10091.700862848862, 31990.46486502467, 38072.978028414014, 14401.206600809885, 24566.735275594627, 23208.576227256803, 187500.0, 187500.0, 0.218, 0.9500000000000001, -0.122, 192.0, 0.0, 0.0, 0.0, 0.0, 0.0, 0.0, 0.0, 0.0, 0.0, 1.7296928850626788E9, 0.0, 2024-10-23 19:44:45.062
159.0, 10023.438635282355, 32053.63089485537, 38052.72734793751, 14380.419478466449, 24556.52052837855, 23221.137907640685, 187500.0, 187500.0, 0.218, 0.9500000000000001, -0.122, 192.0, 0.0, 0.0, 0.0, 0.0, 0.0, 0.0, 0.0, 0.0, 0.0, 1.729692885066706E9, 0.0, 2024-10-23 19:44:45.066
160.0, 10013.715626444297, 32216.5527601901, 38060.05872011885, 14370.674117883937, 24568.456359917684, 23227.530506554904, 187500.0, 187500.0, 0.218, 0.9500000000000001, -0.122, 192.0, 0.0, 0.0, 0.0, 0.0, 0.0, 0.0, 0.0, 0.0, 0.0, 1.7296928850706873E9, 0.0, 2024-10-23 19:44:45.070
161.0, 10049.858397228527, 32248.582809994557, 38076.80017671587, 14378.720745887846, 24588.662336905283, 23217.271055849917, 187500.0, 187500.0, 0.218, 0.9500000000000001, -0.122, 192.0, 0.0, 0.0, 0.0, 0.0, 0.0, 0.0, 0.0, 0.0, 0.0, 1.7296928850737092E9, 0.0, 2024-10-23 19:44:45.073
162.0, 10083.073089489113, 32132.35373882696, 38086.120854153734, 14401.430118254439, 24595.39021198633, 23250.150471943674, 187500.0, 187500.0, 0.218, 0.9500000000000001, -0.122, 192.0, 0.0, 0.0, 0.0, 0.0, 0.0, 0.0, 0.0, 0.0, 0.0, 1.7296928850786788E9, 0.0, 2024-10-23 19:44:45.078
163.0, 10086.33644417959, 31979.736027686125, 38071.86044119125, 14399.932551375932, 24577.709982122182, 23223.998930930964, 187500.0, 187500.0, 0.218, 0.9500000000000001, -0.122, 192.0, 0.0, 0.0, 0.0, 0.0, 0.0, 0.0, 0.0, 0.0, 0.0, 1.7296928850830212E9, 0.0, 2024-10-23 19:44:45.083
164.0, 10025.338533561056, 32048.557048864015, 38064.77493819892, 14378.966615076855, 24573.641964631315, 23227.84343097728, 187500.0, 187500.0, 0.218, 0.9500000000000001, -0.122, 192.0, 0.0, 0.0, 0.0, 0.0, 0.0, 0.0, 0.0, 0.0, 0.0, 1.7296928850867133E9, 0.0, 2024-10-23 19:44:45.086
165.0, 10014.274420055679, 32213.445867710816, 38068.507679522954, 14366.874321326533, 24577.709982122182, 23245.41190211915, 187500.0, 187500.0, 0.22, 0.9540000000000001, -0.122, 192.0, 6.0, 224.0, 29.0, 208.0, 252.0, 48.0, 0.0, 0.0, 0.0, 1.7296928850906913E9, 0.0, 2024-10-23 19:44:45.090
