%OpenBCI Raw EXG Data
%Number of channels = 8
%Sample Rate = 250 Hz
%Board = OpenBCI_GUI$BoardCytonSerial
Sample Index, EXG Channel 0, EXG Channel 1, EXG Channel 2, EXG Channel 3, EXG Channel 4, EXG Channel 5, EXG Channel 6, EXG Channel 7, Accel Channel 0, Accel Channel 1, Accel Channel 2, Other, Other, Other, Other, Other, Other, Other, Analog Channel 0, Analog Channel 1, Analog Channel 2, Timestamp, Other, Timestamp (Formatted)
0.0, 0.0, 0.0, 0.0, 0.0, 0.0, 0.0, 0.0, 0.0, 0.0, 0.0, 0.0, 192.0, 0.0, 0.0, 0.0, 0.0, 0.0, 0.0, 0.0, 0.0, 0.0, 1.7297056627315848E9, 0.0, 2024-10-23 23:17:42.731
1.0, -41889.35958020206, -49433.743886201846, -17601.954055065402, -17947.087341199796, -8612.775339219015, -8441.67273541364, -187500.02235174447, -187500.02235174447, -0.20600000000000002, 0.798, 0.52, 192.0, 249.0, 144.0, 24.0, 240.0, 16.0, 64.0, 0.0, 0.0, 0.0, 1.7297056627474787E9, 0.0, 2024-10-23 23:17:42.747
2.0, -41843.538504068674, -49319.794692968695, -17594.53327590624, -17599.29419747522, -8618.653848010761, -8418.583383391308, -187500.02235174447, -187500.02235174447, -0.20600000000000002, 0.798, 0.52, 192.0, 0.0, 0.0, 0.0, 0.0, 0.0, 0.0, 0.0, 0.0, 0.0, 1.729705662750606E9, 0.0, 2024-10-23 23:17:42.750
3.0, -41931.58202547813, -49478.78265127929, -17610.58182842515, -17879.227445033484, -8633.18248190671, -8460.291738544911, -187500.02235174447, -187500.02235174447, -0.20600000000000002, 0.798, 0.52, 192.0, 0.0, 0.0, 0.0, 0.0, 0.0, 0.0, 0.0, 0.0, 0.0, 1.7297056627546055E9, 0.0, 2024-10-23 23:17:42.754
4.0, -42018.99969804283, -49672.92990361809, -17615.767433138783, -18400.760698409165, -8632.042542939489, -8504.324675121865, -187500.02235174447, -187500.02235174447, -0.20600000000000002, 0.798, 0.52, 192.0, 0.0, 0.0, 0.0, 0.0, 0.0, 0.0, 0.0, 0.0, 0.0, 1.729705662758584E9, 0.0, 2024-10-23 23:17:42.758
5.0, -41989.62950582856, -49652.38865046366, -17597.237836985332, -18450.22510888876, -8620.0843596559, -8495.696901762116, -187500.02235174447, -187500.02235174447, -0.20600000000000002, 0.798, 0.52, 192.0, 0.0, 0.0, 0.0, 0.0, 0.0, 0.0, 0.0, 0.0, 0.0, 1.7297056627628984E9, 0.0, 2024-10-23 23:17:42.762
6.0, -41874.47331839482, -49426.904252398526, -17553.294307386197, -17924.847355466765, -8608.684969983695, -8433.134369031712, -187500.02235174447, -187500.02235174447, -0.20600000000000002, 0.798, 0.52, 192.0, 0.0, 0.0, 0.0, 0.0, 0.0, 0.0, 0.0, 0.0, 0.0, 1.7297056627676475E9, 0.0, 2024-10-23 23:17:42.767
7.0, -41829.568663784106, -49317.33600107861, -17532.015446664744, -17574.52846461874, -8607.343865316376, -8404.904115784659, -187500.02235174447, -187500.02235174447, -0.20600000000000002, 0.798, 0.52, 192.0, 0.0, 0.0, 0.0, 0.0, 0.0, 0.0, 0.0, 0.0, 0.0, 1.7297056627715416E9, 0.0, 2024-10-23 23:17:42.771
8.0, -41906.48101645482, -49461.88473247108, -17531.00961816426, -17845.118682994686, -8611.434234551696, -8439.236395268012, -187500.02235174447, -187500.02235174447, -0.192, 0.806, 0.504, 192.0, 250.0, 0.0, 25.0, 48.0, 15.0, 192.0, 0.0, 0.0, 0.0, 1.7297056627757068E9, 0.0, 2024-10-23 23:17:42.775
9.0, -41996.89382277654, -49655.22732200949, -17538.832728723613, -18368.931814304808, -8615.94928693167, -8482.688186489127, -187500.02235174447, -187500.02235174447, -0.192, 0.806, 0.504, 192.0, 0.0, 0.0, 0.0, 0.0, 0.0, 0.0, 0.0, 0.0, 0.0, 1.7297056627786748E9, 0.0, 2024-10-23 23:17:42.778
10.0, -41977.67132254497, -49642.68799337006, -17530.406121063963, -18431.471995290758, -8604.192269348177, -8477.480230031042, -187500.02235174447, -187500.02235174447, -0.192, 0.806, 0.504, 192.0, 0.0, 0.0, 0.0, 0.0, 0.0, 0.0, 0.0, 0.0, 0.0, 1.729705662782792E9, 0.0, 2024-10-23 23:17:42.782
11.0, -41863.49861186727, -49415.415455748494, -17496.006786347247, -17910.050500637353, -8587.741385429072, -8412.526060643919, -187500.02235174447, -187500.02235174447, -0.192, 0.806, 0.504, 192.0, 0.0, 0.0, 0.0, 0.0, 0.0, 0.0, 0.0, 0.0, 0.0, 1.7297056627866623E9, 0.0, 2024-10-23 23:17:42.786
12.0, -41821.16440786891, -49305.06489337265, -17496.185600302888, -17567.15238894849, -8596.525621000006, -8387.939141743082, -187500.02235174447, -187500.02235174447, -0.192, 0.806, 0.504, 192.0, 0.0, 0.0, 0.0, 0.0, 0.0, 0.0, 0.0, 0.0, 0.0, 1.7297056627906697E9, 0.0, 2024-10-23 23:17:42.790
13.0, -41911.644269423996, -49459.35898534763, -17527.410987306954, -17850.52780515287, -8617.022170665523, -8425.758293361461, -187500.02235174447, -187500.02235174447, -0.192, 0.806, 0.504, 192.0, 0.0, 0.0, 0.0, 0.0, 0.0, 0.0, 0.0, 0.0, 0.0, 1.729705662794676E9, 0.0, 2024-10-23 23:17:42.794
14.0, -42014.08231426267, -49664.25742676943, -17567.465313370863, -18391.77529713813, -8633.450702840175, -8477.279064330944, -187500.02235174447, -187500.02235174447, -0.192, 0.806, 0.504, 192.0, 0.0, 0.0, 0.0, 0.0, 0.0, 0.0, 0.0, 0.0, 0.0, 1.72970566279999E9, 0.0, 2024-10-23 23:17:42.799
15.0, -42005.7674653253, -49659.69767090055, -17589.459429914885, -18465.916033496385, -8617.066874154434, -8476.764974208472, -187500.02235174447, -187500.02235174447, -0.192, 0.806, 0.504, 192.0, 0.0, 0.0, 0.0, 0.0, 0.0, 0.0, 0.0, 0.0, 0.0, 1.7297056628036392E9, 0.0, 2024-10-23 23:17:42.803
16.0, -41902.30124024168, -49440.85174093863, -17586.844275813615, -17953.859919769755, -8610.60722000685, -8421.153834003668, -187500.02235174447, -187500.02235174447, -0.192, 0.806, 0.504, 192.0, 0.0, 0.0, 0.0, 0.0, 0.0, 0.0, 0.0, 0.0, 0.0, 1.7297056628067863E9, 0.0, 2024-10-23 23:17:42.806
17.0, -41864.102108967556, -49333.47396057534, -17609.575999924662, -17618.069662817677, -8629.51679581604, -8404.61354310674, -187500.02235174447, -187500.02235174447, -0.192, 0.806, 0.504, 192.0, 0.0, 0.0, 0.0, 0.0, 0.0, 0.0, 0.0, 0.0, 0.0, 1.729705662810635E9, 0.0, 2024-10-23 23:17:42.810
18.0, -41952.7044239884, -49486.449299627464, -17651.150244611534, -17895.678328952592, -8651.265043171054, -8453.876787886236, -187500.02235174447, -187500.02235174447, -0.188, 0.8160000000000001, 0.498, 192.0, 250.0, 32.0, 25.0, 128.0, 15.0, 144.0, 0.0, 0.0, 0.0, 1.7297056628146508E9, 0.0, 2024-10-23 23:17:42.814
19.0, -42045.106535566636, -49684.865735157226, -17681.146285670555, -18429.102710378495, -8655.310708917465, -8509.845556002327, -187500.02235174447, -187500.02235174447, -0.188, 0.8160000000000001, 0.498, 192.0, 0.0, 0.0, 0.0, 0.0, 0.0, 0.0, 0.0, 0.0, 0.0, 1.7297056628186347E9, 0.0, 2024-10-23 23:17:42.818
20.0, -42021.03370678827, -49667.11845005971, -17686.577759573192, -18489.139495985448, -8643.844264011892, -8506.291628633931, -187500.02235174447, -187500.02235174447, -0.188, 0.8160000000000001, 0.498, 192.0, 0.0, 0.0, 0.0, 0.0, 0.0, 0.0, 0.0, 0.0, 0.0, 1.7297056628231385E9, 0.0, 2024-10-23 23:17:42.823
21.0, -41909.78907463421, -49444.428020051484, -17669.568082042704, -17965.862806542256, -8640.200929665676, -8452.736848919016, -187500.02235174447, -187500.02235174447, -0.188, 0.8160000000000001, 0.498, 192.0, 0.0, 0.0, 0.0, 0.0, 0.0, 0.0, 0.0, 0.0, 0.0, 1.7297056628276565E9, 0.0, 2024-10-23 23:17:42.827
22.0, -41859.94468449887, -49330.56823379615, -17664.78480872927, -17611.76647088128, -8641.162054677256, -8424.528947416418, -187500.02235174447, -187500.02235174447, -0.188, 0.8160000000000001, 0.498, 192.0, 0.0, 0.0, 0.0, 0.0, 0.0, 0.0, 0.0, 0.0, 0.0, 1.7297056628327484E9, 0.0, 2024-10-23 23:17:42.832
23.0, -41934.68891795742, -49469.84195349717, -17673.949023955945, -17871.694907152047, -8642.547862833484, -8454.81556115336, -187500.02235174447, -187500.02235174447, -0.188, 0.8160000000000001, 0.498, 192.0, 0.0, 0.0, 0.0, 0.0, 0.0, 0.0, 0.0, 0.0, 0.0, 1.7297056628356671E9, 0.0, 2024-10-23 23:17:42.835
24.0, -42020.87724457708, -49666.71611865951, -17682.487390337872, -18403.666425188356, -8641.005592466068, -8500.413119842187, -187500.02235174447, -187500.02235174447, -0.188, 0.8160000000000001, 0.498, 192.0, 0.0, 0.0, 0.0, 0.0, 0.0, 0.0, 0.0, 0.0, 0.0, 1.7297056628386395E9, 0.0, 2024-10-23 23:17:42.838
25.0, -42002.660572846005, -49659.63061566718, -17679.58166355868, -18475.594338845534, -8634.791807507492, -8499.496698319519, -187500.02235174447, -187500.02235174447, -0.188, 0.8160000000000001, 0.498, 192.0, 0.0, 0.0, 0.0, 0.0, 0.0, 0.0, 0.0, 0.0, 0.0, 1.729705662843701E9, 0.0, 2024-10-23 23:17:42.843
26.0, -41886.76677784524, -49434.25797632432, -17644.24355557484, -17951.155358690663, -8622.408941079253, -8439.504616201475, -187500.02235174447, -187500.02235174447, -0.188, 0.8160000000000001, 0.498, 192.0, 0.0, 0.0, 0.0, 0.0, 0.0, 0.0, 0.0, 0.0, 0.0, 1.7297056628467283E9, 0.0, 2024-10-23 23:17:42.846
27.0, -41835.40246908694, -49315.749027222286, -17631.368950768585, -17585.927854290945, -8623.057141668456, -8409.061540253346, -187500.02235174447, -187500.02235174447, -0.188, 0.8160000000000001, 0.498, 192.0, 0.0, 0.0, 0.0, 0.0, 0.0, 0.0, 0.0, 0.0, 0.0, 1.7297056628507452E9, 0.0, 2024-10-23 23:17:42.850
28.0, -41913.454760724875, -49461.705918515436, -17641.382532284562, -17850.460749919504, -8633.94244121819, -8440.71161040206, -187500.02235174447, -187500.02235174447, -0.194, 0.8260000000000001, 0.498, 192.0, 249.0, 240.0, 25.0, 208.0, 15.0, 144.0, 0.0, 0.0, 0.0, 1.7297056628547676E9, 0.0, 2024-10-23 23:17:42.854
29.0, -42002.19118621245, -49661.28464475687, -17646.366971298095, -18385.49445694619, -8625.784054492004, -8476.966139908569, -187500.02235174447, -187500.02235174447, -0.194, 0.8260000000000001, 0.498, 192.0, 0.0, 0.0, 0.0, 0.0, 0.0, 0.0, 0.0, 0.0, 0.0, 1.72970566285875E9, 0.0, 2024-10-23 23:17:42.858
30.0, -41985.87441276007, -49657.90953134412, -17642.34365729614, -18459.568138071078, -8615.882231698302, -8471.020575883458, -187500.02235174447, -187500.02235174447, -0.194, 0.8260000000000001, 0.498, 192.0, 0.0, 0.0, 0.0, 0.0, 0.0, 0.0, 0.0, 0.0, 0.0, 1.7297056628628736E9, 0.0, 2024-10-23 23:17:42.862
31.0, -41870.405300903956, -49432.93922340146, -17608.972502824367, -17935.21856489403, -8600.548935001962, -8403.09362448378, -187500.02235174447, -187500.02235174447, -0.194, 0.8260000000000001, 0.498, 192.0, 0.0, 0.0, 0.0, 0.0, 0.0, 0.0, 0.0, 0.0, 0.0, 1.7297056628667088E9, 0.0, 2024-10-23 23:17:42.866
32.0, -41829.90393995094, -49322.94628893689, -17610.58182842515, -17576.67423208645, -8608.327342072409, -8374.952778214549, -187500.02235174447, -187500.02235174447, -0.194, 0.8260000000000001, 0.498, 192.0, 0.0, 0.0, 0.0, 0.0, 0.0, 0.0, 0.0, 0.0, 0.0, 1.7297056628716743E9, 0.0, 2024-10-23 23:17:42.871
33.0, -41911.711324657364, -49469.529029074794, -17629.111424578598, -17836.736778823946, -8620.129063144812, -8405.70877858505, -187500.02235174447, -187500.02235174447, -0.194, 0.8260000000000001, 0.498, 192.0, 0.0, 0.0, 0.0, 0.0, 0.0, 0.0, 0.0, 0.0, 0.0, 1.7297056628747115E9, 0.0, 2024-10-23 23:17:42.874
34.0, -42007.64501185954, -49673.75691816294, -17648.132759110067, -18376.01731729714, -8611.925972929714, -8446.09838081579, -187500.02235174447, -187500.02235174447, -0.194, 0.8260000000000001, 0.498, 192.0, 0.0, 0.0, 0.0, 0.0, 0.0, 0.0, 0.0, 0.0, 0.0, 1.72970566287874E9, 0.0, 2024-10-23 23:17:42.878
35.0, -42001.29711643423, -49676.461479242025, -17664.11425639561, -18458.897585737417, -8609.690798484182, -8449.004107594981, -187500.02235174447, -187500.02235174447, -0.194, 0.8260000000000001, 0.498, 192.0, 0.0, 0.0, 0.0, 0.0, 0.0, 0.0, 0.0, 0.0, 0.0, 1.7297056628838148E9, 0.0, 2024-10-23 23:17:42.883
36.0, -41891.17007150294, -49454.21808412291, -17648.98212539937, -17940.672390541124, -8599.721920457116, -8387.693272554074, -187500.02235174447, -187500.02235174447, -0.194, 0.8260000000000001, 0.498, 192.0, 0.0, 0.0, 0.0, 0.0, 0.0, 0.0, 0.0, 0.0, 0.0, 1.7297056628877785E9, 0.0, 2024-10-23 23:17:42.887
37.0, -41845.39369885847, -49340.91709147896, -17661.49910229434, -17588.67711885895, -8605.578077504406, -8365.654452521141, -187500.02235174447, -187500.02235174447, -0.194, 0.8260000000000001, 0.498, 192.0, 0.0, 0.0, 0.0, 0.0, 0.0, 0.0, 0.0, 0.0, 0.0, 1.7297056628917265E9, 0.0, 2024-10-23 23:17:42.891
38.0, -41920.786132906214, -49483.81179378174, -17689.997576474856, -17849.58903188575, -8619.927897444713, -8404.188859962089, -187500.02235174447, -187500.02235174447, -0.194, 0.8160000000000001, 0.494, 192.0, 249.0, 240.0, 25.0, 128.0, 15.0, 112.0, 0.0, 0.0, 0.0, 1.7297056628949564E9, 0.0, 2024-10-23 23:17:42.894
39.0, -42010.81895957219, -49688.21849682552, -17722.832289079703, -18396.223294284737, -8636.37878136382, -8463.15276183519, -187500.02235174447, -187500.02235174447, -0.194, 0.8160000000000001, 0.494, 192.0, 0.0, 0.0, 0.0, 0.0, 0.0, 0.0, 0.0, 0.0, 0.0, 1.7297056628997576E9, 0.0, 2024-10-23 23:17:42.899
40.0, -41995.15038670902, -49683.9269618901, -17737.74090263139, -18486.32317618408, -8635.864691241348, -8472.62990148424, -187500.02235174447, -187500.02235174447, -0.194, 0.8160000000000001, 0.494, 192.0, 0.0, 0.0, 0.0, 0.0, 0.0, 0.0, 0.0, 0.0, 0.0, 1.7297056629028325E9, 0.0, 2024-10-23 23:17:42.902
41.0, -41889.02430403523, -49464.83516273918, -17726.47562342592, -17976.74810609199, -8640.379743621319, -8428.90988932966, -187500.02235174447, -187500.02235174447, -0.194, 0.8160000000000001, 0.494, 192.0, 0.0, 0.0, 0.0, 0.0, 0.0, 0.0, 0.0, 0.0, 0.0, 1.729705662906744E9, 0.0, 2024-10-23 23:17:42.906
42.0, -41839.33637611108, -49342.995803713304, -17726.922658315023, -17617.890848862036, -8652.47203737164, -8413.464833911043, -187500.02235174447, -187500.02235174447, -0.194, 0.8160000000000001, 0.494, 192.0, 0.0, 0.0, 0.0, 0.0, 0.0, 0.0, 0.0, 0.0, 0.0, 1.7297056629107049E9, 0.0, 2024-10-23 23:17:42.910
43.0, -41917.14279856, -49481.196639680464, -17742.50182420037, -17865.235253004463, -8664.318461932953, -8450.009936095468, -187500.02235174447, -187500.02235174447, -0.194, 0.8160000000000001, 0.494, 192.0, 0.0, 0.0, 0.0, 0.0, 0.0, 0.0, 0.0, 0.0, 0.0, 1.7297056629147403E9, 0.0, 2024-10-23 23:17:42.914
44.0, -42009.41079967151, -49686.36330203573, -17757.633955196616, -18412.74123343721, -8672.834476570426, -8505.554021066908, -187500.02235174447, -187500.02235174447, -0.194, 0.8160000000000001, 0.494, 192.0, 0.0, 0.0, 0.0, 0.0, 0.0, 0.0, 0.0, 0.0, 0.0, 1.7297056629191482E9, 0.0, 2024-10-23 23:17:42.919
45.0, -41986.991999982834, -49675.45565074154, -17747.508614958362, -18496.56027514461, -8657.501179874085, -8500.949561709114, -187500.02235174447, -187500.02235174447, -0.194, 0.8160000000000001, 0.494, 192.0, 0.0, 0.0, 0.0, 0.0, 0.0, 0.0, 0.0, 0.0, 0.0, 1.729705662922806E9, 0.0, 2024-10-23 23:17:42.922
46.0, -41869.80180380366, -49447.847836953144, -17711.07527149621, -17971.003707766977, -8641.005592466068, -8438.43173246762, -187500.02235174447, -187500.02235174447, -0.194, 0.8160000000000001, 0.494, 192.0, 0.0, 0.0, 0.0, 0.0, 0.0, 0.0, 0.0, 0.0, 0.0, 1.729705662927802E9, 0.0, 2024-10-23 23:17:42.927
47.0, -41825.232425359776, -49331.14937915199, -17708.9295040285, -17602.33403472114, -8654.28252867252, -8418.09164501329, -187500.02235174447, -187500.02235174447, -0.194, 0.8160000000000001, 0.494, 192.0, 0.0, 0.0, 0.0, 0.0, 0.0, 0.0, 0.0, 0.0, 0.0, 1.729705662930781E9, 0.0, 2024-10-23 23:17:42.930
48.0, -41900.4907489408, -49464.20931389443, -17719.546582644773, -17848.33733419625, -8668.274720701542, -8454.703802431084, -187500.02235174447, -187500.02235174447, -0.19, 0.81, 0.49, 192.0, 250.0, 16.0, 25.0, 80.0, 15.0, 80.0, 0.0, 0.0, 0.0, 1.7297056629338078E9, 0.0, 2024-10-23 23:17:42.933
49.0, -41988.57897383916, -49665.73264190348, -17721.26766696783, -18387.12613429143, -8650.438028626208, -8495.272218617465, -187500.02235174447, -187500.02235174447, -0.19, 0.81, 0.49, 192.0, 0.0, 0.0, 0.0, 0.0, 0.0, 0.0, 0.0, 0.0, 0.0, 1.7297056629387963E9, 0.0, 2024-10-23 23:17:42.938
50.0, -41976.62079055557, -49668.012519837925, -17718.093719255176, -18468.66529806439, -8640.156226176767, -8497.417986085175, -187500.02235174447, -187500.02235174447, -0.19, 0.81, 0.49, 192.0, 0.0, 0.0, 0.0, 0.0, 0.0, 0.0, 0.0, 0.0, 0.0, 1.7297056629428275E9, 0.0, 2024-10-23 23:17:42.942
51.0, -41864.41503338993, -49444.226854351386, -17684.11906768311, -17951.51298660195, -8622.721865501628, -8433.00025856498, -187500.02235174447, -187500.02235174447, -0.19, 0.81, 0.49, 192.0, 0.0, 0.0, 0.0, 0.0, 0.0, 0.0, 0.0, 0.0, 0.0, 1.729705662946823E9, 0.0, 2024-10-23 23:17:42.946
52.0, -41812.84955893154, -49321.873405203034, -17671.78090474378, -17579.356441421085, -8618.631496266305, -8398.869144781727, -187500.02235174447, -187500.02235174447, -0.19, 0.81, 0.49, 192.0, 0.0, 0.0, 0.0, 0.0, 0.0, 0.0, 0.0, 0.0, 0.0, 1.72970566295093E9, 0.0, 2024-10-23 23:17:42.950
53.0, -41886.16328074495, -49459.26957836981, -17677.79352400226, -17816.351987880706, -8620.732560245104, -8423.456063682564, -187500.02235174447, -187500.02235174447, -0.19, 0.81, 0.49, 192.0, 0.0, 0.0, 0.0, 0.0, 0.0, 0.0, 0.0, 0.0, 0.0, 1.729705662955951E9, 0.0, 2024-10-23 23:17:42.955
54.0, -41977.06782544468, -49663.050432568845, -17682.554445571237, -18355.00667750915, -8613.937629930691, -8457.922453632647, -187500.02235174447, -187500.02235174447, -0.19, 0.81, 0.49, 192.0, 0.0, 0.0, 0.0, 0.0, 0.0, 0.0, 0.0, 0.0, 0.0, 1.729705662958952E9, 0.0, 2024-10-23 23:17:42.958
55.0, -41971.43518584194, -49668.52660996039, -17682.88972173807, -18441.396169828913, -8600.437176279685, -8450.09934307329, -187500.02235174447, -187500.02235174447, -0.19, 0.81, 0.49, 192.0, 0.0, 0.0, 0.0, 0.0, 0.0, 0.0, 0.0, 0.0, 0.0, 1.7297056629618134E9, 0.0, 2024-10-23 23:17:42.961
56.0, -41871.12055672653, -49451.46881955491, -17666.30472735223, -17926.523736300915, -8591.27296105301, -8386.732147542494, -187500.02235174447, -187500.02235174447, -0.19, 0.81, 0.49, 192.0, 0.0, 0.0, 0.0, 0.0, 0.0, 0.0, 0.0, 0.0, 0.0, 1.7297056629668496E9, 0.0, 2024-10-23 23:17:42.966
57.0, -41830.35097484005, -49338.48075133333, -17679.492256580863, -17558.457560355375, -8599.878382668303, -8357.808990217327, -187500.02235174447, -187500.02235174447, -0.19, 0.81, 0.49, 192.0, 0.0, 0.0, 0.0, 0.0, 0.0, 0.0, 0.0, 0.0, 0.0, 1.7297056629708152E9, 0.0, 2024-10-23 23:17:42.970
58.0, -41903.530586186724, -49470.06547094172, -17703.341567914675, -17797.934150449535, -8602.22531583611, -8381.792412017872, -187500.02235174447, -187500.02235174447, -0.196, 0.81, 0.488, 192.0, 249.0, 224.0, 25.0, 80.0, 15.0, 64.0, 0.0, 0.0, 0.0, 1.7297056629755688E9, 0.0, 2024-10-23 23:17:42.975
59.0, -42000.291287933745, -49679.03192985439, -17733.292905484785, -18352.10095072996, -8600.884211168792, -8428.529909673918, -187500.02235174447, -187500.02235174447, -0.196, 0.81, 0.488, 192.0, 0.0, 0.0, 0.0, 0.0, 0.0, 0.0, 0.0, 0.0, 0.0, 1.7297056629788365E9, 0.0, 2024-10-23 23:17:42.978
60.0, -41986.6120203271, -49679.99305486597, -17747.106283558165, -18455.4554170913, -8595.60919947734, -8433.447293454086, -187500.02235174447, -187500.02235174447, -0.196, 0.81, 0.488, 192.0, 0.0, 0.0, 0.0, 0.0, 0.0, 0.0, 0.0, 0.0, 0.0, 1.729705662983876E9, 0.0, 2024-10-23 23:17:42.983
61.0, -41884.41984467743, -49464.79045925027, -17742.211251522454, -17950.55186159037, -8601.107728613344, -8390.576647588807, -187500.02235174447, -187500.02235174447, -0.196, 0.81, 0.488, 192.0, 0.0, 0.0, 0.0, 0.0, 0.0, 0.0, 0.0, 0.0, 0.0, 1.7297056629869576E9, 0.0, 2024-10-23 23:17:42.986
62.0, -41843.24793139076, -49349.27664390524, -17753.074199327733, -17590.57701713765, -8615.412845064742, -8381.144211428667, -187500.02235174447, -187500.02235174447, -0.196, 0.81, 0.488, 192.0, 0.0, 0.0, 0.0, 0.0, 0.0, 0.0, 0.0, 0.0, 0.0, 1.7297056629909537E9, 0.0, 2024-10-23 23:17:42.990
63.0, -41918.707420671875, -49479.743776290874, -17766.306432045276, -17831.551174110315, -8624.219432380132, -8421.131482259212, -187500.02235174447, -187500.02235174447, -0.196, 0.81, 0.488, 192.0, 0.0, 0.0, 0.0, 0.0, 0.0, 0.0, 0.0, 0.0, 0.0, 1.7297056629949906E9, 0.0, 2024-10-23 23:17:42.994
64.0, -42011.86949156159, -49682.83172641179, -17776.99056589491, -18390.054212815074, -8631.528452817018, -8477.39082305322, -187500.02235174447, -187500.02235174447, -0.196, 0.81, 0.488, 192.0, 0.0, 0.0, 0.0, 0.0, 0.0, 0.0, 0.0, 0.0, 0.0, 1.7297056629988277E9, 0.0, 2024-10-23 23:17:42.998
65.0, -41999.77719781127, -49682.51880198942, -17772.85549317068, -18493.90041755443, -8629.628554538316, -8484.63278825674, -187500.02235174447, -187500.02235174447, -0.196, 0.81, 0.488, 192.0, 0.0, 0.0, 0.0, 0.0, 0.0, 0.0, 0.0, 0.0, 0.0, 1.7297056630029297E9, 0.0, 2024-10-23 23:17:43.002
66.0, -41893.740522115295, -49463.516409816315, -17747.2403940249, -17987.99103355301, -8634.27771738502, -8438.43173246762, -187500.02235174447, -187500.02235174447, -0.196, 0.81, 0.488, 192.0, 0.0, 0.0, 0.0, 0.0, 0.0, 0.0, 0.0, 0.0, 0.0, 1.7297056630069907E9, 0.0, 2024-10-23 23:17:43.006
67.0, -41850.266379149725, -49344.98510896982, -17741.51834744434, -17621.712997163893, -8648.560482091962, -8422.360828204255, -187500.02235174447, -187500.02235174447, -0.196, 0.81, 0.488, 192.0, 0.0, 0.0, 0.0, 0.0, 0.0, 0.0, 0.0, 0.0, 0.0, 1.729705663011942E9, 0.0, 2024-10-23 23:17:43.011
68.0, -41923.244824796304, -49473.999377965854, -17744.871109112635, -17854.394656943638, -8661.278624687031, -8454.927319875636, -187500.02235174447, -187500.02235174447, -0.192, 0.8200000000000001, 0.484, 192.0, 250.0, 0.0, 25.0, 160.0, 15.0, 32.0, 0.0, 0.0, 0.0, 1.7297056630150127E9, 0.0, 2024-10-23 23:17:43.015
69.0, -42013.3670584401, -49678.45078449855, -17742.8371003672, -18407.89090489041, -8650.57213909294, -8501.530707064952, -187500.02235174447, -187500.02235174447, -0.192, 0.8200000000000001, 0.484, 192.0, 0.0, 0.0, 0.0, 0.0, 0.0, 0.0, 0.0, 0.0, 0.0, 1.7297056630180273E9, 0.0, 2024-10-23 23:17:43.018
70.0, -41992.13290120756, -49677.847287398254, -17726.430919937007, -18501.544714158146, -8637.317554630943, -8500.167250653178, -187500.02235174447, -187500.02235174447, -0.192, 0.8200000000000001, 0.484, 192.0, 0.0, 0.0, 0.0, 0.0, 0.0, 0.0, 0.0, 0.0, 0.0, 1.729705663023044E9, 0.0, 2024-10-23 23:17:43.023
71.0, -41882.139966742994, -49460.6777382705, -17694.177352688, -17988.862751586767, -8632.534281317507, -8448.668831428151, -187500.02235174447, -187500.02235174447, -0.192, 0.8200000000000001, 0.484, 192.0, 0.0, 0.0, 0.0, 0.0, 0.0, 0.0, 0.0, 0.0, 0.0, 1.7297056630268693E9, 0.0, 2024-10-23 23:17:43.026
72.0, -41835.313062109126, -49342.39230661301, -17687.58358807368, -17615.49921220532, -8642.525511089028, -8429.781607363417, -187500.02235174447, -187500.02235174447, -0.192, 0.8200000000000001, 0.484, 192.0, 0.0, 0.0, 0.0, 0.0, 0.0, 0.0, 0.0, 0.0, 0.0, 1.7297056630308595E9, 0.0, 2024-10-23 23:17:43.030
73.0, -41903.329420486625, -49469.30551163024, -17690.422259619507, -17843.330543438264, -8647.264080913554, -8459.375317022243, -187500.02235174447, -187500.02235174447, -0.192, 0.8200000000000001, 0.484, 192.0, 0.0, 0.0, 0.0, 0.0, 0.0, 0.0, 0.0, 0.0, 0.0, 1.729705663035046E9, 0.0, 2024-10-23 23:17:43.035
74.0, -41989.74126455084, -49667.16315354862, -17687.65064330705, -18386.00854706866, -8633.674220284727, -8496.479212818052, -187500.02235174447, -187500.02235174447, -0.192, 0.8200000000000001, 0.484, 192.0, 0.0, 0.0, 0.0, 0.0, 0.0, 0.0, 0.0, 0.0, 0.0, 1.729705663040144E9, 0.0, 2024-10-23 23:17:43.040
75.0, -41976.441976599934, -49670.29239777236, -17679.760477514326, -18484.04329824964, -8621.358409089853, -8489.974855181557, -187500.02235174447, -187500.02235174447, -0.192, 0.8200000000000001, 0.484, 192.0, 0.0, 0.0, 0.0, 0.0, 0.0, 0.0, 0.0, 0.0, 0.0, 1.7297056630429218E9, 0.0, 2024-10-23 23:17:43.042
76.0, -41863.78918454518, -49442.25990083932, -17647.39515154304, -17969.439085655104, -8610.428406051207, -8426.473549184031, -187500.02235174447, -187500.02235174447, -0.192, 0.8200000000000001, 0.484, 192.0, 0.0, 0.0, 0.0, 0.0, 0.0, 0.0, 0.0, 0.0, 0.0, 1.7297056630459435E9, 0.0, 2024-10-23 23:17:43.045
77.0, -41815.107085121526, -49315.86078594456, -17634.989933370343, -17582.262168200275, -8599.721920457116, -8387.1791824316, -187500.02235174447, -187500.02235174447, -0.192, 0.8200000000000001, 0.484, 192.0, 0.0, 0.0, 0.0, 0.0, 0.0, 0.0, 0.0, 0.0, 0.0, 1.7297056630509472E9, 0.0, 2024-10-23 23:17:43.050
78.0, -41890.00778079126, -49441.701107227935, -17637.716846193893, -17797.978853938443, -8593.016397120524, -8401.417243649632, -187500.02235174447, -187500.02235174447, -0.188, 0.8200000000000001, 0.484, 192.0, 250.0, 32.0, 25.0, 160.0, 15.0, 32.0, 0.0, 0.0, 0.0, 1.7297056630549295E9, 0.0, 2024-10-23 23:17:43.054
79.0, -41993.429302385965, -49656.479019698985, -17655.06179989121, -18356.146616476373, -8594.670426210216, -8446.210139538067, -187500.02235174447, -187500.02235174447, -0.188, 0.8200000000000001, 0.484, 192.0, 0.0, 0.0, 0.0, 0.0, 0.0, 0.0, 0.0, 0.0, 0.0, 1.7297056630589607E9, 0.0, 2024-10-23 23:17:43.058
80.0, -41989.92007850648, -49669.84536288326, -17661.63321276107, -18469.827588776065, -8591.161202330733, -8444.28788951491, -187500.02235174447, -187500.02235174447, -0.188, 0.8200000000000001, 0.484, 192.0, 0.0, 0.0, 0.0, 0.0, 0.0, 0.0, 0.0, 0.0, 0.0, 1.7297056630629456E9, 0.0, 2024-10-23 23:17:43.062
81.0, -41885.93976330039, -49454.50865680083, -17647.864538176604, -17967.7403530765, -8589.887152896781, -8383.558199829842, -187500.02235174447, -187500.02235174447, -0.188, 0.8200000000000001, 0.484, 192.0, 0.0, 0.0, 0.0, 0.0, 0.0, 0.0, 0.0, 0.0, 0.0, 1.7297056630669346E9, 0.0, 2024-10-23 23:17:43.066
82.0, -41837.41412608792, -49331.21643438536, -17651.463169033905, -17587.872456058558, -8584.612141205329, -8357.786638472871, -187500.02235174447, -187500.02235174447, -0.188, 0.8200000000000001, 0.484, 192.0, 0.0, 0.0, 0.0, 0.0, 0.0, 0.0, 0.0, 0.0, 0.0, 1.7297056630710092E9, 0.0, 2024-10-23 23:17:43.071
83.0, -41910.12435080104, -49460.43186908148, -17670.819779732203, -17810.89816223361, -8589.618931963318, -8392.096566211769, -187500.02235174447, -187500.02235174447, -0.188, 0.8200000000000001, 0.484, 192.0, 0.0, 0.0, 0.0, 0.0, 0.0, 0.0, 0.0, 0.0, 0.0, 1.7297056630739977E9, 0.0, 2024-10-23 23:17:43.073
84.0, -42009.92488979398, -49675.612112952724, -17698.13361145659, -18380.331203977014, -8600.705397213149, -8453.38504950822, -187500.02235174447, -187500.02235174447, -0.188, 0.8200000000000001, 0.484, 192.0, 0.0, 0.0, 0.0, 0.0, 0.0, 0.0, 0.0, 0.0, 0.0, 1.729705663079004E9, 0.0, 2024-10-23 23:17:43.079
85.0, -42010.12605549408, -49693.02412188341, -17716.909076799046, -18503.265798481203, -8605.578077504406, -8471.221741583555, -187500.02235174447, -187500.02235174447, -0.188, 0.8200000000000001, 0.484, 192.0, 0.0, 0.0, 0.0, 0.0, 0.0, 0.0, 0.0, 0.0, 0.0, 1.7297056630829933E9, 0.0, 2024-10-23 23:17:43.082
86.0, -41899.10494078457, -49472.926494232, -17703.27451268131, -18003.346681993804, -8606.963885660636, -8425.668886383639, -187500.02235174447, -187500.02235174447, -0.188, 0.8200000000000001, 0.484, 192.0, 0.0, 0.0, 0.0, 0.0, 0.0, 0.0, 0.0, 0.0, 0.0, 1.7297056630870032E9, 0.0, 2024-10-23 23:17:43.087
87.0, -41837.816457488116, -49339.88891123401, -17704.369748159617, -17613.57696218216, -8609.422577550718, -8403.764176817438, -187500.02235174447, -187500.02235174447, -0.188, 0.8200000000000001, 0.484, 192.0, 0.0, 0.0, 0.0, 0.0, 0.0, 0.0, 0.0, 0.0, 0.0, 1.7297056630910141E9, 0.0, 2024-10-23 23:17:43.091
88.0, -41917.656888682475, -49471.83125875369, -17735.550431674772, -17838.837842802746, -8634.545938318484, -8452.356869263276, -187500.02235174447, -187500.02235174447, -0.188, 0.8200000000000001, 0.484, 192.0, 0.0, 0.0, 0.0, 0.0, 0.0, 0.0, 0.0, 0.0, 0.0, 1.7297056630949936E9, 0.0, 2024-10-23 23:17:43.094
89.0, -42015.62458463009, -49682.58585722278, -17755.309373773263, -18404.135811821918, -8638.546900575984, -8508.839727501838, -187500.02235174447, -187500.02235174447, -0.188, 0.8200000000000001, 0.488, 192.0, 250.0, 32.0, 25.0, 160.0, 15.0, 64.0, 0.0, 0.0, 0.0, 1.729705663098976E9, 0.0, 2024-10-23 23:17:43.098
90.0, -42006.19214846995, -49690.90070616016, -17757.544548218793, -18515.849830609543, -8630.634383038805, -8514.941753738136, -187500.02235174447, -187500.02235174447, -0.188, 0.8200000000000001, 0.488, 192.0, 0.0, 0.0, 0.0, 0.0, 0.0, 0.0, 0.0, 0.0, 0.0, 1.7297056631019835E9, 0.0, 2024-10-23 23:17:43.101
91.0, -41894.27696398222, -49471.16070642003, -17734.209327007455, -18012.868525131766, -8623.99591493558, -8463.018651368458, -187500.02235174447, -187500.02235174447, -0.188, 0.8200000000000001, 0.488, 192.0, 0.0, 0.0, 0.0, 0.0, 0.0, 0.0, 0.0, 0.0, 0.0, 1.7297056631060228E9, 0.0, 2024-10-23 23:17:43.106
92.0, -41831.4238585739, -49333.58571929762, -17723.234620479896, -17621.48947971934, -8621.537223045496, -8429.535738174407, -187500.02235174447, -187500.02235174447, -0.188, 0.8200000000000001, 0.488, 192.0, 0.0, 0.0, 0.0, 0.0, 0.0, 0.0, 0.0, 0.0, 0.0, 1.7297056631111355E9, 0.0, 2024-10-23 23:17:43.111
93.0, -41902.68121989742, -49457.79436323576, -17736.869184597635, -17831.350008410216, -8635.060028440956, -8461.789305423415, -187500.02235174447, -187500.02235174447, -0.188, 0.8200000000000001, 0.488, 192.0, 0.0, 0.0, 0.0, 0.0, 0.0, 0.0, 0.0, 0.0, 0.0, 1.7297056631151004E9, 0.0, 2024-10-23 23:17:43.115
94.0, -42008.472026404386, -49677.579066464794, -17759.75737091987, -18401.02891934263, -8652.025002482535, -8524.195375942632, -187500.02235174447, -187500.02235174447, -0.188, 0.8200000000000001, 0.488, 192.0, 0.0, 0.0, 0.0, 0.0, 0.0, 0.0, 0.0, 0.0, 0.0, 1.7297056631190364E9, 0.0, 2024-10-23 23:17:43.119
95.0, -41994.88216577556, -49684.26223805693, -17749.207347536965, -18515.76042363172, -8629.717961516139, -8521.624925330272, -187500.02235174447, -187500.02235174447, -0.188, 0.8200000000000001, 0.488, 192.0, 0.0, 0.0, 0.0, 0.0, 0.0, 0.0, 0.0, 0.0, 0.0, 1.7297056631230712E9, 0.0, 2024-10-23 23:17:43.123
96.0, -41873.62395210552, -49454.419249823004, -17710.114146484633, -18002.8996471047, -8604.728711215104, -8453.250939041489, -187500.02235174447, -187500.02235174447, -0.188, 0.8200000000000001, 0.488, 192.0, 0.0, 0.0, 0.0, 0.0, 0.0, 0.0, 0.0, 0.0, 0.0, 1.7297056631271567E9, 0.0, 2024-10-23 23:17:43.127
97.0, -41823.10900963652, -49327.32723085013, -17708.907152284046, -17604.52450567776, -8609.042597894979, -8420.57268864783, -187500.02235174447, -187500.02235174447, -0.188, 0.8200000000000001, 0.488, 192.0, 0.0, 0.0, 0.0, 0.0, 0.0, 0.0, 0.0, 0.0, 0.0, 1.7297056631301656E9, 0.0, 2024-10-23 23:17:43.130
98.0, -41899.395513462485, -49453.30166260024, -17722.832289079703, -17810.406423855595, -8622.587755034894, -8449.853473884283, -187500.02235174447, -187500.02235174447, -0.188, 0.8200000000000001, 0.488, 192.0, 0.0, 0.0, 0.0, 0.0, 0.0, 0.0, 0.0, 0.0, 0.0, 1.7297056631350913E9, 0.0, 2024-10-23 23:17:43.135
99.0, -41998.816072799695, -49665.710290159026, -17729.962495560943, -18370.764657350144, -8621.671333512228, -8491.852401715803, -187500.02235174447, -187500.02235174447, -0.194, 0.8220000000000001, 0.488, 192.0, 249.0, 240.0, 25.0, 176.0, 15.0, 64.0, 0.0, 0.0, 0.0, 1.729705663139093E9, 0.0, 2024-10-23 23:17:43.139
100.0, -41992.043494229736, -49676.394424008664, -17717.9819605329, -18486.23376920626, -8599.900734412759, -8480.944750421613, -187500.02235174447, -187500.02235174447, -0.194, 0.8220000000000001, 0.488, 192.0, 0.0, 0.0, 0.0, 0.0, 0.0, 0.0, 0.0, 0.0, 0.0, 1.7297056631432438E9, 0.0, 2024-10-23 23:17:43.143
101.0, -41882.67640860992, -49456.63207252408, -17683.292053138262, -17982.917187561656, -8585.46150749463, -8412.213136221544, -187500.02235174447, -187500.02235174447, -0.194, 0.8220000000000001, 0.488, 192.0, 0.0, 0.0, 0.0, 0.0, 0.0, 0.0, 0.0, 0.0, 0.0, 1.7297056631470776E9, 0.0, 2024-10-23 23:17:43.147
102.0, -41832.362631841024, -49330.702344262885, -17671.31151811022, -17587.11249674708, -8581.281731281488, -8374.41633634762, -187500.02235174447, -187500.02235174447, -0.194, 0.8220000000000001, 0.488, 192.0, 0.0, 0.0, 0.0, 0.0, 0.0, 0.0, 0.0, 0.0, 0.0, 1.729705663151095E9, 0.0, 2024-10-23 23:17:43.151
103.0, -41907.21862402184, -49456.40855507953, -17676.29595712375, -17790.80394396829, -8583.98629236058, -8393.75059530146, -187500.02235174447, -187500.02235174447, -0.194, 0.8220000000000001, 0.488, 192.0, 0.0, 0.0, 0.0, 0.0, 0.0, 0.0, 0.0, 0.0, 0.0, 1.729705663154116E9, 0.0, 2024-10-23 23:17:43.154
104.0, -42011.86949156159, -49675.99209260847, -17691.472791608907, -18361.913366545843, -8584.098051082856, -8440.935127846615, -187500.02235174447, -187500.02235174447, -0.194, 0.8220000000000001, 0.488, 192.0, 0.0, 0.0, 0.0, 0.0, 0.0, 0.0, 0.0, 0.0, 0.0, 1.7297056631583307E9, 0.0, 2024-10-23 23:17:43.158
105.0, -42006.013334514304, -49690.945409649066, -17695.74197479987, -18490.94998728633, -8583.315740026921, -8448.735886661516, -187500.02235174447, -187500.02235174447, -0.194, 0.8220000000000001, 0.488, 192.0, 0.0, 0.0, 0.0, 0.0, 0.0, 0.0, 0.0, 0.0, 0.0, 1.72970566316218E9, 0.0, 2024-10-23 23:17:43.162
106.0, -41894.14285351549, -49472.255941898344, -17675.670108279002, -17998.205780769084, -8580.32060626991, -8402.065444238835, -187500.02235174447, -187500.02235174447, -0.194, 0.8220000000000001, 0.488, 192.0, 0.0, 0.0, 0.0, 0.0, 0.0, 0.0, 0.0, 0.0, 0.0, 1.729705663167165E9, 0.0, 2024-10-23 23:17:43.167
107.0, -41841.77271625671, -49342.68287929093, -17678.866407736114, -17610.358310980595, -8588.74721392956, -8385.94983648656, -187500.02235174447, -187500.02235174447, -0.194, 0.8220000000000001, 0.488, 192.0, 0.0, 0.0, 0.0, 0.0, 0.0, 0.0, 0.0, 0.0, 0.0, 1.7297056631733341E9, 0.0, 2024-10-23 23:17:43.173
108.0, -41905.60929842106, -49460.387165592576, -17694.713794554926, -17817.782499525845, -8608.997894406068, -8428.149930018179, -187500.02235174447, -187500.02235174447, -0.194, 0.8220000000000001, 0.488, 192.0, 0.0, 0.0, 0.0, 0.0, 0.0, 0.0, 0.0, 0.0, 0.0, 1.7297056631750972E9, 0.0, 2024-10-23 23:17:43.175
109.0, -42009.27668920478, -49681.3788630222, -17720.664169867538, -18395.955073351273, -8631.193176650188, -8500.569582053373, -187500.02235174447, -187500.02235174447, -0.192, 0.8180000000000001, 0.49, 192.0, 250.0, 0.0, 25.0, 144.0, 15.0, 80.0, 0.0, 0.0, 0.0, 1.729705663181213E9, 0.0, 2024-10-23 23:17:43.181
110.0, -42004.02402925778, -49697.24860158547, -17722.1840884905, -18532.501880228745, -8628.153339404267, -8517.109872950301, -187500.02235174447, -187500.02235174447, -0.192, 0.8180000000000001, 0.49, 192.0, 0.0, 0.0, 0.0, 0.0, 0.0, 0.0, 0.0, 0.0, 0.0, 1.7297056631842203E9, 0.0, 2024-10-23 23:17:43.184
111.0, -41880.70945509785, -49464.11990691661, -17682.21916940441, -18027.66537996118, -8613.445891552674, -8458.503598988485, -187500.02235174447, -187500.02235174447, -0.192, 0.8180000000000001, 0.49, 192.0, 0.0, 0.0, 0.0, 0.0, 0.0, 0.0, 0.0, 0.0, 0.0, 1.7297056631871662E9, 0.0, 2024-10-23 23:17:43.187
112.0, -41823.690154992364, -49328.78009423973, -17669.88100646508, -17621.82475588617, -8620.263173611544, -8429.446331196586, -187500.02235174447, -187500.02235174447, -0.192, 0.8180000000000001, 0.49, 192.0, 0.0, 0.0, 0.0, 0.0, 0.0, 0.0, 0.0, 0.0, 0.0, 1.7297056631912563E9, 0.0, 2024-10-23 23:17:43.191
113.0, -41897.652077394974, -49449.63597650957, -17678.262910635818, -17818.90008674861, -8635.775284263525, -8460.58231122283, -187500.02235174447, -187500.02235174447, -0.192, 0.8180000000000001, 0.49, 192.0, 0.0, 0.0, 0.0, 0.0, 0.0, 0.0, 0.0, 0.0, 0.0, 1.7297056631962216E9, 0.0, 2024-10-23 23:17:43.196
114.0, -41999.88895653355, -49668.9736448495, -17684.431992105485, -18389.58482618151, -8631.37199060583, -8511.231364158555, -187500.02235174447, -187500.02235174447, -0.192, 0.8180000000000001, 0.49, 192.0, 0.0, 0.0, 0.0, 0.0, 0.0, 0.0, 0.0, 0.0, 0.0, 1.7297056631991467E9, 0.0, 2024-10-23 23:17:43.199
115.0, -41992.088197718644, -49681.3788630222, -17672.719678010904, -18515.55925793162, -8622.967734690636, -8508.280933890455, -187500.02235174447, -187500.02235174447, -0.192, 0.8180000000000001, 0.49, 192.0, 0.0, 0.0, 0.0, 0.0, 0.0, 0.0, 0.0, 0.0, 0.0, 1.7297056632031152E9, 0.0, 2024-10-23 23:17:43.203
116.0, -41878.496632396775, -49455.11215390112, -17633.067683347188, -18010.588647197324, -8607.522679272019, -8444.310241259365, -187500.02235174447, -187500.02235174447, -0.192, 0.8180000000000001, 0.49, 192.0, 0.0, 0.0, 0.0, 0.0, 0.0, 0.0, 0.0, 0.0, 0.0, 1.7297056632085445E9, 0.0, 2024-10-23 23:17:43.208
117.0, -41814.101256621034, -49311.14456786449, -17612.079395303655, -17599.04832828621, -8594.424557021208, -8406.312275685345, -187500.02235174447, -187500.02235174447, -0.192, 0.8180000000000001, 0.49, 192.0, 0.0, 0.0, 0.0, 0.0, 0.0, 0.0, 0.0, 0.0, 0.0, 1.7297056632102334E9, 0.0, 2024-10-23 23:17:43.210
118.0, -41875.16622247294, -49422.05392385172, -17605.887962089535, -17779.605719996183, -8592.256437809043, -8425.400665450175, -187500.02235174447, -187500.02235174447, -0.192, 0.8180000000000001, 0.49, 192.0, 0.0, 0.0, 0.0, 0.0, 0.0, 0.0, 0.0, 0.0, 0.0, 1.7297056632142231E9, 0.0, 2024-10-23 23:17:43.214
119.0, -41982.812223769695, -49643.64911838164, -17619.053139573713, -18348.077636728005, -8603.097033869868, -8480.408308554686, -187500.02235174447, -187500.02235174447, -0.196, 0.8220000000000001, 0.494, 192.0, 249.0, 224.0, 25.0, 176.0, 15.0, 112.0, 0.0, 0.0, 0.0, 1.729705663218152E9, 0.0, 2024-10-23 23:17:43.218
120.0, -41981.24760165782, -49659.42944996709, -17612.034691814744, -18477.33777491305, -8600.66069372424, -8485.526858034951, -187500.02235174447, -187500.02235174447, -0.196, 0.8220000000000001, 0.494, 192.0, 0.0, 0.0, 0.0, 0.0, 0.0, 0.0, 0.0, 0.0, 0.0, 1.7297056632231948E9, 0.0, 2024-10-23 23:17:43.223
121.0, -41858.514172853735, -49427.61950822109, -17565.610118581073, -17966.98039376502, -8579.381833002786, -8412.48135715501, -187500.02235174447, -187500.02235174447, -0.196, 0.8220000000000001, 0.494, 192.0, 0.0, 0.0, 0.0, 0.0, 0.0, 0.0, 0.0, 0.0, 0.0, 1.7297056632272248E9, 0.0, 2024-10-23 23:17:43.227
122.0, -41797.404503512924, -49287.11644257503, -17550.053304440178, -17553.42841785293, -8574.911484111724, -8375.355109614744, -187500.02235174447, -187500.02235174447, -0.196, 0.8220000000000001, 0.494, 192.0, 0.0, 0.0, 0.0, 0.0, 0.0, 0.0, 0.0, 0.0, 0.0, 1.729705663231191E9, 0.0, 2024-10-23 23:17:43.231
123.0, -41866.29257992418, -49399.277496251765, -17550.634449796016, -17736.69037064199, -8572.944530599658, -8390.598999333262, -187500.02235174447, -187500.02235174447, -0.196, 0.8220000000000001, 0.494, 192.0, 0.0, 0.0, 0.0, 0.0, 0.0, 0.0, 0.0, 0.0, 0.0, 1.729705663235212E9, 0.0, 2024-10-23 23:17:43.235
124.0, -41979.12418593457, -49624.40426640562, -17563.441999368908, -18315.399386334346, -8582.198152804154, -8440.71161040206, -187500.02235174447, -187500.02235174447, -0.196, 0.8220000000000001, 0.494, 192.0, 0.0, 0.0, 0.0, 0.0, 0.0, 0.0, 0.0, 0.0, 0.0, 1.729705663238237E9, 0.0, 2024-10-23 23:17:43.238
125.0, -41980.5099940908, -49648.05241203933, -17555.350667876086, -18453.309649623592, -8567.356594485831, -8438.096456300791, -187500.02235174447, -187500.02235174447, -0.196, 0.8220000000000001, 0.494, 192.0, 0.0, 0.0, 0.0, 0.0, 0.0, 0.0, 0.0, 0.0, 0.0, 1.729705663242413E9, 0.0, 2024-10-23 23:17:43.242
126.0, -41870.271190437226, -49432.60394723463, -17519.833745936605, -17958.017344238444, -8546.837693075859, -8369.70011826755, -187500.02235174447, -187500.02235174447, -0.196, 0.8220000000000001, 0.494, 192.0, 0.0, 0.0, 0.0, 0.0, 0.0, 0.0, 0.0, 0.0, 0.0, 1.7297056632462788E9, 0.0, 2024-10-23 23:17:43.246
127.0, -41822.52786428069, -49308.730579463314, -17515.206934834354, -17561.63150806803, -8552.246815234044, -8341.112237109213, -187500.02235174447, -187500.02235174447, -0.196, 0.8220000000000001, 0.494, 192.0, 0.0, 0.0, 0.0, 0.0, 0.0, 0.0, 0.0, 0.0, 0.0, 1.7297056632503846E9, 0.0, 2024-10-23 23:17:43.250
128.0, -41898.501443684276, -49431.91104315651, -17528.550926274173, -17762.394876765597, -8565.50139969604, -8370.884760723682, -187500.02235174447, -187500.02235174447, -0.196, 0.8220000000000001, 0.494, 192.0, 0.0, 0.0, 0.0, 0.0, 0.0, 0.0, 0.0, 0.0, 0.0, 1.72970566325545E9, 0.0, 2024-10-23 23:17:43.255
129.0, -42005.5662996252, -49657.59660692175, -17547.102874172077, -18341.573279091514, -8583.36044351583, -8431.882671342215, -187500.02235174447, -187500.02235174447, -0.194, 0.8200000000000001, 0.492, 192.0, 249.0, 240.0, 25.0, 160.0, 15.0, 96.0, 0.0, 0.0, 0.0, 1.729705663259199E9, 0.0, 2024-10-23 23:17:43.259
130.0, -42000.783026311765, -49678.763708920924, -17545.627659038026, -18487.03843200665, -8582.89105688227, -8449.406438995176, -187500.02235174447, -187500.02235174447, -0.194, 0.8200000000000001, 0.492, 192.0, 0.0, 0.0, 0.0, 0.0, 0.0, 0.0, 0.0, 0.0, 0.0, 1.729705663263232E9, 0.0, 2024-10-23 23:17:43.263
131.0, -41883.592830132584, -49458.84489522516, -17511.02715862121, -18000.508010447982, -8568.809457875426, -8403.674769839618, -187500.02235174447, -187500.02235174447, -0.194, 0.8200000000000001, 0.492, 192.0, 0.0, 0.0, 0.0, 0.0, 0.0, 0.0, 0.0, 0.0, 0.0, 1.7297056632662225E9, 0.0, 2024-10-23 23:17:43.266
132.0, -41823.28782359217, -49319.88409994652, -17501.214742805332, -17593.3039299612, -8567.714222397117, -8384.586380074785, -187500.02235174447, -187500.02235174447, -0.194, 0.8200000000000001, 0.492, 192.0, 0.0, 0.0, 0.0, 0.0, 0.0, 0.0, 0.0, 0.0, 0.0, 1.7297056632702808E9, 0.0, 2024-10-23 23:17:43.270
133.0, -41892.35471395907, -49435.844950180646, -17514.93871390089, -17776.051792627786, -8587.383757517786, -8422.85256658227, -187500.02235174447, -187500.02235174447, -0.194, 0.8200000000000001, 0.492, 192.0, 0.0, 0.0, 0.0, 0.0, 0.0, 0.0, 0.0, 0.0, 0.0, 1.7297056632742484E9, 0.0, 2024-10-23 23:17:43.274
134.0, -41995.396255898035, -49655.40613596513, -17535.547022288683, -18353.35264841946, -8602.672350725217, -8486.242113857521, -187500.02235174447, -187500.02235174447, -0.194, 0.8200000000000001, 0.492, 192.0, 0.0, 0.0, 0.0, 0.0, 0.0, 0.0, 0.0, 0.0, 0.0, 1.729705663278368E9, 0.0, 2024-10-23 23:17:43.278
135.0, -41985.65089531552, -49667.11845005971, -17529.17677511892, -18487.820743062584, -8590.133022085789, -8489.326654592354, -187500.02235174447, -187500.02235174447, -0.194, 0.8200000000000001, 0.492, 192.0, 0.0, 0.0, 0.0, 0.0, 0.0, 0.0, 0.0, 0.0, 0.0, 1.7297056632833936E9, 0.0, 2024-10-23 23:17:43.283
136.0, -41875.076815495115, -49448.764258475814, -17500.74535617177, -17996.37293772375, -8585.237990050076, -8435.928337088626, -187500.02235174447, -187500.02235174447, -0.194, 0.8200000000000001, 0.492, 192.0, 0.0, 0.0, 0.0, 0.0, 0.0, 0.0, 0.0, 0.0, 0.0, 1.7297056632873116E9, 0.0, 2024-10-23 23:17:43.287
137.0, -41815.442361288355, -49307.702399218375, -17490.597664189063, -17582.61979611156, -8587.048481350957, -8404.94881927357, -187500.02235174447, -187500.02235174447, -0.194, 0.8200000000000001, 0.492, 192.0, 0.0, 0.0, 0.0, 0.0, 0.0, 0.0, 0.0, 0.0, 0.0, 1.7297056632930088E9, 0.0, 2024-10-23 23:17:43.293
138.0, -41888.75608310176, -49427.44069426545, -17506.400347518964, -17761.18788256501, -8600.437176279685, -8435.235433010512, -187500.02235174447, -187500.02235174447, -0.194, 0.8200000000000001, 0.492, 192.0, 0.0, 0.0, 0.0, 0.0, 0.0, 0.0, 0.0, 0.0, 0.0, 1.7297056632945373E9, 0.0, 2024-10-23 23:17:43.294
139.0, -41994.12220646408, -49653.752106875436, -17523.097100627077, -18339.96395349073, -8605.622780993317, -8489.05843365889, -187500.02235174447, -187500.02235174447, -0.194, 0.8200000000000001, 0.488, 192.0, 249.0, 240.0, 25.0, 160.0, 15.0, 64.0, 0.0, 0.0, 0.0, 1.7297056632982712E9, 0.0, 2024-10-23 23:17:43.298
140.0, -41988.37780813906, -49671.81231639532, -17518.291475569185, -18478.209492946804, -8596.167993088722, -8490.556000537395, -187500.02235174447, -187500.02235174447, -0.194, 0.8200000000000001, 0.488, 192.0, 0.0, 0.0, 0.0, 0.0, 0.0, 0.0, 0.0, 0.0, 0.0, 1.7297056633025036E9, 0.0, 2024-10-23 23:17:43.302
141.0, -41875.009760261746, -49453.72634574489, -17487.535475198685, -17986.359356207773, -8585.014472605524, -8430.608621908263, -187500.02235174447, -187500.02235174447, -0.194, 0.8200000000000001, 0.488, 192.0, 0.0, 0.0, 0.0, 0.0, 0.0, 0.0, 0.0, 0.0, 0.0, 1.7297056633063016E9, 0.0, 2024-10-23 23:17:43.306
142.0, -41823.91367243692, -49319.25825110177, -17485.94850134236, -17570.639261083517, -8590.423594763708, -8400.076138982313, -187500.02235174447, -187500.02235174447, -0.194, 0.8200000000000001, 0.488, 192.0, 0.0, 0.0, 0.0, 0.0, 0.0, 0.0, 0.0, 0.0, 0.0, 1.7297056633113246E9, 0.0, 2024-10-23 23:17:43.311
143.0, -41890.76774010274, -49425.5184442423, -17495.693861924872, -17739.707856143457, -8591.965865131124, -8418.583383391308, -187500.02235174447, -187500.02235174447, -0.194, 0.8200000000000001, 0.488, 192.0, 0.0, 0.0, 0.0, 0.0, 0.0, 0.0, 0.0, 0.0, 0.0, 1.7297056633153229E9, 0.0, 2024-10-23 23:17:43.315
144.0, -41995.77623555377, -49642.911510814614, -17515.76572844574, -18317.723967757698, -8597.1291181003, -8469.098325860301, -187500.02235174447, -187500.02235174447, -0.194, 0.8200000000000001, 0.488, 192.0, 0.0, 0.0, 0.0, 0.0, 0.0, 0.0, 0.0, 0.0, 0.0, 1.729705663319344E9, 0.0, 2024-10-23 23:17:43.319
145.0, -41991.59645934063, -49663.58687443577, -17512.569428988627, -18464.396114873423, -8580.879399881293, -8467.779572937437, -187500.02235174447, -187500.02235174447, -0.194, 0.8200000000000001, 0.488, 192.0, 0.0, 0.0, 0.0, 0.0, 0.0, 0.0, 0.0, 0.0, 0.0, 1.7297056633223088E9, 0.0, 2024-10-23 23:17:43.322
146.0, -41877.9825422743, -49444.9197584295, -17482.171056529412, -17974.93761479111, -8559.131152526279, -8400.277304682411, -187500.02235174447, -187500.02235174447, -0.194, 0.8200000000000001, 0.488, 192.0, 0.0, 0.0, 0.0, 0.0, 0.0, 0.0, 0.0, 0.0, 0.0, 1.7297056633263679E9, 0.0, 2024-10-23 23:17:43.326
147.0, -41817.74459096725, -49303.67908521642, -17481.567559429117, -17551.640278296505, -8560.65107114924, -8361.765248985917, -187500.02235174447, -187500.02235174447, -0.194, 0.8200000000000001, 0.488, 192.0, 0.0, 0.0, 0.0, 0.0, 0.0, 0.0, 0.0, 0.0, 0.0, 1.7297056633303432E9, 0.0, 2024-10-23 23:17:43.330
148.0, -41886.967943545336, -49415.571917959685, -17501.013577105234, -17724.642780380582, -8569.725879398095, -8384.854601008248, -187500.02235174447, -187500.02235174447, -0.194, 0.8200000000000001, 0.488, 192.0, 0.0, 0.0, 0.0, 0.0, 0.0, 0.0, 0.0, 0.0, 0.0, 1.7297056633343403E9, 0.0, 2024-10-23 23:17:43.334
149.0, -42002.794683312735, -49647.60537715023, -17533.960048432356, -18310.95138918774, -8576.498457968051, -8437.157683033667, -187500.02235174447, -187500.02235174447, -0.192, 0.8140000000000001, 0.486, 192.0, 250.0, 0.0, 25.0, 112.0, 15.0, 48.0, 0.0, 0.0, 0.0, 1.729705663339448E9, 0.0, 2024-10-23 23:17:43.339
150.0, -42015.736343352364, -49683.79285142337, -17559.396333622495, -18475.32611791207, -8581.214676048121, -8450.501674473486, -187500.02235174447, -187500.02235174447, -0.192, 0.8140000000000001, 0.486, 192.0, 0.0, 0.0, 0.0, 0.0, 0.0, 0.0, 0.0, 0.0, 0.0, 1.7297056633433373E9, 0.0, 2024-10-23 23:17:43.343
151.0, -41909.3420397451, -49472.7253285319, -17548.913365472956, -18004.531324449938, -8577.772507402004, -8396.85748778075, -187500.02235174447, -187500.02235174447, -0.192, 0.8140000000000001, 0.486, 192.0, 0.0, 0.0, 0.0, 0.0, 0.0, 0.0, 0.0, 0.0, 0.0, 1.729705663347657E9, 0.0, 2024-10-23 23:17:43.347
152.0, -41856.99425423077, -49342.54876882419, -17559.95512723388, -17601.752889365303, -8579.828867891893, -8372.203513646546, -187500.02235174447, -187500.02235174447, -0.192, 0.8140000000000001, 0.486, 192.0, 0.0, 0.0, 0.0, 0.0, 0.0, 0.0, 0.0, 0.0, 0.0, 1.7297056633503723E9, 0.0, 2024-10-23 23:17:43.350
153.0, -41925.412944008465, -49456.45325856844, -17582.888017045025, -17778.823408940247, -8590.26713255252, -8406.468737896532, -187500.02235174447, -187500.02235174447, -0.192, 0.8140000000000001, 0.486, 192.0, 0.0, 0.0, 0.0, 0.0, 0.0, 0.0, 0.0, 0.0, 0.0, 1.7297056633545084E9, 0.0, 2024-10-23 23:17:43.354
154.0, -42029.147390025544, -49683.41287176763, -17607.072604545665, -18359.611136866944, -8597.866725667325, -8468.539532248918, -187500.02235174447, -187500.02235174447, -0.192, 0.8140000000000001, 0.486, 192.0, 0.0, 0.0, 0.0, 0.0, 0.0, 0.0, 0.0, 0.0, 0.0, 1.7297056633604424E9, 0.0, 2024-10-23 23:17:43.360
155.0, -42022.19599749995, -49705.27287784492, -17607.698453390414, -18513.5699526751, -8592.636417464784, -8483.761070222983, -187500.02235174447, -187500.02235174447, -0.192, 0.8140000000000001, 0.486, 192.0, 0.0, 0.0, 0.0, 0.0, 0.0, 0.0, 0.0, 0.0, 0.0, 1.729705663363428E9, 0.0, 2024-10-23 23:17:43.363
156.0, -41908.78324613372, -49489.28797117329, -17587.33601419163, -18036.539022509936, -8586.914370884226, -8437.224738267034, -187500.02235174447, -187500.02235174447, -0.192, 0.8140000000000001, 0.486, 192.0, 0.0, 0.0, 0.0, 0.0, 0.0, 0.0, 0.0, 0.0, 0.0, 1.7297056633664117E9, 0.0, 2024-10-23 23:17:43.366
157.0, -41841.25862613424, -49341.72175427935, -17584.162066478977, -17616.92972385046, -8592.949341887157, -8411.76610133244, -187500.02235174447, -187500.02235174447, -0.192, 0.8140000000000001, 0.486, 192.0, 0.0, 0.0, 0.0, 0.0, 0.0, 0.0, 0.0, 0.0, 0.0, 1.7297056633713837E9, 0.0, 2024-10-23 23:17:43.371
158.0, -41901.13894953, -49443.73511597337, -17596.232008484843, -17775.694164716504, -8598.067891367424, -8440.62220342424, -187500.02235174447, -187500.02235174447, -0.192, 0.8140000000000001, 0.486, 192.0, 0.0, 0.0, 0.0, 0.0, 0.0, 0.0, 0.0, 0.0, 0.0, 1.7297056633754148E9, 0.0, 2024-10-23 23:17:43.375
159.0, -42005.34278218065, -49665.44206922556, -17614.851011616112, -18352.279764685605, -8598.000836134057, -8497.73091050755, -187500.02235174447, -187500.02235174447, -0.192, 0.8160000000000001, 0.488, 192.0, 250.0, 0.0, 25.0, 128.0, 15.0, 64.0, 0.0, 0.0, 0.0, 1.7297056633784263E9, 0.0, 2024-10-23 23:17:43.378
160.0, -42006.66153510351, -49688.486717758984, -17617.086186061642, -18506.059766538117, -8594.044577365468, -8506.87277398977, -187500.02235174447, -187500.02235174447, -0.192, 0.8160000000000001, 0.488, 192.0, 0.0, 0.0, 0.0, 0.0, 0.0, 0.0, 0.0, 0.0, 0.0, 1.7297056633824027E9, 0.0, 2024-10-23 23:17:43.382
161.0, -41893.58405990411, -49469.21610465242, -17590.644072371015, -18021.920981636165, -8583.047519093458, -8448.691183172607, -187500.02235174447, -187500.02235174447, -0.192, 0.8160000000000001, 0.488, 192.0, 0.0, 0.0, 0.0, 0.0, 0.0, 0.0, 0.0, 0.0, 0.0, 1.729705663386436E9, 0.0, 2024-10-23 23:17:43.386
162.0, -41831.625024274, -49323.32626859263, -17586.71016534688, -17599.718880619872, -8589.1271935853, -8420.259764225455, -187500.02235174447, -187500.02235174447, -0.192, 0.8160000000000001, 0.488, 192.0, 0.0, 0.0, 0.0, 0.0, 0.0, 0.0, 0.0, 0.0, 0.0, 1.7297056633924496E9, 0.0, 2024-10-23 23:17:43.392
163.0, -41895.349847716076, -49423.2162145634, -17596.34376720712, -17755.532891217816, -8599.878382668303, -8445.316069759854, -187500.02235174447, -187500.02235174447, -0.192, 0.8160000000000001, 0.488, 192.0, 0.0, 0.0, 0.0, 0.0, 0.0, 0.0, 0.0, 0.0, 0.0, 1.7297056633954084E9, 0.0, 2024-10-23 23:17:43.395
164.0, -41997.31850592119, -49645.92899631608, -17609.263075502287, -18337.505261600647, -8602.448833280663, -8497.261523873989, -187500.02235174447, -187500.02235174447, -0.192, 0.8160000000000001, 0.488, 192.0, 0.0, 0.0, 0.0, 0.0, 0.0, 0.0, 0.0, 0.0, 0.0, 1.7297056634004624E9, 0.0, 2024-10-23 23:17:43.400
165.0, -41993.76457855279, -49672.326406517794, -17604.926837077957, -18490.27943495267, -8591.69764419766, -8497.976779696559, -187500.02235174447, -187500.02235174447, -0.192, 0.8160000000000001, 0.488, 192.0, 0.0, 0.0, 0.0, 0.0, 0.0, 0.0, 0.0, 0.0, 0.0, 1.729705663403446E9, 0.0, 2024-10-23 23:17:43.403
166.0, -41876.194402717876, -49454.26278761182, -17569.275804671743, -18007.079423317842, -8568.295367752955, -8430.228642252523, -187500.02235174447, -187500.02235174447, -0.192, 0.8160000000000001, 0.488, 192.0, 0.0, 0.0, 0.0, 0.0, 0.0, 0.0, 0.0, 0.0, 0.0, 1.7297056634074633E9, 0.0, 2024-10-23 23:17:43.407
167.0, -41807.328678051075, -49305.35546605056, -17553.406066108473, -17572.53915936222, -8559.60053915984, -8385.636912064185, -187500.02235174447, -187500.02235174447, -0.192, 0.8160000000000001, 0.488, 192.0, 0.0, 0.0, 0.0, 0.0, 0.0, 0.0, 0.0, 0.0, 0.0, 1.729705663410478E9, 0.0, 2024-10-23 23:17:43.410
168.0, -41871.09820498207, -49407.83821437815, -17559.77631327824, -17722.161736746042, -8564.517922940007, -8405.239391951489, -187500.02235174447, -187500.02235174447, -0.192, 0.8160000000000001, 0.488, 192.0, 0.0, 0.0, 0.0, 0.0, 0.0, 0.0, 0.0, 0.0, 0.0, 1.7297056634144337E9, 0.0, 2024-10-23 23:17:43.414
169.0, -41972.88804923154, -49628.89696704113, -17566.75005754829, -18296.84743843644, -8559.30996648192, -8450.255805284478, -187500.02235174447, -187500.02235174447, -0.194, 0.8180000000000001, 0.492, 192.0, 249.0, 240.0, 25.0, 144.0, 15.0, 96.0, 0.0, 0.0, 0.0, 1.7297056634184809E9, 0.0, 2024-10-23 23:17:43.418
170.0, -41975.21263065489, -49654.48971444246, -17558.591670822105, -18449.643963532922, -8547.64235587625, -8445.04784882639, -187500.02235174447, -187500.02235174447, -0.194, 0.8180000000000001, 0.492, 192.0, 0.0, 0.0, 0.0, 0.0, 0.0, 0.0, 0.0, 0.0, 0.0, 1.7297056634225123E9, 0.0, 2024-10-23 23:17:43.422
171.0, -41866.35963515755, -49434.705011213424, -17526.628676251017, -17969.282623443916, -8534.276012691977, -8377.076193937803, -187500.02235174447, -187500.02235174447, -0.194, 0.8180000000000001, 0.492, 192.0, 0.0, 0.0, 0.0, 0.0, 0.0, 0.0, 0.0, 0.0, 0.0, 1.729705663427467E9, 0.0, 2024-10-23 23:17:43.427
172.0, -41811.37434379749, -49289.597486209575, -17527.165118117944, -17544.487720070807, -8537.226442960076, -8341.179292342578, -187500.02235174447, -187500.02235174447, -0.194, 0.8180000000000001, 0.492, 192.0, 0.0, 0.0, 0.0, 0.0, 0.0, 0.0, 0.0, 0.0, 0.0, 1.7297056634315057E9, 0.0, 2024-10-23 23:17:43.431
173.0, -41887.70555111236, -49398.67399915147, -17554.43424635342, -17704.59326560417, -8551.755076856027, -8366.950853699547, -187500.02235174447, -187500.02235174447, -0.194, 0.8180000000000001, 0.492, 192.0, 0.0, 0.0, 0.0, 0.0, 0.0, 0.0, 0.0, 0.0, 0.0, 1.7297056634354775E9, 0.0, 2024-10-23 23:17:43.435
174.0, -42009.07552350468, -49633.92610954358, -17594.443868928418, -18305.586970518467, -8570.642300920761, -8430.206290508067, -187500.02235174447, -187500.02235174447, -0.194, 0.8180000000000001, 0.492, 192.0, 0.0, 0.0, 0.0, 0.0, 0.0, 0.0, 0.0, 0.0, 0.0, 1.7297056634395564E9, 0.0, 2024-10-23 23:17:43.439
175.0, -42018.37384919809, -49667.67724367109, -17612.414671470484, -18481.964586015296, -8570.351728242842, -8447.327726760832, -187500.02235174447, -187500.02235174447, -0.194, 0.8180000000000001, 0.492, 192.0, 0.0, 0.0, 0.0, 0.0, 0.0, 0.0, 0.0, 0.0, 0.0, 1.7297056634434755E9, 0.0, 2024-10-23 23:17:43.443
176.0, -41910.3925717345, -49459.29193011426, -17598.981273052847, -18023.127975836753, -8563.579149672883, -8406.692255341084, -187500.02235174447, -187500.02235174447, -0.194, 0.8180000000000001, 0.492, 192.0, 0.0, 0.0, 0.0, 0.0, 0.0, 0.0, 0.0, 0.0, 0.0, 1.7297056634465322E9, 0.0, 2024-10-23 23:17:43.446
177.0, -41849.1264401825, -49317.76068422326, -17602.937531821433, -17605.351520222608, -8573.50332421104, -8391.314255155832, -187500.02235174447, -187500.02235174447, -0.194, 0.8180000000000001, 0.492, 192.0, 0.0, 0.0, 0.0, 0.0, 0.0, 0.0, 0.0, 0.0, 0.0, 1.7297056634505374E9, 0.0, 2024-10-23 23:17:43.450
178.0, -41914.5946996921, -49422.07627559618, -17620.707168663404, -17759.17622556403, -8591.742347686572, -8431.279174241921, -187500.02235174447, -187500.02235174447, -0.194, 0.8180000000000001, 0.492, 192.0, 0.0, 0.0, 0.0, 0.0, 0.0, 0.0, 0.0, 0.0, 0.0, 1.7297056634565136E9, 0.0, 2024-10-23 23:17:43.456
179.0, -42025.68286963498, -49650.8687318407, -17646.92576490948, -18350.782197807097, -8605.46631878213, -8499.764919252983, -187500.02235174447, -187500.02235174447, -0.19, 0.8220000000000001, 0.496, 192.0, 250.0, 16.0, 25.0, 176.0, 15.0, 128.0, 0.0, 0.0, 0.0, 1.729705663460541E9, 0.0, 2024-10-23 23:17:43.460
180.0, -42028.63329990307, -49682.80937466733, -17650.859671933613, -18518.085005055073, -8602.962923403134, -8510.82903275836, -187500.02235174447, -187500.02235174447, -0.19, 0.8220000000000001, 0.496, 192.0, 0.0, 0.0, 0.0, 0.0, 0.0, 0.0, 0.0, 0.0, 0.0, 1.7297056634645417E9, 0.0, 2024-10-23 23:17:43.464
181.0, -41903.84351060909, -49459.180171391985, -17616.66150291699, -18040.495281278527, -8580.879399881293, -8444.354944748276, -187500.02235174447, -187500.02235174447, -0.19, 0.8220000000000001, 0.496, 192.0, 0.0, 0.0, 0.0, 0.0, 0.0, 0.0, 0.0, 0.0, 0.0, 1.729705663467528E9, 0.0, 2024-10-23 23:17:43.467
182.0, -41834.32958535309, -49306.31659106214, -17610.425366213964, -17600.925874820456, -8576.520809712507, -8405.127633229213, -187500.02235174447, -187500.02235174447, -0.19, 0.8220000000000001, 0.496, 192.0, 0.0, 0.0, 0.0, 0.0, 0.0, 0.0, 0.0, 0.0, 0.0, 1.7297056634705367E9, 0.0, 2024-10-23 23:17:43.470
183.0, -41898.12146402853, -49408.218194033885, -17630.474880990372, -17744.51348120135, -8591.094147097367, -8432.776741120428, -187500.02235174447, -187500.02235174447, -0.19, 0.8220000000000001, 0.496, 192.0, 0.0, 0.0, 0.0, 0.0, 0.0, 0.0, 0.0, 0.0, 0.0, 1.729705663474556E9, 0.0, 2024-10-23 23:17:43.474
184.0, -42011.757732839316, -49641.32453695829, -17657.945174925946, -18334.68894179928, -8607.41092054974, -8497.172116896167, -187500.02235174447, -187500.02235174447, -0.19, 0.8220000000000001, 0.496, 192.0, 0.0, 0.0, 0.0, 0.0, 0.0, 0.0, 0.0, 0.0, 0.0, 1.72970566347851E9, 0.0, 2024-10-23 23:17:43.478
185.0, -42014.43994217395, -49673.64515944066, -17657.252270847832, -18508.741975872752, -8599.990141390579, -8503.29649487692, -187500.02235174447, -187500.02235174447, -0.19, 0.8220000000000001, 0.496, 192.0, 0.0, 0.0, 0.0, 0.0, 0.0, 0.0, 0.0, 0.0, 0.0, 1.7297056634827244E9, 0.0, 2024-10-23 23:17:43.482
186.0, -41896.78035936122, -49455.11215390112, -17621.40007274152, -18037.164871354686, -8583.762774916027, -8440.219872024045, -187500.02235174447, -187500.02235174447, -0.19, 0.8220000000000001, 0.496, 192.0, 0.0, 0.0, 0.0, 0.0, 0.0, 0.0, 0.0, 0.0, 0.0, 1.7297056634876757E9, 0.0, 2024-10-23 23:17:43.487
187.0, -41834.48604756428, -49311.83747194261, -17614.42632847146, -17604.368043466573, -8582.1758010597, -8407.362807674743, -187500.02235174447, -187500.02235174447, -0.19, 0.8220000000000001, 0.496, 192.0, 0.0, 0.0, 0.0, 0.0, 0.0, 0.0, 0.0, 0.0, 0.0, 1.729705663490558E9, 0.0, 2024-10-23 23:17:43.490
188.0, -41890.20894649136, -49405.9606678439, -17621.15420355251, -17740.89249859959, -8583.047519093458, -8423.701932871572, -187500.02235174447, -187500.02235174447, -0.19, 0.8220000000000001, 0.496, 192.0, 0.0, 0.0, 0.0, 0.0, 0.0, 0.0, 0.0, 0.0, 0.0, 1.7297056634946144E9, 0.0, 2024-10-23 23:17:43.494
189.0, -41993.161081452505, -49627.77937981837, -17640.73433169536, -18320.450880581247, -8592.591713975873, -8475.53562826343, -187500.02235174447, -187500.02235174447, -0.19, 0.8200000000000001, 0.492, 192.0, 250.0, 16.0, 25.0, 160.0, 15.0, 96.0, 0.0, 0.0, 0.0, 1.7297056634986286E9, 0.0, 2024-10-23 23:17:43.498
190.0, -41999.106645477616, -49660.63644416767, -17641.695456706937, -18490.122972741483, -8580.477068481096, -8477.837857942326, -187500.02235174447, -187500.02235174447, -0.19, 0.8200000000000001, 0.492, 192.0, 0.0, 0.0, 0.0, 0.0, 0.0, 0.0, 0.0, 0.0, 0.0, 1.729705663502744E9, 0.0, 2024-10-23 23:17:43.502
191.0, -41880.105957997555, -49440.44940953844, -17601.797592854215, -18016.64596994471, -8543.149655240733, -8405.239391951489, -187500.02235174447, -187500.02235174447, -0.19, 0.8200000000000001, 0.492, 192.0, 0.0, 0.0, 0.0, 0.0, 0.0, 0.0, 0.0, 0.0, 0.0, 1.729705663506608E9, 0.0, 2024-10-23 23:17:43.506
192.0, -41815.50941652172, -49290.87153564353, -17594.71208986188, -17576.160141963977, -8540.109817994811, -8364.26864436491, -187500.02235174447, -187500.02235174447, -0.19, 0.8200000000000001, 0.492, 192.0, 0.0, 0.0, 0.0, 0.0, 0.0, 0.0, 0.0, 0.0, 0.0, 1.7297056635105731E9, 0.0, 2024-10-23 23:17:43.510
193.0, -41876.17205097342, -49389.88976358053, -17601.05998528719, -17707.588399361182, -8544.82603607488, -8378.484353838487, -187500.02235174447, -187500.02235174447, -0.19, 0.8200000000000001, 0.492, 192.0, 0.0, 0.0, 0.0, 0.0, 0.0, 0.0, 0.0, 0.0, 0.0, 1.7297056635156317E9, 0.0, 2024-10-23 23:17:43.515
194.0, -41983.81805227018, -49619.10690296971, -17616.2591715168, -18292.935883156762, -8545.340126197354, -8427.47937768452, -187500.02235174447, -187500.02235174447, -0.19, 0.8200000000000001, 0.492, 192.0, 0.0, 0.0, 0.0, 0.0, 0.0, 0.0, 0.0, 0.0, 0.0, 1.7297056635186265E9, 0.0, 2024-10-23 23:17:43.518
195.0, -41994.92686926447, -49661.32934824579, -17625.043407087735, -18477.918920268887, -8542.993193029546, -8435.704819644072, -187500.02235174447, -187500.02235174447, -0.19, 0.8200000000000001, 0.492, 192.0, 0.0, 0.0, 0.0, 0.0, 0.0, 0.0, 0.0, 0.0, 0.0, 1.7297056635235963E9, 0.0, 2024-10-23 23:17:43.523
196.0, -41890.27600172472, -49458.420212080506, -17610.872401103068, -18027.039531116432, -8534.834806303359, -8375.690385781572, -187500.02235174447, -187500.02235174447, -0.19, 0.8200000000000001, 0.492, 192.0, 0.0, 0.0, 0.0, 0.0, 0.0, 0.0, 0.0, 0.0, 0.0, 1.7297056635366724E9, 0.0, 2024-10-23 23:17:43.536
197.0, -41828.6745940059, -49309.89287017499, -17615.38745348304, -17591.87341831606, -8530.342105667843, -8332.283298049368, -187500.02235174447, -187500.02235174447, -0.19, 0.8200000000000001, 0.492, 192.0, 0.0, 0.0, 0.0, 0.0, 0.0, 0.0, 0.0, 0.0, 0.0, 1.7297056635397468E9, 0.0, 2024-10-23 23:17:43.539
198.0, -41905.45283620988, -49415.147234815035, -17654.748875468835, -17730.968324061432, -8547.620004131795, -8363.933368198082, -187500.02235174447, -187500.02235174447, -0.19, 0.8200000000000001, 0.492, 192.0, 0.0, 0.0, 0.0, 0.0, 0.0, 0.0, 0.0, 0.0, 0.0, 1.7297056635427208E9, 0.0, 2024-10-23 23:17:43.542
199.0, -42015.49047416335, -49641.14572300264, -17689.528189841294, -18325.21180215023, -8552.984422801068, -8427.099398028779, -187500.02235174447, -187500.02235174447, -0.186, 0.8140000000000001, 0.49, 192.0, 250.0, 48.0, 25.0, 112.0, 15.0, 80.0, 0.0, 0.0, 0.0, 1.7297056635467613E9, 0.0, 2024-10-23 23:17:43.546
200.0, -42026.2193115019, -49680.08246184379, -17712.50578314135, -18512.742938130254, -8549.251681477033, -8451.507502973975, -187500.02235174447, -187500.02235174447, -0.186, 0.8140000000000001, 0.49, 192.0, 0.0, 0.0, 0.0, 0.0, 0.0, 0.0, 0.0, 0.0, 0.0, 1.7297056635498059E9, 0.0, 2024-10-23 23:17:43.549
201.0, -41918.66271718296, -49470.19958140845, -17707.36488191663, -18064.232833890062, -8551.26333847801, -8414.291848455889, -187500.02235174447, -187500.02235174447, -0.186, 0.8140000000000001, 0.49, 192.0, 0.0, 0.0, 0.0, 0.0, 0.0, 0.0, 0.0, 0.0, 0.0, 1.729705663552703E9, 0.0, 2024-10-23 23:17:43.552
202.0, -41849.059384949134, -49316.26311734475, -17710.896457540566, -17628.709093178404, -8560.36049847132, -8393.460022623542, -187500.02235174447, -187500.02235174447, -0.186, 0.8140000000000001, 0.49, 192.0, 0.0, 0.0, 0.0, 0.0, 0.0, 0.0, 0.0, 0.0, 0.0, 1.7297056635566924E9, 0.0, 2024-10-23 23:17:43.556
203.0, -41901.16130127446, -49402.31733349769, -17721.826460579214, -17751.442521982495, -8570.396431731753, -8424.014857293947, -187500.02235174447, -187500.02235174447, -0.186, 0.8140000000000001, 0.49, 192.0, 0.0, 0.0, 0.0, 0.0, 0.0, 0.0, 0.0, 0.0, 0.0, 1.7297056635599964E9, 0.0, 2024-10-23 23:17:43.559
204.0, -42004.18049146897, -49622.52671987137, -17734.87987934111, -18332.654933053844, -8579.35948125833, -8485.415099312675, -187500.02235174447, -187500.02235174447, -0.186, 0.8140000000000001, 0.49, 192.0, 0.0, 0.0, 0.0, 0.0, 0.0, 0.0, 0.0, 0.0, 0.0, 1.7297056635627437E9, 0.0, 2024-10-23 23:17:43.562
205.0, -42009.90253804953, -49656.88135109918, -17731.37065546163, -18510.060728795615, -8581.92993187069, -8501.284837875943, -187500.02235174447, -187500.02235174447, -0.186, 0.8140000000000001, 0.49, 192.0, 0.0, 0.0, 0.0, 0.0, 0.0, 0.0, 0.0, 0.0, 0.0, 1.729705663565781E9, 0.0, 2024-10-23 23:17:43.565
206.0, -41886.5879638896, -49438.080124626176, -17682.21916940441, -18048.96659242709, -8556.515998425008, -8437.492959200497, -187500.02235174447, -187500.02235174447, -0.186, 0.8140000000000001, 0.49, 192.0, 0.0, 0.0, 0.0, 0.0, 0.0, 0.0, 0.0, 0.0, 0.0, 1.7297056635697336E9, 0.0, 2024-10-23 23:17:43.569
207.0, -41813.698925220844, -49283.13783206199, -17660.985012171866, -17596.14260150702, -8555.30900422442, -8397.550391858864, -187500.02235174447, -187500.02235174447, -0.186, 0.8140000000000001, 0.49, 192.0, 0.0, 0.0, 0.0, 0.0, 0.0, 0.0, 0.0, 0.0, 0.0, 1.729705663572775E9, 0.0, 2024-10-23 23:17:43.572
208.0, -41880.307123697654, -49381.731376854346, -17672.40675358853, -17723.346379202172, -8580.544123714462, -8429.871014341237, -187500.02235174447, -187500.02235174447, -0.186, 0.8140000000000001, 0.49, 192.0, 0.0, 0.0, 0.0, 0.0, 0.0, 0.0, 0.0, 0.0, 0.0, 1.729705663575754E9, 0.0, 2024-10-23 23:17:43.575
209.0, -41994.09985471962, -49618.659868080606, -17685.9742624729, -18317.791022991067, -8585.103879583345, -8488.00790166949, -187500.02235174447, -187500.02235174447, -0.188, 0.8220000000000001, 0.492, 192.0, 250.0, 32.0, 25.0, 176.0, 15.0, 96.0, 0.0, 0.0, 0.0, 1.7297056635797522E9, 0.0, 2024-10-23 23:17:43.579
210.0, -42000.02306700028, -49657.46249645502, -17673.993727444857, -18501.343548458048, -8573.145696299756, -8492.701768005105, -187500.02235174447, -187500.02235174447, -0.188, 0.8220000000000001, 0.492, 192.0, 0.0, 0.0, 0.0, 0.0, 0.0, 0.0, 0.0, 0.0, 0.0, 1.7297056635828016E9, 0.0, 2024-10-23 23:17:43.582
211.0, -41891.10301626957, -49448.67485149799, -17635.77224442628, -18047.647839504225, -8557.16419901421, -8432.419113209142, -187500.02235174447, -187500.02235174447, -0.188, 0.8220000000000001, 0.492, 192.0, 0.0, 0.0, 0.0, 0.0, 0.0, 0.0, 0.0, 0.0, 0.0, 1.729705663586727E9, 0.0, 2024-10-23 23:17:43.586
212.0, -41825.165370126415, -49298.71699794734, -17619.053139573713, -17601.507020176294, -8560.069925793401, -8397.37157790322, -187500.02235174447, -187500.02235174447, -0.188, 0.8220000000000001, 0.492, 192.0, 0.0, 0.0, 0.0, 0.0, 0.0, 0.0, 0.0, 0.0, 0.0, 1.729705663590824E9, 0.0, 2024-10-23 23:17:43.590
213.0, -41874.24980095027, -49384.27947572225, -17606.62556965656, -17715.389158176084, -8556.35953621382, -8408.99448501998, -187500.02235174447, -187500.02235174447, -0.188, 0.8220000000000001, 0.492, 192.0, 0.0, 0.0, 0.0, 0.0, 0.0, 0.0, 0.0, 0.0, 0.0, 1.7297056635948305E9, 0.0, 2024-10-23 23:17:43.594
214.0, -41987.30492440521, -49623.24197569394, -17615.05217731621, -18301.854229194432, -8558.259434492522, -8466.237302570022, -187500.02235174447, -187500.02235174447, -0.188, 0.8220000000000001, 0.492, 192.0, 0.0, 0.0, 0.0, 0.0, 0.0, 0.0, 0.0, 0.0, 0.0, 1.7297056635987165E9, 0.0, 2024-10-23 23:17:43.598
215.0, -42010.30486944972, -49681.33415953328, -17619.34371225163, -18500.80710659112, -8561.187513016166, -8484.766898723472, -187500.02235174447, -187500.02235174447, -0.188, 0.8220000000000001, 0.492, 192.0, 0.0, 0.0, 0.0, 0.0, 0.0, 0.0, 0.0, 0.0, 0.0, 1.729705663603906E9, 0.0, 2024-10-23 23:17:43.603
216.0, -41890.56657440264, -49464.79045925027, -17576.607176853082, -18045.6585342477, -8537.561719126907, -8414.314200200344, -187500.02235174447, -187500.02235174447, -0.188, 0.8220000000000001, 0.492, 192.0, 0.0, 0.0, 0.0, 0.0, 0.0, 0.0, 0.0, 0.0, 0.0, 1.729705663607723E9, 0.0, 2024-10-23 23:17:43.607
217.0, -41822.48316079178, -49311.50219577577, -17569.253452927285, -17594.1532962505, -8540.73566683956, -8376.584455559785, -187500.02235174447, -187500.02235174447, -0.188, 0.8220000000000001, 0.492, 192.0, 0.0, 0.0, 0.0, 0.0, 0.0, 0.0, 0.0, 0.0, 0.0, 1.7297056636107435E9, 0.0, 2024-10-23 23:17:43.610
218.0, -41878.653094607966, -49400.01510381879, -17579.647014099006, -17705.71085282694, -8539.126341238778, -8388.810859776839, -187500.02235174447, -187500.02235174447, -0.188, 0.8220000000000001, 0.492, 192.0, 0.0, 0.0, 0.0, 0.0, 0.0, 0.0, 0.0, 0.0, 0.0, 1.7297056636148858E9, 0.0, 2024-10-23 23:17:43.614
219.0, -41994.479834375365, -49636.00482177792, -17612.01234007029, -18297.965025659207, -8544.40135293023, -8443.349116247788, -187500.02235174447, -187500.02235174447, -0.188, 0.8220000000000001, 0.492, 192.0, 0.0, 0.0, 0.0, 0.0, 0.0, 0.0, 0.0, 0.0, 0.0, 1.729705663618832E9, 0.0, 2024-10-23 23:17:43.618
220.0, -42014.66345961851, -49688.710235203536, -17638.454453760918, -18500.248312979737, -8550.346916955343, -8461.811657167871, -187500.02235174447, -187500.02235174447, -0.192, 0.8300000000000001, 0.492, 192.0, 250.0, 0.0, 25.0, 240.0, 15.0, 96.0, 0.0, 0.0, 0.0, 1.7297056636258204E9, 0.0, 2024-10-23 23:17:43.625
221.0, -41907.08451355511, -49481.21899142492, -17629.759625167804, -18055.873281463777, -8541.853254062326, -8408.502746641963, -187500.02235174447, -187500.02235174447, -0.192, 0.8300000000000001, 0.492, 192.0, 0.0, 0.0, 0.0, 0.0, 0.0, 0.0, 0.0, 0.0, 0.0, 1.7297056636288629E9, 0.0, 2024-10-23 23:17:43.628
222.0, -41847.98650121528, -49333.76453325326, -17645.338791053153, -17613.465203459884, -8554.88432107977, -8378.462002094031, -187500.02235174447, -187500.02235174447, -0.192, 0.8300000000000001, 0.492, 192.0, 0.0, 0.0, 0.0, 0.0, 0.0, 0.0, 0.0, 0.0, 0.0, 1.7297056636330266E9, 0.0, 2024-10-23 23:17:43.633
223.0, -41909.56555718965, -49425.987830875856, -17670.998593687844, -17726.65443738156, -8575.336167256375, -8402.244258194478, -187500.02235174447, -187500.02235174447, -0.192, 0.8300000000000001, 0.492, 192.0, 0.0, 0.0, 0.0, 0.0, 0.0, 0.0, 0.0, 0.0, 0.0, 1.7297056636358843E9, 0.0, 2024-10-23 23:17:43.635
224.0, -42016.5186544083, -49649.77349636239, -17694.669091066015, -18313.43243282228, -8585.550914472451, -8456.044907098401, -187500.02235174447, -187500.02235174447, -0.192, 0.8300000000000001, 0.492, 192.0, 0.0, 0.0, 0.0, 0.0, 0.0, 0.0, 0.0, 0.0, 0.0, 1.7297056636387825E9, 0.0, 2024-10-23 23:17:43.638
225.0, -42022.732439366875, -49682.608208967235, -17696.345471900164, -18502.103507769527, -8575.380870745286, -8463.644500213206, -187500.02235174447, -187500.02235174447, -0.192, 0.8300000000000001, 0.492, 192.0, 0.0, 0.0, 0.0, 0.0, 0.0, 0.0, 0.0, 0.0, 0.0, 1.7297056636430225E9, 0.0, 2024-10-23 23:17:43.643
226.0, -41906.816292621654, -49466.06450868422, -17665.187140129467, -18050.106531394307, -8551.822132089394, -8406.80401406336, -187500.02235174447, -187500.02235174447, -0.192, 0.8300000000000001, 0.492, 192.0, 0.0, 0.0, 0.0, 0.0, 0.0, 0.0, 0.0, 0.0, 0.0, 1.7297056636468127E9, 0.0, 2024-10-23 23:17:43.646
227.0, -41842.5773790571, -49312.88800393201, -17662.50493079483, -17601.19409575392, -8562.662728150217, -8386.486278353486, -187500.02235174447, -187500.02235174447, -0.192, 0.8300000000000001, 0.492, 192.0, 0.0, 0.0, 0.0, 0.0, 0.0, 0.0, 0.0, 0.0, 0.0, 1.7297056636508029E9, 0.0, 2024-10-23 23:17:43.650
228.0, -41898.5908506621, -49395.231830505356, -17669.992765187355, -17708.41541390603, -8577.41487949072, -8415.342380445289, -187500.02235174447, -187500.02235174447, -0.192, 0.8300000000000001, 0.492, 192.0, 0.0, 0.0, 0.0, 0.0, 0.0, 0.0, 0.0, 0.0, 0.0, 1.7297056636548529E9, 0.0, 2024-10-23 23:17:43.654
229.0, -42005.49924439183, -49624.06899023879, -17683.26970139381, -18296.489810525156, -8584.768603416516, -8479.558942265385, -187500.02235174447, -187500.02235174447, -0.192, 0.8300000000000001, 0.492, 192.0, 0.0, 0.0, 0.0, 0.0, 0.0, 0.0, 0.0, 0.0, 0.0, 1.7297056636598356E9, 0.0, 2024-10-23 23:17:43.659
230.0, -42014.03761077376, -49666.626711681696, -17682.08505893768, -18489.18419947436, -8583.539257471473, -8491.785346482438, -187500.02235174447, -187500.02235174447, -0.196, 0.8220000000000001, 0.494, 192.0, 249.0, 224.0, 25.0, 176.0, 15.0, 112.0, 0.0, 0.0, 0.0, 1.7297056636627946E9, 0.0, 2024-10-23 23:17:43.662
231.0, -41905.29637399869, -49464.34342436116, -17652.62545974558, -18048.00546741551, -8573.659786422228, -8438.699953401083, -187500.02235174447, -187500.02235174447, -0.196, 0.8220000000000001, 0.494, 192.0, 0.0, 0.0, 0.0, 0.0, 0.0, 0.0, 0.0, 0.0, 0.0, 1.7297056636668289E9, 0.0, 2024-10-23 23:17:43.666
232.0, -41831.602672529545, -49306.1377771065, -17639.30382005022, -17594.823848584158, -8575.55968470093, -8407.966304775036, -187500.02235174447, -187500.02235174447, -0.196, 0.8220000000000001, 0.494, 192.0, 0.0, 0.0, 0.0, 0.0, 0.0, 0.0, 0.0, 0.0, 0.0, 1.7297056636708477E9, 0.0, 2024-10-23 23:17:43.670
233.0, -41884.24103072179, -49389.286266480245, -17642.097788107134, -17695.518457355316, -8585.1262313278, -8427.032342795414, -187500.02235174447, -187500.02235174447, -0.196, 0.8220000000000001, 0.494, 192.0, 0.0, 0.0, 0.0, 0.0, 0.0, 0.0, 0.0, 0.0, 0.0, 1.729705663674836E9, 0.0, 2024-10-23 23:17:43.674
234.0, -41994.23396518636, -49626.2147577065, -17654.033619646267, -18281.514141740103, -8583.427498749197, -8479.044852142913, -187500.02235174447, -187500.02235174447, -0.196, 0.8220000000000001, 0.494, 192.0, 0.0, 0.0, 0.0, 0.0, 0.0, 0.0, 0.0, 0.0, 0.0, 1.7297056636788375E9, 0.0, 2024-10-23 23:17:43.678
235.0, -42005.00750601381, -49674.986264107974, -17649.36210505511, -18483.305690682613, -8577.83956263537, -8489.43841331463, -187500.02235174447, -187500.02235174447, -0.196, 0.8220000000000001, 0.494, 192.0, 0.0, 0.0, 0.0, 0.0, 0.0, 0.0, 0.0, 0.0, 0.0, 1.729705663682846E9, 0.0, 2024-10-23 23:17:43.682
236.0, -41895.707475627365, -49471.54068607577, -17615.789784883236, -18046.95493542611, -8565.926082840691, -8435.391895221699, -187500.02235174447, -187500.02235174447, -0.196, 0.8220000000000001, 0.494, 192.0, 0.0, 0.0, 0.0, 0.0, 0.0, 0.0, 0.0, 0.0, 0.0, 1.7297056636868417E9, 0.0, 2024-10-23 23:17:43.686
237.0, -41827.534655038675, -49316.10665513357, -17602.982235310345, -17592.588674138628, -8564.070888050901, -8399.80791804885, -187500.02235174447, -187500.02235174447, -0.196, 0.8220000000000001, 0.494, 192.0, 0.0, 0.0, 0.0, 0.0, 0.0, 0.0, 0.0, 0.0, 0.0, 1.7297056636898806E9, 0.0, 2024-10-23 23:17:43.689
238.0, -41876.52967888471, -49394.98596131634, -17597.9530928079, -17691.092811953167, -8562.461562450118, -8408.100415241768, -187500.02235174447, -187500.02235174447, -0.196, 0.8220000000000001, 0.494, 192.0, 0.0, 0.0, 0.0, 0.0, 0.0, 0.0, 0.0, 0.0, 0.0, 1.729705663696952E9, 0.0, 2024-10-23 23:17:43.696
239.0, -41989.33893315064, -49631.69093509805, -17611.96763658138, -18280.016574861595, -8567.669518908206, -8460.448200756098, -187500.02235174447, -187500.02235174447, -0.196, 0.8220000000000001, 0.494, 192.0, 0.0, 0.0, 0.0, 0.0, 0.0, 0.0, 0.0, 0.0, 0.0, 1.7297056637010822E9, 0.0, 2024-10-23 23:17:43.701
240.0, -42006.79564557024, -49682.69761594506, -17616.549744194715, -18484.7138505833, -8572.206923032632, -8474.596854996307, -187500.02235174447, -187500.02235174447, -0.194, 0.8220000000000001, 0.49, 192.0, 249.0, 240.0, 25.0, 176.0, 15.0, 80.0, 0.0, 0.0, 0.0, 1.729705663703956E9, 0.0, 2024-10-23 23:17:43.703
241.0, -41900.669562896444, -49481.64367456957, -17590.062927015177, -18051.537043039447, -8547.396486687241, -8417.108168257257, -187500.02235174447, -187500.02235174447, -0.194, 0.8220000000000001, 0.49, 192.0, 0.0, 0.0, 0.0, 0.0, 0.0, 0.0, 0.0, 0.0, 0.0, 1.7297056637078924E9, 0.0, 2024-10-23 23:17:43.707
242.0, -41830.32862309559, -49327.75191399478, -17586.48664790233, -17600.568246909173, -8541.652088362229, -8381.747708528961, -187500.02235174447, -187500.02235174447, -0.194, 0.8220000000000001, 0.49, 192.0, 0.0, 0.0, 0.0, 0.0, 0.0, 0.0, 0.0, 0.0, 0.0, 1.7297056637109795E9, 0.0, 2024-10-23 23:17:43.710
243.0, -41886.36444644504, -49410.810996390705, -17602.1552207655, -17700.346434157662, -8553.36440245681, -8408.033360008403, -187500.02235174447, -187500.02235174447, -0.194, 0.8220000000000001, 0.49, 192.0, 0.0, 0.0, 0.0, 0.0, 0.0, 0.0, 0.0, 0.0, 0.0, 1.7297056637150333E9, 0.0, 2024-10-23 23:17:43.715
244.0, -41998.07846523267, -49645.079630026776, -17625.87042163258, -18297.67445298129, -8556.784219358471, -8466.393764781209, -187500.02235174447, -187500.02235174447, -0.194, 0.8220000000000001, 0.49, 192.0, 0.0, 0.0, 0.0, 0.0, 0.0, 0.0, 0.0, 0.0, 0.0, 1.729705663717978E9, 0.0, 2024-10-23 23:17:43.717
245.0, -42011.57891888367, -49691.88418291619, -17632.575944969172, -18506.372690960492, -8551.084524522368, -8475.714442219072, -187500.02235174447, -187500.02235174447, -0.194, 0.8220000000000001, 0.49, 192.0, 0.0, 0.0, 0.0, 0.0, 0.0, 0.0, 0.0, 0.0, 0.0, 1.729705663722034E9, 0.0, 2024-10-23 23:17:43.722
246.0, -41910.169054289945, -49497.06637824373, -17615.320398249674, -18082.091877709852, -8549.385791943765, -8431.14506377519, -187500.02235174447, -187500.02235174447, -0.194, 0.8220000000000001, 0.49, 192.0, 0.0, 0.0, 0.0, 0.0, 0.0, 0.0, 0.0, 0.0, 0.0, 1.729705663726904E9, 0.0, 2024-10-23 23:17:43.726
247.0, -41847.0253762037, -49345.63330955903, -17618.650808173516, -17631.0113228573, -8565.613158418317, -8409.329761186811, -187500.02235174447, -187500.02235174447, -0.194, 0.8220000000000001, 0.49, 192.0, 0.0, 0.0, 0.0, 0.0, 0.0, 0.0, 0.0, 0.0, 0.0, 1.729705663730934E9, 0.0, 2024-10-23 23:17:43.730
248.0, -41889.71720811334, -49414.58844120365, -17617.846145373125, -17717.445518665972, -8567.848332863849, -8422.718456115539, -187500.02235174447, -187500.02235174447, -0.194, 0.8220000000000001, 0.49, 192.0, 0.0, 0.0, 0.0, 0.0, 0.0, 0.0, 0.0, 0.0, 0.0, 1.729705663734972E9, 0.0, 2024-10-23 23:17:43.734
249.0, -42001.677096089974, -49647.89594982815, -17632.955924624912, -18303.642368750854, -8576.006719590036, -8481.861171944282, -187500.02235174447, -187500.02235174447, -0.194, 0.8220000000000001, 0.49, 192.0, 0.0, 0.0, 0.0, 0.0, 0.0, 0.0, 0.0, 0.0, 0.0, 1.7297056637390337E9, 0.0, 2024-10-23 23:17:43.739
250.0, -42019.93847130996, -49702.70242723256, -17635.124043837077, -18511.80416486313, -8580.991158603569, -8501.530707064952, -187500.02235174447, -187500.02235174447, -0.192, 0.8180000000000001, 0.494, 192.0, 250.0, 0.0, 25.0, 144.0, 15.0, 112.0, 0.0, 0.0, 0.0, 1.7297056637419991E9, 0.0, 2024-10-23 23:17:43.741
251.0, -41904.62582166503, -49490.76318630734, -17592.275749716253, -18076.28042415147, -8564.294405495453, -8445.293718015399, -187500.02235174447, -187500.02235174447, -0.192, 0.8180000000000001, 0.494, 192.0, 0.0, 0.0, 0.0, 0.0, 0.0, 0.0, 0.0, 0.0, 0.0, 1.7297056637460296E9, 0.0, 2024-10-23 23:17:43.746
252.0, -41822.84078870306, -49313.55855626566, -17563.732572046825, -17601.395261454018, -8553.386754201265, -8402.04309249438, -187500.02235174447, -187500.02235174447, -0.192, 0.8180000000000001, 0.494, 192.0, 0.0, 0.0, 0.0, 0.0, 0.0, 0.0, 0.0, 0.0, 0.0, 1.7297056637499523E9, 0.0, 2024-10-23 23:17:43.749
253.0, -41878.40722541895, -49387.945161812924, -17568.76171454927, -17684.588454316672, -8565.009661318023, -8423.433711938109, -187500.02235174447, -187500.02235174447, -0.192, 0.8180000000000001, 0.494, 192.0, 0.0, 0.0, 0.0, 0.0, 0.0, 0.0, 0.0, 0.0, 0.0, 1.7297056637550497E9, 0.0, 2024-10-23 23:17:43.755
254.0, -41997.45261638792, -49630.57334787528, -17589.280615959244, -18286.297415053537, -8576.051423078945, -8490.511297048486, -187500.02235174447, -187500.02235174447, -0.192, 0.8180000000000001, 0.494, 192.0, 0.0, 0.0, 0.0, 0.0, 0.0, 0.0, 0.0, 0.0, 0.0, 1.729705663758975E9, 0.0, 2024-10-23 23:17:43.758
255.0, -42008.56143338221, -49678.80841240984, -17588.587711881126, -18498.594283890045, -8561.992175816558, -8497.01565468498, -187500.02235174447, -187500.02235174447, -0.192, 0.8180000000000001, 0.494, 192.0, 0.0, 0.0, 0.0, 0.0, 0.0, 0.0, 0.0, 0.0, 0.0, 1.7297056637629557E9, 0.0, 2024-10-23 23:17:43.762
0.0, -41900.91543208545, -49478.134450690086, -17565.27484241424, -18073.262938650005, -8547.843521576347, -8440.152816790678, -187500.02235174447, -187500.02235174447, -0.192, 0.8180000000000001, 0.494, 192.0, 0.0, 0.0, 0.0, 0.0, 0.0, 0.0, 0.0, 0.0, 0.0, 1.72970566376705E9, 0.0, 2024-10-23 23:17:43.767
1.0, -41828.42872481689, -49317.22424235633, -17559.552795833682, -17606.24559000082, -8550.056344277424, -8403.339493672787, -187500.02235174447, -187500.02235174447, -0.192, 0.8180000000000001, 0.494, 192.0, 0.0, 0.0, 0.0, 0.0, 0.0, 0.0, 0.0, 0.0, 0.0, 1.7297056637711303E9, 0.0, 2024-10-23 23:17:43.771
2.0, -41878.362521930045, -49389.66624613598, -17569.14169420501, -17685.616634561615, -8557.87945483678, -8417.152871746168, -187500.02235174447, -187500.02235174447, -0.192, 0.8180000000000001, 0.494, 192.0, 0.0, 0.0, 0.0, 0.0, 0.0, 0.0, 0.0, 0.0, 0.0, 1.7297056637739596E9, 0.0, 2024-10-23 23:17:43.773
3.0, -41993.138729708044, -49625.25363269492, -17592.85689507209, -18273.892196880843, -8564.875550851291, -8476.67556723065, -187500.02235174447, -187500.02235174447, -0.192, 0.8180000000000001, 0.494, 192.0, 0.0, 0.0, 0.0, 0.0, 0.0, 0.0, 0.0, 0.0, 0.0, 1.7297056637806723E9, 0.0, 2024-10-23 23:17:43.780
4.0, -42010.707200849916, -49680.7753659219, -17596.232008484843, -18488.267777951693, -8558.639414148261, -8491.226552871056, -187500.02235174447, -187500.02235174447, -0.196, 0.8160000000000001, 0.492, 192.0, 249.0, 224.0, 25.0, 128.0, 15.0, 96.0, 0.0, 0.0, 0.0, 1.7297056637821643E9, 0.0, 2024-10-23 23:17:43.782
5.0, -41906.03398156571, -49484.95173274896, -17570.326336661143, -18069.172569414684, -8546.79298958695, -8439.281098756921, -187500.02235174447, -187500.02235174447, -0.196, 0.8160000000000001, 0.492, 192.0, 0.0, 0.0, 0.0, 0.0, 0.0, 0.0, 0.0, 0.0, 0.0, 1.7297056637870862E9, 0.0, 2024-10-23 23:17:43.787
6.0, -41829.36749808401, -49321.04639065819, -17553.651935297483, -17602.937531821433, -8538.88047204977, -8397.23746743649, -187500.02235174447, -187500.02235174447, -0.196, 0.8160000000000001, 0.492, 192.0, 0.0, 0.0, 0.0, 0.0, 0.0, 0.0, 0.0, 0.0, 0.0, 1.7297056637909832E9, 0.0, 2024-10-23 23:17:43.790
7.0, -41882.67640860992, -49399.50101369632, -17561.497397601295, -17683.806143260736, -8546.435361675663, -8415.118863000735, -187500.02235174447, -187500.02235174447, -0.196, 0.8160000000000001, 0.492, 192.0, 0.0, 0.0, 0.0, 0.0, 0.0, 0.0, 0.0, 0.0, 0.0, 1.729705663795149E9, 0.0, 2024-10-23 23:17:43.795
8.0, -41995.955049509415, -49640.63163288017, -17580.004642010288, -18280.508313239614, -8551.93389081167, -8471.91464566167, -187500.02235174447, -187500.02235174447, -0.196, 0.8160000000000001, 0.492, 192.0, 0.0, 0.0, 0.0, 0.0, 0.0, 0.0, 0.0, 0.0, 0.0, 1.72970566379911E9, 0.0, 2024-10-23 23:17:43.799
9.0, -42007.756770581815, -49693.26999107242, -17578.730592576336, -18497.499048411733, -8540.31098369491, -8478.10607887579, -187500.02235174447, -187500.02235174447, -0.196, 0.8160000000000001, 0.492, 192.0, 0.0, 0.0, 0.0, 0.0, 0.0, 0.0, 0.0, 0.0, 0.0, 1.7297056638021216E9, 0.0, 2024-10-23 23:17:43.802
10.0, -41906.52571994373, -49499.34625617818, -17558.72578128884, -18082.00247073203, -8532.040838246447, -8425.847700339282, -187500.02235174447, -187500.02235174447, -0.196, 0.8160000000000001, 0.492, 192.0, 0.0, 0.0, 0.0, 0.0, 0.0, 0.0, 0.0, 0.0, 0.0, 1.7297056638062613E9, 0.0, 2024-10-23 23:17:43.806
11.0, -41832.2732248632, -49337.0949431771, -17557.76465627726, -17621.176555296966, -8541.182701728667, -8389.548467343864, -187500.02235174447, -187500.02235174447, -0.196, 0.8160000000000001, 0.492, 192.0, 0.0, 0.0, 0.0, 0.0, 0.0, 0.0, 0.0, 0.0, 0.0, 1.729705663811113E9, 0.0, 2024-10-23 23:17:43.811
12.0, -41870.82998404861, -49401.512670697295, -17563.754923791283, -17691.048108464256, -8547.441190176152, -8397.215115692034, -187500.02235174447, -187500.02235174447, -0.196, 0.8160000000000001, 0.492, 192.0, 0.0, 0.0, 0.0, 0.0, 0.0, 0.0, 0.0, 0.0, 0.0, 1.7297056638150432E9, 0.0, 2024-10-23 23:17:43.815
13.0, -41982.6110580696, -49636.98829853396, -17588.67711885895, -18290.343080799947, -8560.136981026768, -8456.179017565133, -187500.02235174447, -187500.02235174447, -0.196, 0.8160000000000001, 0.492, 192.0, 0.0, 0.0, 0.0, 0.0, 0.0, 0.0, 0.0, 0.0, 0.0, 1.7297056638191254E9, 0.0, 2024-10-23 23:17:43.819
14.0, -41999.21840419989, -49693.47115677252, -17595.606159640094, -18515.29103699816, -8554.50434142403, -8473.903950918193, -187500.02235174447, -187500.02235174447, -0.198, 0.8200000000000001, 0.494, 192.0, 249.0, 208.0, 25.0, 160.0, 15.0, 112.0, 0.0, 0.0, 0.0, 1.7297056638231113E9, 0.0, 2024-10-23 23:17:43.823
15.0, -41894.34401921559, -49504.01777076934, -17576.38365940853, -18106.075299510398, -8546.010678531013, -8425.937107317104, -187500.02235174447, -187500.02235174447, -0.198, 0.8200000000000001, 0.494, 192.0, 0.0, 0.0, 0.0, 0.0, 0.0, 0.0, 0.0, 0.0, 0.0, 1.72970566382606E9, 0.0, 2024-10-23 23:17:43.826
16.0, -41818.41514330091, -49336.93848096592, -17570.795723294705, -17640.82373867318, -8554.258472235022, -8391.940104000581, -187500.02235174447, -187500.02235174447, -0.198, 0.8200000000000001, 0.494, 192.0, 0.0, 0.0, 0.0, 0.0, 0.0, 0.0, 0.0, 0.0, 0.0, 1.7297056638324685E9, 0.0, 2024-10-23 23:17:43.832
17.0, -41859.81057403214, -49394.29305723823, -17572.29329017321, -17701.888704525078, -8560.226388004588, -8400.389063404687, -187500.02235174447, -187500.02235174447, -0.198, 0.8200000000000001, 0.494, 192.0, 0.0, 0.0, 0.0, 0.0, 0.0, 0.0, 0.0, 0.0, 0.0, 1.7297056638350976E9, 0.0, 2024-10-23 23:17:43.835
18.0, -41968.86473522958, -49626.617089106694, -17586.307833946685, -18289.67252846629, -8562.439210705663, -8458.90593038868, -187500.02235174447, -187500.02235174447, -0.198, 0.8200000000000001, 0.494, 192.0, 0.0, 0.0, 0.0, 0.0, 0.0, 0.0, 0.0, 0.0, 0.0, 1.7297056638381774E9, 0.0, 2024-10-23 23:17:43.838
19.0, -41985.7626540378, -49680.954179877546, -17586.464296157872, -18507.400871205435, -8560.315794982409, -8476.38499455273, -187500.02235174447, -187500.02235174447, -0.198, 0.8200000000000001, 0.494, 192.0, 0.0, 0.0, 0.0, 0.0, 0.0, 0.0, 0.0, 0.0, 0.0, 1.729705663843053E9, 0.0, 2024-10-23 23:17:43.843
20.0, -41873.825117805616, -49478.760299534835, -17555.1942056649, -18084.930549255678, -8540.959184284113, -8420.28211596991, -187500.02235174447, -187500.02235174447, -0.198, 0.8200000000000001, 0.494, 192.0, 0.0, 0.0, 0.0, 0.0, 0.0, 0.0, 0.0, 0.0, 0.0, 1.729705663847133E9, 0.0, 2024-10-23 23:17:43.847
21.0, -41797.896241890936, -49311.63630624251, -17549.89684222899, -17607.899619090513, -8541.249756962032, -8379.601941061252, -187500.02235174447, -187500.02235174447, -0.198, 0.8200000000000001, 0.494, 192.0, 0.0, 0.0, 0.0, 0.0, 0.0, 0.0, 0.0, 0.0, 0.0, 1.7297056638511837E9, 0.0, 2024-10-23 23:17:43.851
22.0, -41846.53363782569, -49378.62448437506, -17567.1970924374, -17672.652622777536, -8558.058268792423, -8398.690330826084, -187500.02235174447, -187500.02235174447, -0.198, 0.8200000000000001, 0.494, 192.0, 0.0, 0.0, 0.0, 0.0, 0.0, 0.0, 0.0, 0.0, 0.0, 1.7297056638541076E9, 0.0, 2024-10-23 23:17:43.854
23.0, -41961.33219734814, -49619.73275181446, -17598.37777595255, -18268.751295656122, -8571.55872244343, -8463.44333451311, -187500.02235174447, -187500.02235174447, -0.198, 0.8200000000000001, 0.494, 192.0, 0.0, 0.0, 0.0, 0.0, 0.0, 0.0, 0.0, 0.0, 0.0, 1.7297056638580832E9, 0.0, 2024-10-23 23:17:43.858
24.0, -41983.996866225825, -49683.032892111885, -17613.286389504243, -18493.833362321064, -8569.591768931361, -8480.274198087955, -187500.02235174447, -187500.02235174447, -0.2, 0.8160000000000001, 0.492, 192.0, 249.0, 192.0, 25.0, 128.0, 15.0, 96.0, 0.0, 0.0, 0.0, 1.7297056638621273E9, 0.0, 2024-10-23 23:17:43.862
25.0, -41878.67544635242, -49485.24230542687, -17594.220351483866, -18082.985947488065, -8555.152542013233, -8421.958496804058, -187500.02235174447, -187500.02235174447, -0.2, 0.8160000000000001, 0.492, 192.0, 0.0, 0.0, 0.0, 0.0, 0.0, 0.0, 0.0, 0.0, 0.0, 1.7297056638662453E9, 0.0, 2024-10-23 23:17:43.866
26.0, -41799.08088434707, -49310.65282948647, -17586.821924069158, -17600.590598653627, -8549.698716366138, -8374.058708436336, -187500.02235174447, -187500.02235174447, -0.2, 0.8160000000000001, 0.492, 192.0, 0.0, 0.0, 0.0, 0.0, 0.0, 0.0, 0.0, 0.0, 0.0, 1.729705663871148E9, 0.0, 2024-10-23 23:17:43.871
27.0, -41851.76394602823, -49381.01612103178, -17604.613912655583, -17662.437875561463, -8557.834751347871, -8388.207362676545, -187500.02235174447, -187500.02235174447, -0.2, 0.8160000000000001, 0.492, 192.0, 0.0, 0.0, 0.0, 0.0, 0.0, 0.0, 0.0, 0.0, 0.0, 1.7297056638751185E9, 0.0, 2024-10-23 23:17:43.875
28.0, -41974.96676146588, -49625.03011525037, -17634.677008947972, -18263.051600820017, -8565.83667586287, -8447.864168627759, -187500.02235174447, -187500.02235174447, -0.2, 0.8160000000000001, 0.492, 192.0, 0.0, 0.0, 0.0, 0.0, 0.0, 0.0, 0.0, 0.0, 0.0, 1.7297056638791556E9, 0.0, 2024-10-23 23:17:43.879
29.0, -41998.681962332965, -49687.19031658058, -17648.289221321254, -18498.683690867867, -8563.2215217616, -8464.471514758054, -187500.02235174447, -187500.02235174447, -0.2, 0.8160000000000001, 0.492, 192.0, 0.0, 0.0, 0.0, 0.0, 0.0, 0.0, 0.0, 0.0, 0.0, 1.72970566388212E9, 0.0, 2024-10-23 23:17:43.882
30.0, -41895.46160643835, -49496.529936376806, -17630.363122268096, -18094.20652320463, -8547.888225065259, -8412.928392044114, -187500.02235174447, -187500.02235174447, -0.2, 0.8160000000000001, 0.492, 192.0, 0.0, 0.0, 0.0, 0.0, 0.0, 0.0, 0.0, 0.0, 0.0, 1.729705663886146E9, 0.0, 2024-10-23 23:17:43.886
31.0, -41826.282957349176, -49336.82672224363, -17633.671180447483, -17627.859726889103, -8550.570434399895, -8383.066461451825, -187500.02235174447, -187500.02235174447, -0.2, 0.8160000000000001, 0.492, 192.0, 0.0, 0.0, 0.0, 0.0, 0.0, 0.0, 0.0, 0.0, 0.0, 1.7297056638902376E9, 0.0, 2024-10-23 23:17:43.890
32.0, -41884.866879566536, -49411.88388012456, -17660.359163327117, -17696.25606492234, -8573.369213744309, -8410.76027283195, -187500.02235174447, -187500.02235174447, -0.2, 0.8160000000000001, 0.492, 192.0, 0.0, 0.0, 0.0, 0.0, 0.0, 0.0, 0.0, 0.0, 0.0, 1.729705663894254E9, 0.0, 2024-10-23 23:17:43.894
33.0, -42001.3641716676, -49653.64034815316, -17690.31050089723, -18298.05443263703, -8583.449850493653, -8473.613378240274, -187500.02235174447, -187500.02235174447, -0.2, 0.8160000000000001, 0.492, 192.0, 0.0, 0.0, 0.0, 0.0, 0.0, 0.0, 0.0, 0.0, 0.0, 1.7297056638982563E9, 0.0, 2024-10-23 23:17:43.898
34.0, -42020.16198875451, -49712.29132560389, -17700.435841135484, -18530.6243336945, -8578.89009462477, -8487.672625502662, -187500.02235174447, -187500.02235174447, -0.198, 0.81, 0.492, 192.0, 249.0, 208.0, 25.0, 80.0, 15.0, 96.0, 0.0, 0.0, 0.0, 1.729705663903167E9, 0.0, 2024-10-23 23:17:43.903
35.0, -41916.36048750407, -49515.61832614164, -17683.24734964935, -18126.68360789819, -8569.703527653639, -8434.251956254479, -187500.02235174447, -187500.02235174447, -0.198, 0.81, 0.492, 192.0, 0.0, 0.0, 0.0, 0.0, 0.0, 0.0, 0.0, 0.0, 0.0, 1.7297056639072795E9, 0.0, 2024-10-23 23:17:43.907
36.0, -41831.40150682945, -49337.56432981066, -17671.691497765958, -17644.757645697315, -8564.830847362382, -8388.542638843375, -187500.02235174447, -187500.02235174447, -0.198, 0.81, 0.492, 192.0, 0.0, 0.0, 0.0, 0.0, 0.0, 0.0, 0.0, 0.0, 0.0, 1.7297056639102697E9, 0.0, 2024-10-23 23:17:43.910
37.0, -41885.71624585584, -49408.39700798953, -17687.002442717843, -17700.771117302313, -8579.046556835956, -8409.933258287103, -187500.02235174447, -187500.02235174447, -0.198, 0.81, 0.492, 192.0, 0.0, 0.0, 0.0, 0.0, 0.0, 0.0, 0.0, 0.0, 0.0, 1.7297056639141655E9, 0.0, 2024-10-23 23:17:43.914
38.0, -41993.40695064151, -49642.44212418105, -17698.334777156684, -18298.389708803858, -8580.78999290347, -8465.633805469728, -187500.02235174447, -187500.02235174447, -0.198, 0.81, 0.492, 192.0, 0.0, 0.0, 0.0, 0.0, 0.0, 0.0, 0.0, 0.0, 0.0, 1.7297056639182556E9, 0.0, 2024-10-23 23:17:43.918
39.0, -42016.74217185285, -49709.47500580252, -17700.771117302313, -18532.81480465112, -8574.039766077967, -8481.861171944282, -187500.02235174447, -187500.02235174447, -0.198, 0.81, 0.492, 192.0, 0.0, 0.0, 0.0, 0.0, 0.0, 0.0, 0.0, 0.0, 0.0, 1.729705663922206E9, 0.0, 2024-10-23 23:17:43.922
40.0, -41909.118522300545, -49518.07701803172, -17666.282375607774, -18133.076206812406, -8552.291518722954, -8429.871014341237, -187500.02235174447, -187500.02235174447, -0.198, 0.81, 0.492, 192.0, 0.0, 0.0, 0.0, 0.0, 0.0, 0.0, 0.0, 0.0, 0.0, 1.7297056639262075E9, 0.0, 2024-10-23 23:17:43.926
41.0, -41823.28782359217, -49340.96179496787, -17641.91897415149, -17647.193985842943, -8545.474236664086, -8383.558199829842, -187500.02235174447, -187500.02235174447, -0.198, 0.81, 0.492, 192.0, 0.0, 0.0, 0.0, 0.0, 0.0, 0.0, 0.0, 0.0, 0.0, 1.729705663931183E9, 0.0, 2024-10-23 23:17:43.931
42.0, -41864.19151594538, -49396.125900283565, -17639.12500609458, -17691.405736375542, -8551.129228011278, -8396.52221161392, -187500.02235174447, -187500.02235174447, -0.198, 0.81, 0.492, 192.0, 0.0, 0.0, 0.0, 0.0, 0.0, 0.0, 0.0, 0.0, 0.0, 1.729705663935304E9, 0.0, 2024-10-23 23:17:43.935
43.0, -41977.22428765587, -49633.3673159322, -17653.385419057064, -18278.89898763883, -8553.856140834825, -8452.602738452284, -187500.02235174447, -187500.02235174447, -0.198, 0.81, 0.492, 192.0, 0.0, 0.0, 0.0, 0.0, 0.0, 0.0, 0.0, 0.0, 0.0, 1.7297056639382184E9, 0.0, 2024-10-23 23:17:43.938
44.0, -42000.9618402674, -49693.4264532836, -17658.39220981505, -18513.838173608565, -8551.26333847801, -8465.969081636558, -187500.02235174447, -187500.02235174447, -0.20400000000000001, 0.8140000000000001, 0.494, 192.0, 249.0, 160.0, 25.0, 112.0, 15.0, 112.0, 0.0, 0.0, 0.0, 1.7297056639422345E9, 0.0, 2024-10-23 23:17:43.942
45.0, -41898.05440879517, -49499.256849200356, -17636.465148504394, -18115.552439159448, -8540.109817994811, -8416.66113336815, -187500.02235174447, -187500.02235174447, -0.20400000000000001, 0.8140000000000001, 0.494, 192.0, 0.0, 0.0, 0.0, 0.0, 0.0, 0.0, 0.0, 0.0, 0.0, 1.729705663946198E9, 0.0, 2024-10-23 23:17:43.946
46.0, -41817.051686889135, -49326.27669886073, -17628.35146526712, -17634.34173278114, -8537.964050527102, -8379.601941061252, -187500.02235174447, -187500.02235174447, -0.20400000000000001, 0.8140000000000001, 0.494, 192.0, 0.0, 0.0, 0.0, 0.0, 0.0, 0.0, 0.0, 0.0, 0.0, 1.7297056639501894E9, 0.0, 2024-10-23 23:17:43.950
47.0, -41848.56764657112, -49374.02002501727, -17629.312590278696, -17671.11035241012, -8541.02623951748, -8387.581513831796, -187500.02235174447, -187500.02235174447, -0.20400000000000001, 0.8140000000000001, 0.494, 192.0, 0.0, 0.0, 0.0, 0.0, 0.0, 0.0, 0.0, 0.0, 0.0, 1.7297056639542222E9, 0.0, 2024-10-23 23:17:43.954
48.0, -41957.91238044648, -49602.94659172852, -17646.523433509283, -18251.831025103453, -8540.109817994811, -8442.522101702942, -187500.02235174447, -187500.02235174447, -0.20400000000000001, 0.8140000000000001, 0.494, 192.0, 0.0, 0.0, 0.0, 0.0, 0.0, 0.0, 0.0, 0.0, 0.0, 1.7297056639588554E9, 0.0, 2024-10-23 23:17:43.958
49.0, -41973.3574358651, -49656.83664761027, -17643.885927663556, -18482.545731371134, -8527.123454466278, -8450.121694817746, -187500.02235174447, -187500.02235174447, -0.20400000000000001, 0.8140000000000001, 0.494, 192.0, 0.0, 0.0, 0.0, 0.0, 0.0, 0.0, 0.0, 0.0, 0.0, 1.7297056639632273E9, 0.0, 2024-10-23 23:17:43.963
50.0, -41868.70656832535, -49462.756450504836, -17616.34857849462, -18086.38341264527, -8514.91940199368, -8395.672845324618, -187500.02235174447, -187500.02235174447, -0.20400000000000001, 0.8140000000000001, 0.494, 192.0, 0.0, 0.0, 0.0, 0.0, 0.0, 0.0, 0.0, 0.0, 0.0, 1.7297056639662457E9, 0.0, 2024-10-23 23:17:43.966
51.0, -41795.88458488996, -49294.00077986727, -17608.570171424173, -17607.072604545665, -8520.0603032184, -8363.709850753528, -187500.02235174447, -187500.02235174447, -0.20400000000000001, 0.8140000000000001, 0.494, 192.0, 0.0, 0.0, 0.0, 0.0, 0.0, 0.0, 0.0, 0.0, 0.0, 1.7297056639703343E9, 0.0, 2024-10-23 23:17:43.970
52.0, -41842.8232482461, -49354.886931763525, -17615.275694760763, -17652.714866723403, -8532.711390580105, -8385.636912064185, -187500.02235174447, -187500.02235174447, -0.20400000000000001, 0.8140000000000001, 0.494, 192.0, 0.0, 0.0, 0.0, 0.0, 0.0, 0.0, 0.0, 0.0, 0.0, 1.729705663974332E9, 0.0, 2024-10-23 23:17:43.974
53.0, -41968.39534859602, -49601.85135625021, -17641.874270662578, -18254.379123971357, -8549.855178577325, -8456.111962331768, -187500.02235174447, -187500.02235174447, -0.20400000000000001, 0.8140000000000001, 0.494, 192.0, 0.0, 0.0, 0.0, 0.0, 0.0, 0.0, 0.0, 0.0, 0.0, 1.7297056639782784E9, 0.0, 2024-10-23 23:17:43.978
54.0, -41993.69752331943, -49667.16315354862, -17646.165805597997, -18505.366862460003, -8544.513111652508, -8472.495791017507, -187500.02235174447, -187500.02235174447, -0.20600000000000002, 0.8140000000000001, 0.496, 192.0, 249.0, 144.0, 25.0, 112.0, 15.0, 128.0, 0.0, 0.0, 0.0, 1.7297056639822814E9, 0.0, 2024-10-23 23:17:43.982
55.0, -41892.91350757045, -49483.83414552619, -17624.417558242985, -18119.86632583932, -8529.693905078639, -8423.634877638207, -187500.02235174447, -187500.02235174447, -0.20600000000000002, 0.8140000000000001, 0.496, 192.0, 0.0, 0.0, 0.0, 0.0, 0.0, 0.0, 0.0, 0.0, 0.0, 1.7297056639872563E9, 0.0, 2024-10-23 23:17:43.987
56.0, -41820.78442821317, -49322.85688195907, -17627.680912933458, -17652.156073112023, -8536.041800503946, -8393.99646449047, -187500.02235174447, -187500.02235174447, -0.20600000000000002, 0.8140000000000001, 0.496, 192.0, 0.0, 0.0, 0.0, 0.0, 0.0, 0.0, 0.0, 0.0, 0.0, 1.729705663992356E9, 0.0, 2024-10-23 23:17:43.992
57.0, -41863.29744616717, -49380.43497567594, -17645.741122453346, -17697.30659691174, -8547.240024476056, -8409.240354208989, -187500.02235174447, -187500.02235174447, -0.20600000000000002, 0.8140000000000001, 0.496, 192.0, 0.0, 0.0, 0.0, 0.0, 0.0, 0.0, 0.0, 0.0, 0.0, 1.7297056639943223E9, 0.0, 2024-10-23 23:17:43.994
58.0, -41981.471119102374, -49627.5111588849, -17680.386326359072, -18299.842572193455, -8560.114629282312, -8472.853418928793, -187500.02235174447, -187500.02235174447, -0.20600000000000002, 0.8140000000000001, 0.496, 192.0, 0.0, 0.0, 0.0, 0.0, 0.0, 0.0, 0.0, 0.0, 0.0, 1.729705663998306E9, 0.0, 2024-10-23 23:17:43.998
59.0, -42003.8675670466, -49696.73451146299, -17692.7244892984, -18547.18697633588, -8557.432419947674, -8487.046776657913, -187500.02235174447, -187500.02235174447, -0.20600000000000002, 0.8140000000000001, 0.496, 192.0, 0.0, 0.0, 0.0, 0.0, 0.0, 0.0, 0.0, 0.0, 0.0, 1.7297056640023425E9, 0.0, 2024-10-23 23:17:44.002
60.0, -41904.223490264834, -49513.293744718285, -17679.492256580863, -18163.16165484925, -8541.40621917322, -8434.073142298836, -187500.02235174447, -187500.02235174447, -0.20600000000000002, 0.8140000000000001, 0.496, 192.0, 0.0, 0.0, 0.0, 0.0, 0.0, 0.0, 0.0, 0.0, 0.0, 1.729705664007151E9, 0.0, 2024-10-23 23:17:44.007
61.0, -41831.20034112935, -49341.96762346836, -17684.9237304835, -17676.050087934746, -8543.954318041126, -8395.069348224324, -187500.02235174447, -187500.02235174447, -0.20600000000000002, 0.8140000000000001, 0.496, 192.0, 0.0, 0.0, 0.0, 0.0, 0.0, 0.0, 0.0, 0.0, 0.0, 1.729705664010312E9, 0.0, 2024-10-23 23:17:44.010
62.0, -41881.1341382425, -49400.462138707895, -17709.22007670642, -17711.45525115195, -8559.667594393206, -8410.849679809771, -187500.02235174447, -187500.02235174447, -0.20600000000000002, 0.8140000000000001, 0.496, 192.0, 0.0, 0.0, 0.0, 0.0, 0.0, 0.0, 0.0, 0.0, 0.0, 1.7297056640153332E9, 0.0, 2024-10-23 23:17:44.015
63.0, -41998.27963093277, -49641.14572300264, -17738.053827053765, -18307.91155194182, -8558.192379259155, -8471.087631116823, -187500.02235174447, -187500.02235174447, -0.20600000000000002, 0.8140000000000001, 0.496, 192.0, 0.0, 0.0, 0.0, 0.0, 0.0, 0.0, 0.0, 0.0, 0.0, 1.729705664019426E9, 0.0, 2024-10-23 23:17:44.019
64.0, -42020.3184509657, -49705.49639528947, -17750.436693482006, -18554.987735150782, -8558.035917047968, -8486.711500491083, -187500.02235174447, -187500.02235174447, -0.194, 0.8200000000000001, 0.488, 192.0, 249.0, 240.0, 25.0, 160.0, 15.0, 64.0, 0.0, 0.0, 0.0, 1.7297056640225296E9, 0.0, 2024-10-23 23:17:44.022
65.0, -41914.25942352527, -49514.72425636343, -17728.867260082636, -18167.92257641823, -8543.820207574392, -8432.732037631517, -187500.02235174447, -187500.02235174447, -0.194, 0.8200000000000001, 0.488, 192.0, 0.0, 0.0, 0.0, 0.0, 0.0, 0.0, 0.0, 0.0, 0.0, 1.7297056640263727E9, 0.0, 2024-10-23 23:17:44.026
66.0, -41830.73095449578, -49337.05023968819, -17719.166602989033, -17674.910148967523, -8540.73566683956, -8384.675787052607, -187500.02235174447, -187500.02235174447, -0.194, 0.8200000000000001, 0.488, 192.0, 0.0, 0.0, 0.0, 0.0, 0.0, 0.0, 0.0, 0.0, 0.0, 1.7297056640304587E9, 0.0, 2024-10-23 23:17:44.030
67.0, -41869.44417589238, -49389.710949624896, -17724.195745491477, -17695.27258816631, -8544.200187230133, -8389.101432454758, -187500.02235174447, -187500.02235174447, -0.194, 0.8200000000000001, 0.488, 192.0, 0.0, 0.0, 0.0, 0.0, 0.0, 0.0, 0.0, 0.0, 0.0, 1.7297056640345364E9, 0.0, 2024-10-23 23:17:44.034
68.0, -41989.227174428364, -49632.562653131805, -17747.21804228044, -18286.31976679799, -8552.984422801068, -8447.931223861126, -187500.02235174447, -187500.02235174447, -0.194, 0.8200000000000001, 0.488, 192.0, 0.0, 0.0, 0.0, 0.0, 0.0, 0.0, 0.0, 0.0, 0.0, 1.7297056640385604E9, 0.0, 2024-10-23 23:17:44.038
69.0, -42008.13675023756, -49694.63344748419, -17746.592193435692, -18525.639894680964, -8543.30611745192, -8453.407401252676, -187500.02235174447, -187500.02235174447, -0.194, 0.8200000000000001, 0.488, 192.0, 0.0, 0.0, 0.0, 0.0, 0.0, 0.0, 0.0, 0.0, 0.0, 1.729705664042667E9, 0.0, 2024-10-23 23:17:44.042
70.0, -41906.86099611056, -49506.23059347041, -17723.279323968807, -18137.904183614755, -8524.284782920455, -8401.797223305372, -187500.02235174447, -187500.02235174447, -0.194, 0.8200000000000001, 0.488, 192.0, 0.0, 0.0, 0.0, 0.0, 0.0, 0.0, 0.0, 0.0, 0.0, 1.7297056640474408E9, 0.0, 2024-10-23 23:17:44.047
71.0, -41830.03805041767, -49331.95404195238, -17716.529097143306, -17641.49429100684, -8522.854271275315, -8365.497990309954, -187500.02235174447, -187500.02235174447, -0.194, 0.8200000000000001, 0.488, 192.0, 0.0, 0.0, 0.0, 0.0, 0.0, 0.0, 0.0, 0.0, 0.0, 1.7297056640504172E9, 0.0, 2024-10-23 23:17:44.050
72.0, -41872.349902671565, -49383.31835071067, -17728.33081821571, -17666.796465730247, -8538.522844138484, -8386.195705675567, -187500.02235174447, -187500.02235174447, -0.194, 0.8200000000000001, 0.488, 192.0, 0.0, 0.0, 0.0, 0.0, 0.0, 0.0, 0.0, 0.0, 0.0, 1.7297056640544505E9, 0.0, 2024-10-23 23:17:44.054
73.0, -41987.21551742739, -49622.504368126916, -17751.12959756012, -18257.396609472824, -8546.301251208932, -8453.787380908416, -187500.02235174447, -187500.02235174447, -0.194, 0.8200000000000001, 0.488, 192.0, 0.0, 0.0, 0.0, 0.0, 0.0, 0.0, 0.0, 0.0, 0.0, 1.7297056640584202E9, 0.0, 2024-10-23 23:17:44.058
74.0, -42020.65372713253, -49696.3321800628, -17765.45706575597, -18515.38044397598, -8554.88432107977, -8482.285855088932, -187500.02235174447, -187500.02235174447, -0.192, 0.8220000000000001, 0.488, 192.0, 250.0, 0.0, 25.0, 176.0, 15.0, 64.0, 0.0, 0.0, 0.0, 1.7297056640624342E9, 0.0, 2024-10-23 23:17:44.062
75.0, -41919.646193939, -49510.54448015028, -17741.674809655527, -18142.553346461456, -8540.087466250357, -8437.805883622872, -187500.02235174447, -187500.02235174447, -0.192, 0.8220000000000001, 0.488, 192.0, 0.0, 0.0, 0.0, 0.0, 0.0, 0.0, 0.0, 0.0, 0.0, 1.7297056640665216E9, 0.0, 2024-10-23 23:17:44.066
76.0, -41833.94960569735, -49332.2446146303, -17727.347341459674, -17650.144416111045, -8529.671553334183, -8402.400720405665, -187500.02235174447, -187500.02235174447, -0.192, 0.8220000000000001, 0.488, 192.0, 0.0, 0.0, 0.0, 0.0, 0.0, 0.0, 0.0, 0.0, 0.0, 1.729705664070526E9, 0.0, 2024-10-23 23:17:44.070
77.0, -41884.509251655254, -49394.82949910516, -17748.246222525388, -17682.666204293517, -8548.223501232089, -8431.413284708653, -187500.02235174447, -187500.02235174447, -0.192, 0.8220000000000001, 0.488, 192.0, 0.0, 0.0, 0.0, 0.0, 0.0, 0.0, 0.0, 0.0, 0.0, 1.7297056640754104E9, 0.0, 2024-10-23 23:17:44.075
78.0, -41998.23492744385, -49637.167112489595, -17770.016821624857, -18279.793057417042, -8546.055382019924, -8485.236285357034, -187500.02235174447, -187500.02235174447, -0.192, 0.8220000000000001, 0.488, 192.0, 0.0, 0.0, 0.0, 0.0, 0.0, 0.0, 0.0, 0.0, 0.0, 1.7297056640795429E9, 0.0, 2024-10-23 23:17:44.079
79.0, -42029.54972142574, -49714.146520393675, -17786.51240903287, -18548.729246703297, -8552.403277445232, -8510.784329269449, -187500.02235174447, -187500.02235174447, -0.192, 0.8220000000000001, 0.488, 192.0, 0.0, 0.0, 0.0, 0.0, 0.0, 0.0, 0.0, 0.0, 0.0, 1.7297056640826976E9, 0.0, 2024-10-23 23:17:44.082
80.0, -41932.58785397862, -49534.974936839935, -17774.15189434909, -18184.93225394872, -8546.278899464476, -8466.214950825566, -187500.02235174447, -187500.02235174447, -0.192, 0.8220000000000001, 0.488, 192.0, 0.0, 0.0, 0.0, 0.0, 0.0, 0.0, 0.0, 0.0, 0.0, 1.7297056640866177E9, 0.0, 2024-10-23 23:17:44.086
81.0, -41858.00008273126, -49361.793620800214, -17778.734001962424, -17693.685614309983, -8550.682193122173, -8425.62418289473, -187500.02235174447, -187500.02235174447, -0.192, 0.8220000000000001, 0.488, 192.0, 0.0, 0.0, 0.0, 0.0, 0.0, 0.0, 0.0, 0.0, 0.0, 1.7297056640935495E9, 0.0, 2024-10-23 23:17:44.093
82.0, -41900.78132161872, -49412.39797024703, -17795.34134809272, -17715.813841320734, -8565.993138074058, -8439.616374923751, -187500.02235174447, -187500.02235174447, -0.192, 0.8220000000000001, 0.488, 192.0, 0.0, 0.0, 0.0, 0.0, 0.0, 0.0, 0.0, 0.0, 0.0, 1.729705664096532E9, 0.0, 2024-10-23 23:17:44.096
83.0, -42017.07744801968, -49654.087383042264, -17817.96131348149, -18307.553924030533, -8572.273978266, -8499.317884363876, -187500.02235174447, -187500.02235174447, -0.192, 0.8220000000000001, 0.488, 192.0, 0.0, 0.0, 0.0, 0.0, 0.0, 0.0, 0.0, 0.0, 0.0, 1.729705664100416E9, 0.0, 2024-10-23 23:17:44.100
84.0, -42041.820829131706, -49726.08235193281, -17819.95061873801, -18568.868168457528, -8569.16708578671, -8513.801814770915, -187500.02235174447, -187500.02235174447, -0.192, 0.8220000000000001, 0.488, 192.0, 0.0, 0.0, 0.0, 0.0, 0.0, 0.0, 0.0, 0.0, 0.0, 1.7297056641035264E9, 0.0, 2024-10-23 23:17:44.103
85.0, -41944.009595395284, -49547.38015501263, -17796.123659148652, -18199.058556444474, -8561.589844416361, -8464.069183357857, -187500.02235174447, -187500.02235174447, -0.2, 0.8200000000000001, 0.486, 192.0, 249.0, 192.0, 25.0, 160.0, 15.0, 48.0, 0.0, 0.0, 0.0, 1.7297056641075408E9, 0.0, 2024-10-23 23:17:44.107
86.0, -41872.66282709394, -49379.36209194209, -17792.90500794709, -17707.54369587227, -8572.02810907699, -8430.027476552425, -187500.02235174447, -187500.02235174447, -0.2, 0.8200000000000001, 0.486, 192.0, 0.0, 0.0, 0.0, 0.0, 0.0, 0.0, 0.0, 0.0, 0.0, 1.7297056641105118E9, 0.0, 2024-10-23 23:17:44.110
87.0, -41905.5422431877, -49422.65742095202, -17790.58042652374, -17717.065539010233, -8573.033937577478, -8434.47547369903, -187500.02235174447, -187500.02235174447, -0.2, 0.8200000000000001, 0.486, 192.0, 0.0, 0.0, 0.0, 0.0, 0.0, 0.0, 0.0, 0.0, 0.0, 1.7297056641154504E9, 0.0, 2024-10-23 23:17:44.115
88.0, -42013.94820379594, -49659.56356043382, -17799.878752217144, -18296.154534358328, -8570.038803820467, -8483.023462655958, -187500.02235174447, -187500.02235174447, -0.2, 0.8200000000000001, 0.486, 192.0, 0.0, 0.0, 0.0, 0.0, 0.0, 0.0, 0.0, 0.0, 0.0, 1.7297056641195533E9, 0.0, 2024-10-23 23:17:44.119
89.0, -42040.36796574211, -49730.4856455905, -17798.157667894087, -18551.925546160408, -8564.316757239909, -8491.472422060064, -187500.02235174447, -187500.02235174447, -0.2, 0.8200000000000001, 0.486, 192.0, 0.0, 0.0, 0.0, 0.0, 0.0, 0.0, 0.0, 0.0, 0.0, 1.7297056641225352E9, 0.0, 2024-10-23 23:17:44.122
90.0, -41932.81137142317, -49540.02643108684, -17763.84774015519, -18178.562006778957, -8540.556852883918, -8432.888499842704, -187500.02235174447, -187500.02235174447, -0.2, 0.8200000000000001, 0.486, 192.0, 0.0, 0.0, 0.0, 0.0, 0.0, 0.0, 0.0, 0.0, 0.0, 1.729705664126518E9, 0.0, 2024-10-23 23:17:44.126
91.0, -41851.160448927934, -49357.79265854271, -17749.07323707023, -17672.943195455457, -8539.081637749869, -8389.034377221391, -187500.02235174447, -187500.02235174447, -0.2, 0.8200000000000001, 0.486, 192.0, 0.0, 0.0, 0.0, 0.0, 0.0, 0.0, 0.0, 0.0, 0.0, 1.7297056641314533E9, 0.0, 2024-10-23 23:17:44.131
92.0, -41883.6375336215, -49397.06467355069, -17748.760312647857, -17673.434933833472, -8547.620004131795, -8395.784604046894, -187500.02235174447, -187500.02235174447, -0.2, 0.8200000000000001, 0.486, 192.0, 0.0, 0.0, 0.0, 0.0, 0.0, 0.0, 0.0, 0.0, 0.0, 1.7297056641344411E9, 0.0, 2024-10-23 23:17:44.134
93.0, -42000.17952921147, -49639.9163770576, -17764.0936093442, -18259.207100773707, -8553.386754201265, -8456.268424542955, -187500.02235174447, -187500.02235174447, -0.2, 0.8200000000000001, 0.486, 192.0, 0.0, 0.0, 0.0, 0.0, 0.0, 0.0, 0.0, 0.0, 0.0, 1.7297056641374412E9, 0.0, 2024-10-23 23:17:44.137
94.0, -42023.33593646716, -49708.35741857975, -17761.053772098276, -18518.062653310615, -8542.859082562814, -8471.91464566167, -187500.02235174447, -187500.02235174447, -0.2, 0.8200000000000001, 0.486, 192.0, 0.0, 0.0, 0.0, 0.0, 0.0, 0.0, 0.0, 0.0, 0.0, 1.729705664142494E9, 0.0, 2024-10-23 23:17:44.142
95.0, -41923.06601084066, -49527.643564658596, -17740.51251894385, -18152.097541343875, -8538.187567971656, -8428.641668396196, -187500.02235174447, -187500.02235174447, -0.202, 0.8160000000000001, 0.492, 192.0, 249.0, 176.0, 25.0, 128.0, 15.0, 96.0, 0.0, 0.0, 0.0, 1.7297056641464915E9, 0.0, 2024-10-23 23:17:44.146
96.0, -41839.24696913326, -49349.12018169406, -17737.047998553277, -17651.82079694519, -8543.26141396301, -8394.957589502048, -187500.02235174447, -187500.02235174447, -0.202, 0.8160000000000001, 0.492, 192.0, 0.0, 0.0, 0.0, 0.0, 0.0, 0.0, 0.0, 0.0, 0.0, 1.729705664150516E9, 0.0, 2024-10-23 23:17:44.150
97.0, -41871.455832893356, -49388.77217635777, -17745.452254468473, -17655.844110947146, -8545.898919808737, -8408.525098386419, -187500.02235174447, -187500.02235174447, -0.202, 0.8160000000000001, 0.492, 192.0, 0.0, 0.0, 0.0, 0.0, 0.0, 0.0, 0.0, 0.0, 0.0, 1.7297056641544993E9, 0.0, 2024-10-23 23:17:44.154
98.0, -41989.92007850648, -49627.2652896959, -17775.023612382844, -18244.499652922113, -8557.834751347871, -8480.363605065777, -187500.02235174447, -187500.02235174447, -0.202, 0.8160000000000001, 0.492, 192.0, 0.0, 0.0, 0.0, 0.0, 0.0, 0.0, 0.0, 0.0, 0.0, 1.7297056641595595E9, 0.0, 2024-10-23 23:17:44.159
99.0, -42025.21348300141, -49706.97161042352, -17791.027461412843, -18518.509688199723, -8562.752135128037, -8511.834861258849, -187500.02235174447, -187500.02235174447, -0.202, 0.8160000000000001, 0.492, 192.0, 0.0, 0.0, 0.0, 0.0, 0.0, 0.0, 0.0, 0.0, 0.0, 1.7297056641631444E9, 0.0, 2024-10-23 23:17:44.163
100.0, -41926.91051088697, -49526.52597743583, -17768.094571601698, -18162.69226821569, -8546.211844231111, -8468.114849104268, -187500.02235174447, -187500.02235174447, -0.202, 0.8160000000000001, 0.492, 192.0, 0.0, 0.0, 0.0, 0.0, 0.0, 0.0, 0.0, 0.0, 0.0, 1.729705664165574E9, 0.0, 2024-10-23 23:17:44.165
101.0, -41844.90196048045, -49343.50989383578, -17758.550376719282, -17664.60599477363, -8547.441190176152, -8429.222813752034, -187500.02235174447, -187500.02235174447, -0.202, 0.8160000000000001, 0.492, 192.0, 0.0, 0.0, 0.0, 0.0, 0.0, 0.0, 0.0, 0.0, 0.0, 1.7297056641705847E9, 0.0, 2024-10-23 23:17:44.170
102.0, -41879.56951613063, -49384.48064142235, -17765.390010522606, -17671.82560823269, -8551.59861464484, -8436.040095810902, -187500.02235174447, -187500.02235174447, -0.202, 0.8160000000000001, 0.492, 192.0, 0.0, 0.0, 0.0, 0.0, 0.0, 0.0, 0.0, 0.0, 0.0, 1.7297056641745112E9, 0.0, 2024-10-23 23:17:44.174
103.0, -41999.62073560009, -49630.036906008354, -17789.596949767703, -18267.007859588608, -8554.616100146306, -8495.49573606202, -187500.02235174447, -187500.02235174447, -0.202, 0.8160000000000001, 0.492, 192.0, 0.0, 0.0, 0.0, 0.0, 0.0, 0.0, 0.0, 0.0, 0.0, 1.7297056641786797E9, 0.0, 2024-10-23 23:17:44.178
104.0, -42033.88595985007, -49711.911345948145, -17800.303435361795, -18543.454235011846, -8559.533483926474, -8519.032122973458, -187500.02235174447, -187500.02235174447, -0.202, 0.8160000000000001, 0.492, 192.0, 0.0, 0.0, 0.0, 0.0, 0.0, 0.0, 0.0, 0.0, 0.0, 1.7297056641826355E9, 0.0, 2024-10-23 23:17:44.182
105.0, -41944.92601691795, -49543.80387589978, -17789.9992811679, -18199.527943078036, -8559.846408348849, -8477.927264920148, -187500.02235174447, -187500.02235174447, -0.20400000000000001, 0.8140000000000001, 0.49, 192.0, 249.0, 160.0, 25.0, 112.0, 15.0, 80.0, 0.0, 0.0, 0.0, 1.7297056641875353E9, 0.0, 2024-10-23 23:17:44.187
106.0, -41863.051576978156, -49359.24552193231, -17785.752449721393, -17697.865390523122, -8563.042707805957, -8437.604717922773, -187500.02235174447, -187500.02235174447, -0.20400000000000001, 0.8140000000000001, 0.49, 192.0, 0.0, 0.0, 0.0, 0.0, 0.0, 0.0, 0.0, 0.0, 0.0, 1.729705664190556E9, 0.0, 2024-10-23 23:17:44.190
107.0, -41896.2886209832, -49398.40577821801, -17795.47545855945, -17692.612730576126, -8575.60438818984, -8446.120732560246, -187500.02235174447, -187500.02235174447, -0.20400000000000001, 0.8140000000000001, 0.49, 192.0, 0.0, 0.0, 0.0, 0.0, 0.0, 0.0, 0.0, 0.0, 0.0, 1.729705664193652E9, 0.0, 2024-10-23 23:17:44.193
108.0, -42011.64597411704, -49638.44116192355, -17815.413214613585, -18276.552054471023, -8570.93287359868, -8493.797003483416, -187500.02235174447, -187500.02235174447, -0.20400000000000001, 0.8140000000000001, 0.49, 192.0, 0.0, 0.0, 0.0, 0.0, 0.0, 0.0, 0.0, 0.0, 0.0, 1.7297056641986353E9, 0.0, 2024-10-23 23:17:44.198
109.0, -42049.48747747987, -49723.735418765005, -17832.08761597724, -18552.126711860503, -8572.832771877382, -8513.041855459434, -187500.02235174447, -187500.02235174447, -0.20400000000000001, 0.8140000000000001, 0.49, 192.0, 0.0, 0.0, 0.0, 0.0, 0.0, 0.0, 0.0, 0.0, 0.0, 1.7297056642027752E9, 0.0, 2024-10-23 23:17:44.202
110.0, -41942.51202851677, -49542.01573634335, -17808.48417383244, -18201.047861700998, -8551.911539067214, -8457.76599142146, -187500.02235174447, -187500.02235174447, -0.20400000000000001, 0.8140000000000001, 0.49, 192.0, 0.0, 0.0, 0.0, 0.0, 0.0, 0.0, 0.0, 0.0, 0.0, 1.7297056642065983E9, 0.0, 2024-10-23 23:17:44.206
111.0, -41848.09825993756, -49350.81891427266, -17795.47545855945, -17685.482524094885, -8543.641393618751, -8401.685464583095, -187500.02235174447, -187500.02235174447, -0.20400000000000001, 0.8140000000000001, 0.49, 192.0, 0.0, 0.0, 0.0, 0.0, 0.0, 0.0, 0.0, 0.0, 0.0, 1.7297056642105436E9, 0.0, 2024-10-23 23:17:44.210
112.0, -41883.07874001011, -49390.91794382548, -17808.52887732135, -17676.407715846028, -8551.978594300579, -8405.798185562871, -187500.02235174447, -187500.02235174447, -0.20400000000000001, 0.8140000000000001, 0.49, 192.0, 0.0, 0.0, 0.0, 0.0, 0.0, 0.0, 0.0, 0.0, 0.0, 1.7297056642145932E9, 0.0, 2024-10-23 23:17:44.214
113.0, -41996.446787887435, -49631.84739730923, -17826.47732811896, -18257.821292617475, -8545.54129189745, -8455.575520464841, -187500.02235174447, -187500.02235174447, -0.20400000000000001, 0.8140000000000001, 0.49, 192.0, 0.0, 0.0, 0.0, 0.0, 0.0, 0.0, 0.0, 0.0, 0.0, 1.7297056642186437E9, 0.0, 2024-10-23 23:17:44.218
114.0, -42027.80628535823, -49711.285497103396, -17830.970028754477, -18532.18895580637, -8538.276974949476, -8471.713479961572, -187500.02235174447, -187500.02235174447, -0.20400000000000001, 0.8140000000000001, 0.49, 192.0, 0.0, 0.0, 0.0, 0.0, 0.0, 0.0, 0.0, 0.0, 0.0, 1.7297056642229342E9, 0.0, 2024-10-23 23:17:44.222
115.0, -41930.643252211004, -49535.77959964032, -17808.506525576893, -18183.5911492814, -8528.017524244491, -8422.226717737522, -187500.02235174447, -187500.02235174447, -0.2, 0.808, 0.496, 192.0, 249.0, 192.0, 25.0, 64.0, 15.0, 128.0, 0.0, 0.0, 0.0, 1.7297056642266026E9, 0.0, 2024-10-23 23:17:44.226
116.0, -41851.942759983875, -49359.781963799236, -17801.443374329017, -17676.407715846028, -8533.270184191488, -8383.155868429645, -187500.02235174447, -187500.02235174447, -0.2, 0.808, 0.496, 192.0, 0.0, 0.0, 0.0, 0.0, 0.0, 0.0, 0.0, 0.0, 0.0, 1.7297056642316396E9, 0.0, 2024-10-23 23:17:44.231
117.0, -41887.97377204583, -49398.785757873746, -17805.37728135315, -17666.617651774606, -8543.93196629667, -8395.248162179967, -187500.02235174447, -187500.02235174447, -0.2, 0.808, 0.496, 192.0, 0.0, 0.0, 0.0, 0.0, 0.0, 0.0, 0.0, 0.0, 0.0, 1.7297056642346284E9, 0.0, 2024-10-23 23:17:44.234
118.0, -42002.12413097908, -49635.289565955354, -17815.10029019121, -18248.6570773908, -8544.64722211924, -8454.592043708806, -187500.02235174447, -187500.02235174447, -0.2, 0.808, 0.496, 192.0, 0.0, 0.0, 0.0, 0.0, 0.0, 0.0, 0.0, 0.0, 0.0, 1.7297056642386186E9, 0.0, 2024-10-23 23:17:44.238
119.0, -42032.65661390503, -49712.26897385943, -17810.607589555693, -18521.258952767726, -8538.634602860762, -8475.133296863234, -187500.02235174447, -187500.02235174447, -0.2, 0.808, 0.496, 192.0, 0.0, 0.0, 0.0, 0.0, 0.0, 0.0, 0.0, 0.0, 0.0, 1.7297056642427957E9, 0.0, 2024-10-23 23:17:44.242
120.0, -41929.615071966065, -49533.72323915044, -17774.75539144938, -18180.93129169122, -8532.979611513569, -8440.488092957508, -187500.02235174447, -187500.02235174447, -0.2, 0.808, 0.496, 192.0, 0.0, 0.0, 0.0, 0.0, 0.0, 0.0, 0.0, 0.0, 0.0, 1.729705664246756E9, 0.0, 2024-10-23 23:17:44.246
121.0, -41838.71052726633, -49345.588606070116, -17747.08393181371, -17670.417448332006, -8530.140939967745, -8404.61354310674, -187500.02235174447, -187500.02235174447, -0.2, 0.808, 0.496, 192.0, 0.0, 0.0, 0.0, 0.0, 0.0, 0.0, 0.0, 0.0, 0.0, 1.7297056642506492E9, 0.0, 2024-10-23 23:17:44.250
122.0, -41872.01462650474, -49379.406795430994, -17738.277344498318, -17656.73818072536, -8539.26045170551, -8420.505633414465, -187500.02235174447, -187500.02235174447, -0.2, 0.808, 0.496, 192.0, 0.0, 0.0, 0.0, 0.0, 0.0, 0.0, 0.0, 0.0, 0.0, 1.729705664254691E9, 0.0, 2024-10-23 23:17:44.254
123.0, -41995.21744194239, -49624.24780419443, -17744.535832945807, -18250.489920436135, -8554.034954790468, -8494.82518372836, -187500.02235174447, -187500.02235174447, -0.2, 0.808, 0.496, 192.0, 0.0, 0.0, 0.0, 0.0, 0.0, 0.0, 0.0, 0.0, 0.0, 1.7297056642596645E9, 0.0, 2024-10-23 23:17:44.259
124.0, -42034.332994739176, -49708.64799125767, -17734.857527596658, -18542.761330933732, -8558.617062403806, -8526.609364343807, -187500.02235174447, -187500.02235174447, -0.2, 0.808, 0.496, 192.0, 0.0, 0.0, 0.0, 0.0, 0.0, 0.0, 0.0, 0.0, 0.0, 1.729705664262825E9, 0.0, 2024-10-23 23:17:44.262
125.0, -41943.60726399509, -49538.6406229306, -17697.373652145106, -18211.396719383803, -8549.676364621684, -8486.53268653544, -187500.02235174447, -187500.02235174447, -0.194, 0.8160000000000001, 0.49, 192.0, 249.0, 240.0, 25.0, 128.0, 15.0, 80.0, 0.0, 0.0, 0.0, 1.7297056642657385E9, 0.0, 2024-10-23 23:17:44.265
126.0, -41863.29744616717, -49357.65854807598, -17678.151151913542, -17709.30948368424, -8555.510169924519, -8451.798075651894, -187500.02235174447, -187500.02235174447, -0.194, 0.8160000000000001, 0.49, 192.0, 0.0, 0.0, 0.0, 0.0, 0.0, 0.0, 0.0, 0.0, 0.0, 1.7297056642707317E9, 0.0, 2024-10-23 23:17:44.270
127.0, -41896.98152506132, -49395.097720038626, -17678.575835058193, -17699.161791701532, -8562.84154210586, -8462.705726946084, -187500.02235174447, -187500.02235174447, -0.194, 0.8160000000000001, 0.49, 192.0, 0.0, 0.0, 0.0, 0.0, 0.0, 0.0, 0.0, 0.0, 0.0, 1.7297056642747092E9, 0.0, 2024-10-23 23:17:44.274
128.0, -42018.28444222027, -49640.36341194671, -17704.973245259913, -18291.013633133607, -8576.297292267955, -8526.721123066083, -187500.02235174447, -187500.02235174447, -0.194, 0.8160000000000001, 0.49, 192.0, 0.0, 0.0, 0.0, 0.0, 0.0, 0.0, 0.0, 0.0, 0.0, 1.7297056642787735E9, 0.0, 2024-10-23 23:17:44.278
129.0, -42056.30475953875, -49729.74803802348, -17720.239486722887, -18585.38610761, -8581.304083025943, -8549.586957643862, -187500.02235174447, -187500.02235174447, -0.194, 0.8160000000000001, 0.49, 192.0, 0.0, 0.0, 0.0, 0.0, 0.0, 0.0, 0.0, 0.0, 0.0, 1.729705664282754E9, 0.0, 2024-10-23 23:17:44.282
130.0, -41965.71313926138, -49563.2498935759, -17706.31434992723, -18256.971926328173, -8575.112649811823, -8506.604553056306, -187500.02235174447, -187500.02235174447, -0.194, 0.8160000000000001, 0.49, 192.0, 0.0, 0.0, 0.0, 0.0, 0.0, 0.0, 0.0, 0.0, 0.0, 1.7297056642878597E9, 0.0, 2024-10-23 23:17:44.287
131.0, -41880.262420208746, -49376.0540337627, -17698.98297774589, -17744.0887980567, -8570.284673009477, -8459.934110633625, -187500.02235174447, -187500.02235174447, -0.194, 0.8160000000000001, 0.49, 192.0, 0.0, 0.0, 0.0, 0.0, 0.0, 0.0, 0.0, 0.0, 0.0, 1.7297056642907386E9, 0.0, 2024-10-23 23:17:44.290
132.0, -41908.64913566699, -49403.52432769827, -17706.64962609406, -17718.69721635547, -8575.403222489742, -8463.085706601823, -187500.02235174447, -187500.02235174447, -0.194, 0.8160000000000001, 0.49, 192.0, 0.0, 0.0, 0.0, 0.0, 0.0, 0.0, 0.0, 0.0, 0.0, 1.72970566429378E9, 0.0, 2024-10-23 23:17:44.293
