%OpenBCI Raw EXG Data
%Number of channels = 8
%Sample Rate = 250 Hz
%Board = OpenBCI_GUI$BoardCytonSerial
Sample Index, EXG Channel 0, EXG Channel 1, EXG Channel 2, EXG Channel 3, EXG Channel 4, EXG Channel 5, EXG Channel 6, EXG Channel 7, Accel Channel 0, Accel Channel 1, Accel Channel 2, Other, Other, Other, Other, Other, Other, Other, Analog Channel 0, Analog Channel 1, Analog Channel 2, Timestamp, Other, Timestamp (Formatted)
0.0, 0.0, 0.0, 0.0, 0.0, 0.0, 0.0, 0.0, 0.0, 0.11, 0.976, 0.082, 192.0, 3.0, 112.0, 30.0, 128.0, 2.0, 144.0, 0.0, 0.0, 0.0, 1.7297115130266557E9, 0.0, 2024-10-24 00:55:13.026
1.0, -44208.53188139581, -45289.48459499891, -38651.977616784294, -50567.044385319285, -51043.65063233979, -42107.13262643011, 50151.30193845057, 73688.3370504781, 0.11, 0.976, 0.082, 192.0, 0.0, 0.0, 0.0, 0.0, 0.0, 0.0, 0.0, 0.0, 0.0, 1.729711513044675E9, 0.0, 2024-10-24 00:55:13.044
2.0, -44202.20633771495, -45287.562344975755, -38657.140869753464, -50575.26982727883, -51057.95574879119, -42124.67874582753, 50225.688543997836, 73745.42340581697, 0.11, 0.976, 0.082, 192.0, 0.0, 0.0, 0.0, 0.0, 0.0, 0.0, 0.0, 0.0, 0.0, 1.7297115130476277E9, 0.0, 2024-10-24 00:55:13.047
3.0, -44217.71844836693, -45305.041409139805, -38671.490689693775, -50593.598257732185, -51072.77495536506, -42149.757403106385, 50380.183801672916, 73901.25976815936, 0.11, 0.976, 0.082, 192.0, 0.0, 0.0, 0.0, 0.0, 0.0, 0.0, 0.0, 0.0, 0.0, 1.7297115130507777E9, 0.0, 2024-10-24 00:55:13.050
4.0, -44236.35980324266, -45316.86548195666, -38674.66463740643, -50594.380568788125, -51065.10830701689, -42148.81862983926, 50447.73077341685, 73976.85336790721, 0.11, 0.976, 0.082, 192.0, 0.0, 0.0, 0.0, 0.0, 0.0, 0.0, 0.0, 0.0, 0.0, 1.7297115130537713E9, 0.0, 2024-10-24 00:55:13.053
5.0, -44227.15088452708, -45297.33005730272, -38654.41395692992, -50568.34078649769, -51041.3484026609, -42111.155940432065, 50291.33561746307, 73808.94706355895, 0.11, 0.976, 0.082, 192.0, 0.0, 0.0, 0.0, 0.0, 0.0, 0.0, 0.0, 0.0, 0.0, 1.729711513057616E9, 0.0, 2024-10-24 00:55:13.057
6.0, -44214.20922448745, -45282.22027805093, -38642.85810504653, -50558.237798003895, -51027.19974842069, -42104.182196162015, 50165.607054901964, 73659.61505885304, 0.11, 0.976, 0.082, 192.0, 0.0, 0.0, 0.0, 0.0, 0.0, 0.0, 0.0, 0.0, 0.0, 1.7297115130616071E9, 0.0, 2024-10-24 00:55:13.061
7.0, -44213.91865180954, -45287.67410369803, -38655.88917206397, -50576.81209764625, -51047.38337366383, -42128.009155751366, 50229.376581832956, 73704.13973380801, 0.11, 0.976, 0.082, 192.0, 0.0, 0.0, 0.0, 0.0, 0.0, 0.0, 0.0, 0.0, 0.0, 1.7297115130648427E9, 0.0, 2024-10-24 00:55:13.064
8.0, -44232.358840985165, -45306.47192078494, -38675.64811416246, -50599.70028396849, -51074.07135654347, -42150.8973420736, 50385.10118545308, 73859.90904091705, 0.106, 0.972, 0.09, 192.0, 3.0, 80.0, 30.0, 96.0, 2.0, 208.0, 0.0, 0.0, 0.0, 1.7297115130697773E9, 0.0, 2024-10-24 00:55:13.069
9.0, -44254.82234416275, -45322.788694237315, -38686.153434056454, -50605.48938578241, -51075.61362691088, -42150.85263858469, 50432.5539389317, 73916.63776834462, 0.106, 0.972, 0.09, 192.0, 0.0, 0.0, 0.0, 0.0, 0.0, 0.0, 0.0, 0.0, 0.0, 1.7297115130737796E9, 0.0, 2024-10-24 00:55:13.073
10.0, -44246.70866092547, -45310.71875223145, -38668.13792802548, -50589.95492338597, -51060.05681276999, -42131.33956567521, 50281.72436734729, 73754.29704836573, 0.106, 0.972, 0.09, 192.0, 0.0, 0.0, 0.0, 0.0, 0.0, 0.0, 0.0, 0.0, 0.0, 1.7297115130777705E9, 0.0, 2024-10-24 00:55:13.077
11.0, -44233.52113169684, -45298.51469975885, -38651.24000921727, -50581.01422560385, -51035.715763058164, -42118.643774824595, 50169.65272064838, 73617.50437229924, 0.106, 0.972, 0.09, 192.0, 0.0, 0.0, 0.0, 0.0, 0.0, 0.0, 0.0, 0.0, 0.0, 1.7297115130816967E9, 0.0, 2024-10-24 00:55:13.081
12.0, -44229.72133513944, -45300.48165327092, -38659.800727343645, -50594.46997576595, -51053.08306849993, -42134.13353373212, 50253.40470712241, 73683.39731495349, 0.106, 0.972, 0.09, 192.0, 0.0, 0.0, 0.0, 0.0, 0.0, 0.0, 0.0, 0.0, 0.0, 1.7297115130856714E9, 0.0, 2024-10-24 00:55:13.085
13.0, -44238.75143989938, -45307.902432430084, -38672.47416644981, -50610.92085968505, -51067.812868095985, -42153.42308919705, 50404.7483688293, 73837.26672378382, 0.106, 0.972, 0.09, 192.0, 0.0, 0.0, 0.0, 0.0, 0.0, 0.0, 0.0, 0.0, 0.0, 1.729711513088774E9, 0.0, 2024-10-24 00:55:13.088
14.0, -44257.97394013094, -45320.88879595861, -38680.38668398699, -50618.90043245559, -51074.69720538822, -42160.799164867305, 50454.57040722018, 73897.48232334643, 0.106, 0.972, 0.09, 192.0, 0.0, 0.0, 0.0, 0.0, 0.0, 0.0, 0.0, 0.0, 0.0, 1.7297115130947447E9, 0.0, 2024-10-24 00:55:13.094
15.0, -44257.57160873075, -45316.083170900725, -38671.66950364942, -50609.6468102511, -51065.287120972534, -42152.52901941884, 50319.364705010026, 73753.04535067623, 0.106, 0.972, 0.09, 192.0, 0.0, 0.0, 0.0, 0.0, 0.0, 0.0, 0.0, 0.0, 0.0, 1.7297115130977755E9, 0.0, 2024-10-24 00:55:13.097
16.0, -44239.46669572195, -45301.599240493684, -38657.02911103119, -50595.565211244255, -51058.4027836803, -42136.77103957785, 50201.347494286005, 73609.41304080642, 0.106, 0.972, 0.09, 192.0, 0.0, 0.0, 0.0, 0.0, 0.0, 0.0, 0.0, 0.0, 0.0, 1.729711513102756E9, 0.0, 2024-10-24 00:55:13.102
17.0, -44223.887529836604, -45294.73725494591, -38654.74923309675, -50594.96171414396, -51062.58255989344, -42131.27251044184, 50262.725384560275, 73650.24967792627, 0.106, 0.972, 0.09, 192.0, 0.0, 0.0, 0.0, 0.0, 0.0, 0.0, 0.0, 0.0, 0.0, 1.7297115131057162E9, 0.0, 2024-10-24 00:55:13.105
18.0, -44235.689250909, -45305.75666496238, -38669.76960537072, -50611.77022597435, -51078.34053973443, -42155.3006357313, 50416.97477304635, 73805.10256351264, 0.106, 0.972, 0.1, 192.0, 3.0, 80.0, 30.0, 96.0, 3.0, 32.0, 0.0, 0.0, 0.0, 1.7297115131097293E9, 0.0, 2024-10-24 00:55:13.109
19.0, -44252.81068716177, -45314.67501100004, -38676.452776962855, -50616.77701673234, -51085.94013284924, -42166.36474923667, 50478.4644220429, 73873.02951491231, 0.106, 0.972, 0.1, 192.0, 0.0, 0.0, 0.0, 0.0, 0.0, 0.0, 0.0, 0.0, 0.0, 1.7297115131127455E9, 0.0, 2024-10-24 00:55:13.112
20.0, -44246.35103301419, -45301.6439439826, -38655.53154415268, -50594.4923275104, -51052.211350466176, -42134.0441267543, 50332.14990283846, 73713.03572810123, 0.106, 0.972, 0.1, 192.0, 0.0, 0.0, 0.0, 0.0, 0.0, 0.0, 0.0, 0.0, 0.0, 1.7297115131167245E9, 0.0, 2024-10-24 00:55:13.116
21.0, -44235.488085208905, -45290.37866477712, -38642.56753236861, -50580.05310059227, -51040.2978706715, -42113.05583871077, 50201.07927335254, 73554.9641913133, 0.106, 0.972, 0.1, 192.0, 0.0, 0.0, 0.0, 0.0, 0.0, 0.0, 0.0, 0.0, 0.0, 1.7297115131207473E9, 0.0, 2024-10-24 00:55:13.120
22.0, -44219.774808856826, -45282.06381583975, -38639.99708175625, -50580.90246688158, -51045.32701317394, -42126.71275457296, 50277.34342543405, 73609.79302046217, 0.106, 0.972, 0.1, 192.0, 0.0, 0.0, 0.0, 0.0, 0.0, 0.0, 0.0, 0.0, 0.0, 1.729711513125712E9, 0.0, 2024-10-24 00:55:13.125
23.0, -44229.9895560729, -45292.14445258909, -38655.55389589714, -50595.02876937733, -51073.892542587826, -42147.27635947184, 50430.654040653, 73763.30480138121, 0.106, 0.972, 0.1, 192.0, 0.0, 0.0, 0.0, 0.0, 0.0, 0.0, 0.0, 0.0, 0.0, 1.7297115131298392E9, 0.0, 2024-10-24 00:55:13.129
24.0, -44256.31991104125, -45311.16578712056, -38673.74821588376, -50605.265868337854, -51092.80211839701, -42154.16069676408, 50493.015407683306, 73832.05876732574, 0.106, 0.972, 0.1, 192.0, 0.0, 0.0, 0.0, 0.0, 0.0, 0.0, 0.0, 0.0, 0.0, 1.729711513133744E9, 0.0, 2024-10-24 00:55:13.133
25.0, -44245.09933532469, -45294.37962703462, -38647.21669521531, -50582.33297852671, -51045.95286201869, -42124.61169059416, 50336.77671394071, 73661.64906759848, 0.106, 0.972, 0.1, 192.0, 0.0, 0.0, 0.0, 0.0, 0.0, 0.0, 0.0, 0.0, 0.0, 1.7297115131378472E9, 0.0, 2024-10-24 00:55:13.137
26.0, -44227.77673337182, -45273.27958026881, -38624.999061226736, -50561.34469048318, -51019.689562283704, -42103.936326973, 50176.26883700715, 73474.96729790774, 0.106, 0.972, 0.1, 192.0, 0.0, 0.0, 0.0, 0.0, 0.0, 0.0, 0.0, 0.0, 0.0, 1.7297115131408744E9, 0.0, 2024-10-24 00:55:13.140
27.0, -44222.36761121364, -45278.0852053267, -38633.17979969738, -50571.58178944371, -51041.70603057218, -42115.13455094511, 50243.94991921782, 73524.67757757635, 0.106, 0.972, 0.1, 192.0, 0.0, 0.0, 0.0, 0.0, 0.0, 0.0, 0.0, 0.0, 0.0, 1.7297115131447396E9, 0.0, 2024-10-24 00:55:13.144
28.0, -44236.38215498712, -45297.687685214005, -38654.123384252, -50592.86065016516, -51069.37749020785, -42139.34149019021, 50399.607467604576, 73684.53725392072, 0.10400000000000001, 0.974, 0.10200000000000001, 192.0, 3.0, 64.0, 30.0, 112.0, 3.0, 48.0, 0.0, 0.0, 0.0, 1.729711513148913E9, 0.0, 2024-10-24 00:55:13.148
29.0, -44259.06917560926, -45318.85478721318, -38668.31674198112, -50606.00347590488, -51077.40176646731, -42152.97605430795, 50452.536398474746, 73747.21154537339, 0.10400000000000001, 0.974, 0.10200000000000001, 192.0, 0.0, 0.0, 0.0, 0.0, 0.0, 0.0, 0.0, 0.0, 0.0, 1.7297115131528916E9, 0.0, 2024-10-24 00:55:13.152
30.0, -44253.01185286187, -45309.91408943106, -38654.48101216328, -50595.58756298871, -51058.55924589148, -42142.560141391776, 50298.443472199855, 73582.85916839352, 0.10400000000000001, 0.974, 0.10200000000000001, 192.0, 0.0, 0.0, 0.0, 0.0, 0.0, 0.0, 0.0, 0.0, 0.0, 1.7297115131577635E9, 0.0, 2024-10-24 00:55:13.157
31.0, -44240.56193120026, -45297.8888509141, -38643.14867772444, -50585.998664617386, -51042.04130673901, -42126.824513295236, 50163.99772930118, 73423.80415484955, 0.10400000000000001, 0.974, 0.10200000000000001, 192.0, 0.0, 0.0, 0.0, 0.0, 0.0, 0.0, 0.0, 0.0, 0.0, 1.7297115131617432E9, 0.0, 2024-10-24 00:55:13.161
32.0, -44230.50364619537, -45299.47582477043, -38653.4751836628, -50595.38639728861, -51062.80607733799, -42136.614577366665, 50245.536893074146, 73484.55619627908, 0.10400000000000001, 0.974, 0.10200000000000001, 192.0, 0.0, 0.0, 0.0, 0.0, 0.0, 0.0, 0.0, 0.0, 0.0, 1.7297115131658201E9, 0.0, 2024-10-24 00:55:13.165
33.0, -44241.165428300556, -45314.272679599846, -38672.34005598308, -50614.787711475816, -51079.63694091284, -42153.49014443042, 50392.36550240106, 73635.09519518557, 0.10400000000000001, 0.974, 0.10200000000000001, 192.0, 0.0, 0.0, 0.0, 0.0, 0.0, 0.0, 0.0, 0.0, 0.0, 1.7297115131687877E9, 0.0, 2024-10-24 00:55:13.168
34.0, -44260.23146632093, -45327.81783673976, -38684.767625900226, -50626.63413603713, -51089.98579859565, -42169.51634520487, 50437.51602620078, 73692.40506796898, 0.10400000000000001, 0.974, 0.10200000000000001, 192.0, 0.0, 0.0, 0.0, 0.0, 0.0, 0.0, 0.0, 0.0, 0.0, 1.7297115131727896E9, 0.0, 2024-10-24 00:55:13.172
35.0, -44242.79710564579, -45309.73527547542, -38662.48293667829, -50604.77412995984, -51057.88869355783, -42141.42020242455, 50288.69811161734, 73533.12653698046, 0.10400000000000001, 0.974, 0.10200000000000001, 192.0, 0.0, 0.0, 0.0, 0.0, 0.0, 0.0, 0.0, 0.0, 0.0, 1.7297115131768591E9, 0.0, 2024-10-24 00:55:13.176
36.0, -44207.12372149512, -45297.66533346955, -38647.440212659865, -50595.498156010886, -51042.66715558376, -42130.020812752344, 50162.187238000304, 73380.35236362844, 0.10400000000000001, 0.974, 0.10200000000000001, 192.0, 0.0, 0.0, 0.0, 0.0, 0.0, 0.0, 0.0, 0.0, 0.0, 1.7297115131809363E9, 0.0, 2024-10-24 00:55:13.180
37.0, -44196.640753345586, -45303.58854575021, -38660.51598316622, -50609.53505152882, -51064.951844805706, -42149.332719961734, 50230.427113822356, 73426.55341941756, 0.10400000000000001, 0.974, 0.10200000000000001, 192.0, 0.0, 0.0, 0.0, 0.0, 0.0, 0.0, 0.0, 0.0, 0.0, 1.7297115131859324E9, 0.0, 2024-10-24 00:55:13.185
38.0, -44204.30740169375, -45317.625441268145, -38673.792919372674, -50622.81198773527, -51078.139374034334, -42158.34047297722, 50382.15075518498, 73579.14877881393, 0.10400000000000001, 0.972, 0.108, 192.0, 3.0, 64.0, 30.0, 96.0, 3.0, 96.0, 0.0, 0.0, 0.0, 1.7297115131898282E9, 0.0, 2024-10-24 00:55:13.189
39.0, -44218.724276867426, -45324.956813449484, -38680.40903573144, -50623.12491215765, -51077.96056007869, -42159.72628113345, 50440.17588379096, 73645.26523891273, 0.10400000000000001, 0.972, 0.108, 192.0, 0.0, 0.0, 0.0, 0.0, 0.0, 0.0, 0.0, 0.0, 0.0, 1.7297115131958263E9, 0.0, 2024-10-24 00:55:13.195
40.0, -44200.261735947344, -45298.96173464796, -38654.436308674376, -50593.30768505427, -51048.14333297531, -42128.88087378513, 50258.65736706941, 73454.0907685865, 0.10400000000000001, 0.972, 0.108, 192.0, 0.0, 0.0, 0.0, 0.0, 0.0, 0.0, 0.0, 0.0, 0.0, 1.7297115131988986E9, 0.0, 2024-10-24 00:55:13.198
41.0, -44192.39392189907, -45286.66827519754, -38655.41978543041, -50581.88594363761, -51055.4523534122, -42120.67778357003, 50140.08136273401, 73312.13483955084, 0.10400000000000001, 0.972, 0.108, 192.0, 0.0, 0.0, 0.0, 0.0, 0.0, 0.0, 0.0, 0.0, 0.0, 1.7297115132019696E9, 0.0, 2024-10-24 00:55:13.201
42.0, -44189.17527069751, -45283.04729259578, -38670.507212937744, -50587.07154835124, -51074.49603968812, -42132.837132553715, 50213.305677569595, 73365.73432275467, 0.10400000000000001, 0.972, 0.108, 192.0, 0.0, 0.0, 0.0, 0.0, 0.0, 0.0, 0.0, 0.0, 0.0, 1.7297115132049642E9, 0.0, 2024-10-24 00:55:13.204
43.0, -44201.80400631476, -45293.73142644542, -38687.3827800015, -50598.850917679185, -51081.96152233619, -42150.62912114014, 50382.08369995162, 73534.64645560342, 0.10400000000000001, 0.972, 0.108, 192.0, 0.0, 0.0, 0.0, 0.0, 0.0, 0.0, 0.0, 0.0, 0.0, 1.729711513208904E9, 0.0, 2024-10-24 00:55:13.208
44.0, -44208.0848465067, -45294.2902200568, -38686.42165498992, -50587.876211151626, -51071.523257675566, -42137.26277795587, 50426.943651073416, 73588.6706219519, 0.10400000000000001, 0.972, 0.108, 192.0, 0.0, 0.0, 0.0, 0.0, 0.0, 0.0, 0.0, 0.0, 0.0, 1.7297115132138932E9, 0.0, 2024-10-24 00:55:13.213
45.0, -44197.75834056835, -45278.755757660365, -38667.40032045845, -50564.026899817814, -51046.422248652256, -42108.40667586406, 50259.864361269996, 73411.9800820327, 0.10400000000000001, 0.972, 0.108, 192.0, 0.0, 0.0, 0.0, 0.0, 0.0, 0.0, 0.0, 0.0, 0.0, 1.729711513218999E9, 0.0, 2024-10-24 00:55:13.218
46.0, -44184.950790995455, -45269.01039707785, -38656.515020908715, -50554.19213225748, -51041.370754405354, -42101.94702171648, 50142.92003427983, 73269.82298729694, 0.10400000000000001, 0.972, 0.108, 192.0, 0.0, 0.0, 0.0, 0.0, 0.0, 0.0, 0.0, 0.0, 0.0, 1.7297115132229621E9, 0.0, 2024-10-24 00:55:13.222
47.0, -44180.56984908222, -45277.571115204235, -38666.997989058254, -50570.10657430966, -51069.31043497449, -42125.706926072475, 50222.49224454072, 73328.20574381421, 0.10400000000000001, 0.972, 0.108, 192.0, 0.0, 0.0, 0.0, 0.0, 0.0, 0.0, 0.0, 0.0, 0.0, 1.7297115132269845E9, 0.0, 2024-10-24 00:55:13.226
48.0, -44190.69518932047, -45295.22899332392, -38682.398340987966, -50585.573981472735, -51086.34246424943, -42134.28999594331, 50386.822269776145, 73494.7485917507, 0.10200000000000001, 0.966, 0.106, 192.0, 3.0, 48.0, 30.0, 48.0, 3.0, 80.0, 0.0, 0.0, 0.0, 1.7297115132299197E9, 0.0, 2024-10-24 00:55:13.229
49.0, -44205.916727294534, -45311.322249331744, -38685.0805503226, -50593.195926331995, -51074.227818754654, -42141.86723731366, 50440.46645646888, 73559.68040939336, 0.10200000000000001, 0.966, 0.106, 192.0, 0.0, 0.0, 0.0, 0.0, 0.0, 0.0, 0.0, 0.0, 0.0, 1.7297115132328715E9, 0.0, 2024-10-24 00:55:13.232
50.0, -44200.686419091995, -45299.07349337024, -38667.646189647465, -50576.29800752378, -51058.73805984713, -42119.31432715825, 50279.39978592394, 73387.72843929869, 0.10200000000000001, 0.966, 0.106, 192.0, 0.0, 0.0, 0.0, 0.0, 0.0, 0.0, 0.0, 0.0, 0.0, 1.7297115132368946E9, 0.0, 2024-10-24 00:55:13.236
51.0, -44191.00811374284, -45286.13183333061, -38657.65495987594, -50567.37966148611, -51049.3503271759, -42111.82649276573, 50150.094944249984, 73230.14864088877, 0.10200000000000001, 0.966, 0.106, 192.0, 0.0, 0.0, 0.0, 0.0, 0.0, 0.0, 0.0, 0.0, 0.0, 1.7297115132410314E9, 0.0, 2024-10-24 00:55:13.241
52.0, -44182.53680259428, -45285.394225763586, -38662.79586110066, -50576.7897459018, -51056.63699586833, -42123.62821383813, 50233.80222723511, 73289.2466532286, 0.10200000000000001, 0.966, 0.106, 192.0, 0.0, 0.0, 0.0, 0.0, 0.0, 0.0, 0.0, 0.0, 0.0, 1.729711513246033E9, 0.0, 2024-10-24 00:55:13.246
53.0, -44200.2840876918, -45305.331981817726, -38685.79580614517, -50597.934496156515, -51084.86724911538, -42143.610673381176, 50387.246952920796, 73444.30070451507, 0.10200000000000001, 0.966, 0.106, 192.0, 0.0, 0.0, 0.0, 0.0, 0.0, 0.0, 0.0, 0.0, 0.0, 1.729711513249913E9, 0.0, 2024-10-24 00:55:13.249
54.0, -44217.673744878026, -45317.96071743497, -38689.439140491384, -50602.136624114115, -51073.42315595426, -42146.047013526804, 50422.42859869345, 73488.60186202549, 0.10200000000000001, 0.966, 0.106, 192.0, 0.0, 0.0, 0.0, 0.0, 0.0, 0.0, 0.0, 0.0, 0.0, 1.7297115132529132E9, 0.0, 2024-10-24 00:55:13.252
55.0, -44212.80106458677, -45310.33877257571, -38674.57523042861, -50590.84899316418, -51049.61854810936, -42130.78077206383, 50272.22487595378, 73325.83645890195, 0.10200000000000001, 0.966, 0.106, 192.0, 0.0, 0.0, 0.0, 0.0, 0.0, 0.0, 0.0, 0.0, 0.0, 1.7297115132569618E9, 0.0, 2024-10-24 00:55:13.256
56.0, -44197.378360912604, -45296.74891194689, -38664.204021001344, -50580.70130118148, -51040.7002020717, -42122.33181265972, 50144.39524941388, 73170.84946284884, 0.10200000000000001, 0.966, 0.106, 192.0, 0.0, 0.0, 0.0, 0.0, 0.0, 0.0, 0.0, 0.0, 0.0, 1.7297115132609997E9, 0.0, 2024-10-24 00:55:13.260
57.0, -44187.83416603019, -45292.21150782246, -38668.16027976993, -50586.78097567332, -51050.35615567639, -42132.703022086986, 50191.89270638141, 73197.89507363977, 0.10200000000000001, 0.966, 0.106, 192.0, 0.0, 0.0, 0.0, 0.0, 0.0, 0.0, 0.0, 0.0, 0.0, 1.7297115132650182E9, 0.0, 2024-10-24 00:55:13.265
58.0, -44202.005172014855, -45312.70805748797, -38692.30016378166, -50610.0938451402, -51087.12477530537, -42153.53484791933, 50343.63869948849, 73350.35632256941, 0.1, 0.968, 0.1, 192.0, 3.0, 32.0, 30.0, 64.0, 3.0, 32.0, 0.0, 0.0, 0.0, 1.7297115132701416E9, 0.0, 2024-10-24 00:55:13.270
59.0, -44221.83116934671, -45328.28722337332, -38702.47020750883, -50617.46992081046, -51087.68356891675, -42158.49693518841, 50404.9495345294, 73420.09376526996, 0.1, 0.968, 0.1, 192.0, 0.0, 0.0, 0.0, 0.0, 0.0, 0.0, 0.0, 0.0, 0.0, 1.7297115132741675E9, 0.0, 2024-10-24 00:55:13.274
60.0, -44210.543538396785, -45314.42914181103, -38684.074721822115, -50600.77316770234, -51066.270597728566, -42141.844885569204, 50257.71859380229, 73261.93282150422, 0.1, 0.968, 0.1, 192.0, 0.0, 0.0, 0.0, 0.0, 0.0, 0.0, 0.0, 0.0, 0.0, 1.7297115132781644E9, 0.0, 2024-10-24 00:55:13.278
61.0, -44199.81470105823, -45300.34754280419, -38675.379893229, -50588.14443208509, -51058.6039493804, -42125.01402199436, 50141.087191234496, 73119.61926455727, 0.1, 0.968, 0.1, 192.0, 0.0, 0.0, 0.0, 0.0, 0.0, 0.0, 0.0, 0.0, 0.0, 1.729711513280944E9, 0.0, 2024-10-24 00:55:13.280
62.0, -44192.10334922116, -45297.79944393629, -38682.666561921425, -50597.040426378306, -51078.96638857918, -42142.00134778039, 50213.77506420315, 73170.24596574855, 0.1, 0.968, 0.1, 192.0, 0.0, 0.0, 0.0, 0.0, 0.0, 0.0, 0.0, 0.0, 0.0, 1.7297115132849276E9, 0.0, 2024-10-24 00:55:13.284
63.0, -44201.28991619228, -45309.645868497595, -38698.15632082896, -50611.72552248544, -51092.64565618583, -42163.70489164649, 50359.910769451955, 73318.01334834259, 0.1, 0.968, 0.1, 192.0, 0.0, 0.0, 0.0, 0.0, 0.0, 0.0, 0.0, 0.0, 0.0, 1.7297115132890437E9, 0.0, 2024-10-24 00:55:13.289
64.0, -44223.17227401403, -45322.60988028168, -38706.38176278851, -50614.02775216434, -51092.198621296724, -42159.72628113345, 50421.71334287088, 73389.85185502195, 0.1, 0.968, 0.1, 192.0, 0.0, 0.0, 0.0, 0.0, 0.0, 0.0, 0.0, 0.0, 0.0, 1.729711513294926E9, 0.0, 2024-10-24 00:55:13.294
65.0, -44212.644602375585, -45305.42138879554, -38685.86286137853, -50590.0890338527, -51062.09082151543, -42133.08300174272, 50258.90323625842, 73217.34109131589, 0.1, 0.968, 0.1, 192.0, 0.0, 0.0, 0.0, 0.0, 0.0, 0.0, 0.0, 0.0, 0.0, 1.7297115132989378E9, 0.0, 2024-10-24 00:55:13.298
66.0, -44196.9313260235, -45288.36700777614, -38674.66463740643, -50574.44281273399, -51049.9985277651, -42121.3930393926, 50114.086283932484, 73046.0373218104, 0.1, 0.968, 0.1, 192.0, 0.0, 0.0, 0.0, 0.0, 0.0, 0.0, 0.0, 0.0, 0.0, 1.729711513302061E9, 0.0, 2024-10-24 00:55:13.302
67.0, -44196.417235901026, -45293.28439155631, -38688.545070713175, -50587.63034196262, -51073.177286765254, -42135.7428593329, 50209.37177054546, 73120.91566573568, 0.1, 0.968, 0.1, 192.0, 0.0, 0.0, 0.0, 0.0, 0.0, 0.0, 0.0, 0.0, 0.0, 1.729711513305948E9, 0.0, 2024-10-24 00:55:13.305
68.0, -44208.46482616244, -45302.4933102719, -38706.56057674415, -50597.28629556731, -51095.66314168729, -42148.72922286144, 50354.74751648278, 73268.37012390734, 0.10400000000000001, 0.974, 0.098, 192.0, 3.0, 64.0, 30.0, 112.0, 3.0, 16.0, 0.0, 0.0, 0.0, 1.7297115133100324E9, 0.0, 2024-10-24 00:55:13.310
69.0, -44226.681497893514, -45312.77511272134, -38715.322460570635, -50597.75568220088, -51093.740891664136, -42148.32689146124, 50381.72607204033, 73304.91522609178, 0.10400000000000001, 0.974, 0.098, 192.0, 0.0, 0.0, 0.0, 0.0, 0.0, 0.0, 0.0, 0.0, 0.0, 1.7297115133130252E9, 0.0, 2024-10-24 00:55:13.313
70.0, -44223.84282634769, -45303.05210388328, -38706.582928488606, -50583.67408319403, -51084.62137992637, -42128.09856272919, 50219.47475903926, 73131.33157865187, 0.10400000000000001, 0.974, 0.098, 192.0, 0.0, 0.0, 0.0, 0.0, 0.0, 0.0, 0.0, 0.0, 0.0, 1.7297115133170247E9, 0.0, 2024-10-24 00:55:13.317
71.0, -44208.934212796004, -45292.3903217781, -38695.63057370551, -50574.33105401171, -51058.87217031386, -42121.48244637042, 50086.571286508, 72972.45537906354, 0.10400000000000001, 0.974, 0.098, 192.0, 0.0, 0.0, 0.0, 0.0, 0.0, 0.0, 0.0, 0.0, 0.0, 1.7297115133211408E9, 0.0, 2024-10-24 00:55:13.321
72.0, -44199.479424891404, -45293.32909504522, -38700.61501271904, -50583.13764132711, -51060.5038476591, -42136.48046689993, 50153.15713324036, 73020.13164998671, 0.10400000000000001, 0.974, 0.098, 192.0, 0.0, 0.0, 0.0, 0.0, 0.0, 0.0, 0.0, 0.0, 0.0, 1.729711513325056E9, 0.0, 2024-10-24 00:55:13.325
73.0, -44205.40263717206, -45313.75858947737, -38718.116428627545, -50604.5953160042, -51084.44256597073, -42156.41822295407, 50306.490100203766, 73174.82807336189, 0.10400000000000001, 0.974, 0.098, 192.0, 0.0, 0.0, 0.0, 0.0, 0.0, 0.0, 0.0, 0.0, 0.0, 1.729711513329264E9, 0.0, 2024-10-24 00:55:13.329
74.0, -44211.8846430641, -45324.28626111583, -38720.61982400654, -50607.366932316654, -51079.2569612571, -42151.97022580746, 50346.477371034314, 73222.95137917416, 0.10400000000000001, 0.974, 0.098, 192.0, 0.0, 0.0, 0.0, 0.0, 0.0, 0.0, 0.0, 0.0, 0.0, 1.7297115133340733E9, 0.0, 2024-10-24 00:55:13.334
75.0, -44207.32488719522, -45316.32904008973, -38708.97456514533, -50596.83926067821, -51063.99071979412, -42137.665109356065, 50214.28915432563, 73078.2014820816, 0.10400000000000001, 0.974, 0.098, 192.0, 0.0, 0.0, 0.0, 0.0, 0.0, 0.0, 0.0, 0.0, 0.0, 1.7297115133370924E9, 0.0, 2024-10-24 00:55:13.337
76.0, -44199.85940454715, -45310.65169699809, -38703.40898077595, -50591.7430629424, -51056.21231272368, -42121.72831555943, 50074.07666135748, 72912.41859345658, 0.10400000000000001, 0.974, 0.098, 192.0, 0.0, 0.0, 0.0, 0.0, 0.0, 0.0, 0.0, 0.0, 0.0, 1.729711513341025E9, 0.0, 2024-10-24 00:55:13.341
77.0, -44186.51541310733, -45307.81302545226, -38706.717038955336, -50595.5428594998, -51065.1530105058, -42115.849806767685, 50124.993935226674, 72943.19694557154, 0.10400000000000001, 0.974, 0.098, 192.0, 0.0, 0.0, 0.0, 0.0, 0.0, 0.0, 0.0, 0.0, 0.0, 1.7297115133450768E9, 0.0, 2024-10-24 00:55:13.345
78.0, -44196.417235901026, -45325.91793846106, -38723.637309508005, -50615.86059520967, -51082.36385373639, -42141.375498935646, 50281.94788479184, 73103.86128471629, 0.10200000000000001, 0.974, 0.1, 192.0, 3.0, 48.0, 30.0, 112.0, 3.0, 32.0, 0.0, 0.0, 0.0, 1.7297115133490756E9, 0.0, 2024-10-24 00:55:13.349
79.0, -44217.69609662248, -45341.16182817958, -38733.38267009052, -50622.56611854627, -51080.41925196878, -42147.70104261649, 50328.41716151442, 73160.81352958841, 0.10200000000000001, 0.974, 0.1, 192.0, 0.0, 0.0, 0.0, 0.0, 0.0, 0.0, 0.0, 0.0, 0.0, 1.7297115133531468E9, 0.0, 2024-10-24 00:55:13.353
80.0, -44221.69705887998, -45335.81976125476, -38728.733507243815, -50611.569060274254, -51068.237551240636, -42132.30069068679, 50187.020026090155, 73008.44168763659, 0.10200000000000001, 0.974, 0.1, 192.0, 0.0, 0.0, 0.0, 0.0, 0.0, 0.0, 0.0, 0.0, 0.0, 1.7297115133581812E9, 0.0, 2024-10-24 00:55:13.358
81.0, -44206.74374183938, -45321.08996165871, -38714.80837044816, -50601.019036891346, -51055.87703655685, -42125.95279526148, 50063.39252750785, 72857.72387477444, 0.10200000000000001, 0.974, 0.1, 192.0, 0.0, 0.0, 0.0, 0.0, 0.0, 0.0, 0.0, 0.0, 0.0, 1.7297115133622377E9, 0.0, 2024-10-24 00:55:13.362
82.0, -44194.15970971104, -45315.189101122516, -38715.92595767092, -50605.66819973805, -51064.661272127785, -42131.093696486205, 50117.371990367414, 72890.67034610157, 0.10200000000000001, 0.974, 0.1, 192.0, 0.0, 0.0, 0.0, 0.0, 0.0, 0.0, 0.0, 0.0, 0.0, 1.7297115133650851E9, 0.0, 2024-10-24 00:55:13.365
83.0, -44206.207299972455, -45329.382458851636, -38735.81901023615, -50623.92957495804, -51091.79628989653, -42155.77002236486, 50260.7137275593, 73035.2414292385, 0.10200000000000001, 0.974, 0.1, 192.0, 0.0, 0.0, 0.0, 0.0, 0.0, 0.0, 0.0, 0.0, 0.0, 1.7297115133691032E9, 0.0, 2024-10-24 00:55:13.369
84.0, -44225.67566939303, -45341.07242120176, -38745.519667329754, -50628.17640640455, -51097.33952252144, -42163.21315326848, 50321.5775277111, 73105.73883125054, 0.10200000000000001, 0.974, 0.1, 192.0, 0.0, 0.0, 0.0, 0.0, 0.0, 0.0, 0.0, 0.0, 0.0, 1.729711513373102E9, 0.0, 2024-10-24 00:55:13.373
85.0, -44212.68930586449, -45318.027772668334, -38723.145571129986, -50601.75664445837, -51071.657368142296, -42137.48629540042, 50135.901586520864, 72909.84814284422, 0.10200000000000001, 0.974, 0.1, 192.0, 0.0, 0.0, 0.0, 0.0, 0.0, 0.0, 0.0, 0.0, 0.0, 1.729711513377128E9, 0.0, 2024-10-24 00:55:13.377
86.0, -44199.32296268022, -45300.414598037554, -38708.751047700775, -50584.90342913907, -51054.11124874488, -42119.24727192489, 49981.898067223796, 72729.08958543415, 0.10200000000000001, 0.974, 0.1, 192.0, 0.0, 0.0, 0.0, 0.0, 0.0, 0.0, 0.0, 0.0, 0.0, 1.7297115133810606E9, 0.0, 2024-10-24 00:55:13.381
87.0, -44191.879831776605, -45301.755702704875, -38716.171826859936, -50593.50885075436, -51071.34444371992, -42135.42993491053, 50051.27788201307, 72776.76585635732, 0.10200000000000001, 0.974, 0.1, 192.0, 0.0, 0.0, 0.0, 0.0, 0.0, 0.0, 0.0, 0.0, 0.0, 1.729711513386108E9, 0.0, 2024-10-24 00:55:13.386
88.0, -44205.648506361074, -45317.93836569052, -38736.57896954763, -50611.21143236297, -51100.91580163429, -42159.39100496662, 50205.12493909895, 72931.35052101023, 0.10200000000000001, 0.974, 0.10200000000000001, 192.0, 3.0, 48.0, 30.0, 112.0, 3.0, 48.0, 0.0, 0.0, 0.0, 1.7297115133900907E9, 0.0, 2024-10-24 00:55:13.390
89.0, -44236.2927480093, -45335.97622346595, -38755.62265582355, -50622.92374645755, -51116.07028437499, -42170.61158068319, 50289.011036039716, 73023.37265293273, 0.10200000000000001, 0.974, 0.10200000000000001, 192.0, 0.0, 0.0, 0.0, 0.0, 0.0, 0.0, 0.0, 0.0, 0.0, 1.7297115133931067E9, 0.0, 2024-10-24 00:55:13.393
90.0, -44226.72620138243, -45313.17744412154, -38731.23690262281, -50597.308647311766, -51073.78078386555, -42143.47656291444, 50139.276699933616, 72861.65778179858, 0.10200000000000001, 0.974, 0.10200000000000001, 192.0, 0.0, 0.0, 0.0, 0.0, 0.0, 0.0, 0.0, 0.0, 0.0, 1.7297115133971016E9, 0.0, 2024-10-24 00:55:13.397
91.0, -44208.53188139581, -45293.93259214552, -38714.56250125915, -50579.136679069605, -51060.68266161474, -42121.68361207052, 49988.51418358257, 72685.28016630175, 0.10200000000000001, 0.974, 0.10200000000000001, 192.0, 0.0, 0.0, 0.0, 0.0, 0.0, 0.0, 0.0, 0.0, 0.0, 1.7297115134012125E9, 0.0, 2024-10-24 00:55:13.401
92.0, -44202.496910392874, -45297.687685214005, -38723.078515896625, -50593.6429612211, -51073.534914676544, -42140.19085647951, 50044.97469007668, 72721.42293708598, 0.10200000000000001, 0.974, 0.10200000000000001, 192.0, 0.0, 0.0, 0.0, 0.0, 0.0, 0.0, 0.0, 0.0, 0.0, 1.7297115134052348E9, 0.0, 2024-10-24 00:55:13.405
93.0, -44213.51632040934, -45314.07151389975, -38742.25631263928, -50616.77701673234, -51097.518336477086, -42169.471641715965, 50217.06077063808, 72896.1018200042, 0.10200000000000001, 0.974, 0.10200000000000001, 192.0, 0.0, 0.0, 0.0, 0.0, 0.0, 0.0, 0.0, 0.0, 0.0, 1.7297115134091356E9, 0.0, 2024-10-24 00:55:13.409
94.0, -44226.63679440461, -45321.2464238699, -38746.12316443004, -50617.89460395511, -51098.904144633314, -42166.99059808142, 50268.38037590747, 72958.10555912323, 0.10200000000000001, 0.974, 0.10200000000000001, 192.0, 0.0, 0.0, 0.0, 0.0, 0.0, 0.0, 0.0, 0.0, 0.0, 1.729711513413122E9, 0.0, 2024-10-24 00:55:13.413
95.0, -44216.89143382209, -45304.3932085506, -38725.15722813096, -50594.33586529921, -51070.56213266398, -42129.685536585515, 50099.28942910307, 72778.15166451356, 0.10200000000000001, 0.974, 0.10200000000000001, 192.0, 0.0, 0.0, 0.0, 0.0, 0.0, 0.0, 0.0, 0.0, 0.0, 1.7297115134181724E9, 0.0, 2024-10-24 00:55:13.418
96.0, -44205.69320984998, -45295.5419177463, -38713.62372799203, -50586.132775084116, -51058.15691449129, -42118.152036446576, 49980.914590467764, 72632.95473253189, 0.10200000000000001, 0.974, 0.10200000000000001, 192.0, 0.0, 0.0, 0.0, 0.0, 0.0, 0.0, 0.0, 0.0, 0.0, 1.7297115134212449E9, 0.0, 2024-10-24 00:55:13.421
97.0, -44198.04891324627, -45299.7440457039, -38720.485713539805, -50599.02973163483, -51068.52812391855, -42137.1957227225, 50048.8638936119, 72680.40748601049, 0.10200000000000001, 0.974, 0.10200000000000001, 192.0, 0.0, 0.0, 0.0, 0.0, 0.0, 0.0, 0.0, 0.0, 0.0, 1.7297115134251635E9, 0.0, 2024-10-24 00:55:13.425
98.0, -44212.622250631124, -45318.40775232408, -38737.85301898158, -50618.11812139966, -51090.522240462575, -42153.11016477468, 50222.15696837389, 72856.42747359604, 0.10200000000000001, 0.974, 0.10200000000000001, 192.0, 0.0, 0.0, 0.0, 0.0, 0.0, 0.0, 0.0, 0.0, 0.0, 1.729711513429162E9, 0.0, 2024-10-24 00:55:13.429
99.0, -44237.5444456988, -45333.09284843122, -38751.50993484377, -50622.052028423794, -51094.45614748671, -42151.32202521825, 50277.477535900776, 72920.39816622713, 0.10400000000000001, 0.97, 0.098, 192.0, 3.0, 64.0, 30.0, 80.0, 3.0, 16.0, 0.0, 0.0, 0.0, 1.7297115134331489E9, 0.0, 2024-10-24 00:55:13.433
100.0, -44223.060515291756, -45315.7478947339, -38724.821951964135, -50597.53216475632, -51056.882865057334, -42123.114123715655, 50096.16018487933, 72728.32962612268, 0.10400000000000001, 0.97, 0.098, 192.0, 0.0, 0.0, 0.0, 0.0, 0.0, 0.0, 0.0, 0.0, 0.0, 1.729711513437295E9, 0.0, 2024-10-24 00:55:13.437
101.0, -44212.75636109786, -45304.84024343971, -38713.44491403639, -50586.266885550845, -51044.14237071781, -42113.681687555516, 49952.661985476254, 72559.59630722956, 0.10400000000000001, 0.97, 0.098, 192.0, 0.0, 0.0, 0.0, 0.0, 0.0, 0.0, 0.0, 0.0, 0.0, 1.7297115134412208E9, 0.0, 2024-10-24 00:55:13.441
102.0, -44207.54840463977, -45309.020019652846, -38727.72767874333, -50599.00737989037, -51071.076222786454, -42130.043164496805, 50023.29349795503, 72611.40765087696, 0.10400000000000001, 0.97, 0.098, 192.0, 0.0, 0.0, 0.0, 0.0, 0.0, 0.0, 0.0, 0.0, 0.0, 1.7297115134462E9, 0.0, 2024-10-24 00:55:13.446
103.0, -44220.42300944603, -45325.58266229423, -38749.67709179844, -50618.11812139966, -51092.7127114192, -42149.131554261636, 50190.26102903617, 72784.81248436123, 0.10400000000000001, 0.97, 0.098, 192.0, 0.0, 0.0, 0.0, 0.0, 0.0, 0.0, 0.0, 0.0, 0.0, 1.7297115134492047E9, 0.0, 2024-10-24 00:55:13.449
104.0, -44238.013832332355, -45335.30567113229, -38755.22032442335, -50622.141435401616, -51090.76810965158, -42153.62425489715, 50243.97227096227, 72850.12428165964, 0.10400000000000001, 0.97, 0.098, 192.0, 0.0, 0.0, 0.0, 0.0, 0.0, 0.0, 0.0, 0.0, 0.0, 1.729711513453176E9, 0.0, 2024-10-24 00:55:13.453
105.0, -44231.46477120695, -45321.38053433663, -38741.07167018315, -50605.712903226966, -51075.412461210784, -42137.75451633388, 50079.01639688211, 72675.08777083013, 0.10400000000000001, 0.97, 0.098, 192.0, 0.0, 0.0, 0.0, 0.0, 0.0, 0.0, 0.0, 0.0, 0.0, 1.7297115134572632E9, 0.0, 2024-10-24 00:55:13.457
106.0, -44213.89630006508, -45304.192042850504, -38724.93371068641, -50590.044330363795, -51054.71474584517, -42120.454266125475, 49919.00025832657, 72489.74710580673, 0.10400000000000001, 0.97, 0.098, 192.0, 0.0, 0.0, 0.0, 0.0, 0.0, 0.0, 0.0, 0.0, 0.0, 1.7297115134613187E9, 0.0, 2024-10-24 00:55:13.461
107.0, -44207.66016336205, -45305.957830662475, -38736.13193465852, -50602.896583425594, -51081.82741186946, -42139.72146984595, 49984.8484974919, 72536.86458311851, 0.10400000000000001, 0.97, 0.098, 192.0, 0.0, 0.0, 0.0, 0.0, 0.0, 0.0, 0.0, 0.0, 0.0, 1.7297115134652424E9, 0.0, 2024-10-24 00:55:13.465
108.0, -44218.433704189505, -45321.38053433663, -38751.93461798842, -50622.87904296864, -51103.64271445784, -42168.711682404486, 50143.76940056913, 72702.87098918807, 0.10400000000000001, 0.97, 0.098, 192.0, 0.0, 0.0, 0.0, 0.0, 0.0, 0.0, 0.0, 0.0, 0.0, 1.729711513469291E9, 0.0, 2024-10-24 00:55:13.469
109.0, -44235.95747184247, -45330.768267007865, -38756.226152923846, -50624.845996480704, -51097.63009519936, -42172.31031326179, 50197.16771807286, 72770.21679523191, 0.10200000000000001, 0.966, 0.1, 192.0, 3.0, 48.0, 30.0, 48.0, 3.0, 32.0, 0.0, 0.0, 0.0, 1.7297115134745493E9, 0.0, 2024-10-24 00:55:13.474
110.0, -44227.91084383856, -45315.72554298944, -38739.775269004735, -50603.1424526146, -51078.698167645714, -42140.90611230208, 50032.94945155972, 72596.47668558081, 0.10200000000000001, 0.966, 0.1, 192.0, 0.0, 0.0, 0.0, 0.0, 0.0, 0.0, 0.0, 0.0, 0.0, 1.729711513477386E9, 0.0, 2024-10-24 00:55:13.477
111.0, -44208.19660522898, -45298.35823754767, -38721.98328041831, -50585.48457449491, -51061.10734475939, -42117.749705046386, 49886.63493235528, 72423.094203841, 0.10200000000000001, 0.966, 0.1, 192.0, 0.0, 0.0, 0.0, 0.0, 0.0, 0.0, 0.0, 0.0, 0.0, 1.729711513480241E9, 0.0, 2024-10-24 00:55:13.480
112.0, -44192.34921841016, -45295.3407520462, -38723.637309508005, -50589.17261233004, -51068.32695821845, -42131.04899299729, 49938.58038646942, 72455.41482632338, 0.10200000000000001, 0.966, 0.1, 192.0, 0.0, 0.0, 0.0, 0.0, 0.0, 0.0, 0.0, 0.0, 0.0, 1.72971151348535E9, 0.0, 2024-10-24 00:55:13.485
113.0, -44211.437608174994, -45316.68666800102, -38750.57116157665, -50613.71482774196, -51101.988685368146, -42167.70585390399, 50094.1261761339, 72618.06847072464, 0.10200000000000001, 0.966, 0.1, 192.0, 0.0, 0.0, 0.0, 0.0, 0.0, 0.0, 0.0, 0.0, 0.0, 1.72971151348931E9, 0.0, 2024-10-24 00:55:13.489
114.0, -44241.61246318966, -45334.34454612071, -38769.637199597026, -50624.93540345853, -51116.47261577519, -42176.89242087513, 50142.22713020172, 72680.22867205486, 0.10200000000000001, 0.966, 0.1, 192.0, 0.0, 0.0, 0.0, 0.0, 0.0, 0.0, 0.0, 0.0, 0.0, 1.7297115134933443E9, 0.0, 2024-10-24 00:55:13.493
115.0, -44230.90597759557, -45318.76538023536, -38745.11733592956, -50602.2930863253, -51072.73025187615, -42148.66216762807, 49984.826145747444, 72515.16103925242, 0.10200000000000001, 0.966, 0.1, 192.0, 0.0, 0.0, 0.0, 0.0, 0.0, 0.0, 0.0, 0.0, 0.0, 1.729711513497292E9, 0.0, 2024-10-24 00:55:13.497
116.0, -44211.8846430641, -45302.13568236061, -38729.13583864401, -50586.98214137342, -51061.97906279314, -42133.395926165096, 49846.29003361345, 72351.322752395, 0.10200000000000001, 0.966, 0.1, 192.0, 0.0, 0.0, 0.0, 0.0, 0.0, 0.0, 0.0, 0.0, 0.0, 1.729711513502282E9, 0.0, 2024-10-24 00:55:13.502
117.0, -44206.00613427236, -45303.18621435001, -38737.67420502594, -50595.22993507743, -51078.63111241235, -42142.269568713855, 49915.423979213716, 72401.36830823045, 0.10200000000000001, 0.966, 0.1, 192.0, 0.0, 0.0, 0.0, 0.0, 0.0, 0.0, 0.0, 0.0, 0.0, 1.7297115135053878E9, 0.0, 2024-10-24 00:55:13.505
118.0, -44221.451189690975, -45323.16867389306, -38755.26502791227, -50616.26292660987, -51103.57565922447, -42159.07808054425, 50089.544068520554, 72580.11520863953, 0.10200000000000001, 0.966, 0.1, 192.0, 0.0, 0.0, 0.0, 0.0, 0.0, 0.0, 0.0, 0.0, 0.0, 1.7297115135083947E9, 0.0, 2024-10-24 00:55:13.508
119.0, -44245.7922394028, -45338.74783977841, -38763.848097783106, -50623.035505179825, -51104.782653425056, -42161.357958478686, 50143.948214524775, 72648.82447109514, 0.10400000000000001, 0.972, 0.098, 192.0, 3.0, 64.0, 30.0, 96.0, 3.0, 16.0, 0.0, 0.0, 0.0, 1.729711513513373E9, 0.0, 2024-10-24 00:55:13.513
120.0, -44239.0420125773, -45322.74399074841, -38743.75387951778, -50601.46607178046, -51076.23947575563, -42137.173370978046, 49983.865020735866, 72480.58289058004, 0.10400000000000001, 0.972, 0.098, 192.0, 0.0, 0.0, 0.0, 0.0, 0.0, 0.0, 0.0, 0.0, 0.0, 1.7297115135172937E9, 0.0, 2024-10-24 00:55:13.517
121.0, -44218.858387334156, -45298.98408639242, -38725.82778046463, -50578.779051158315, -51058.62630112485, -42113.16759743304, 49841.68557425566, 72314.88940893285, 0.10400000000000001, 0.972, 0.098, 192.0, 0.0, 0.0, 0.0, 0.0, 0.0, 0.0, 0.0, 0.0, 0.0, 1.7297115135214727E9, 0.0, 2024-10-24 00:55:13.521
122.0, -44211.32584945272, -45301.2416125824, -38735.1931613914, -50588.65852220757, -51073.3561007209, -42126.22101619495, 49902.50467091855, 72359.36938039892, 0.10400000000000001, 0.972, 0.098, 192.0, 0.0, 0.0, 0.0, 0.0, 0.0, 0.0, 0.0, 0.0, 0.0, 1.729711513525266E9, 0.0, 2024-10-24 00:55:13.525
123.0, -44224.736896125905, -45321.40288608109, -38753.7451092893, -50610.40676956258, -51094.38909225334, -42150.67382462905, 50065.515943231105, 72529.48850744826, 0.10400000000000001, 0.972, 0.098, 192.0, 0.0, 0.0, 0.0, 0.0, 0.0, 0.0, 0.0, 0.0, 0.0, 1.7297115135295236E9, 0.0, 2024-10-24 00:55:13.529
124.0, -44245.009928346866, -45331.21530189697, -38757.880182013534, -50609.28918233981, -51088.711749161695, -42144.638853626115, 50114.801539755055, 72593.52625531271, 0.10400000000000001, 0.972, 0.098, 192.0, 0.0, 0.0, 0.0, 0.0, 0.0, 0.0, 0.0, 0.0, 0.0, 1.729711513533399E9, 0.0, 2024-10-24 00:55:13.533
125.0, -44236.9409485985, -45312.663353999065, -38739.171771904446, -50585.417519261544, -51069.198676252214, -42119.64960332509, 49943.095438849385, 72413.28178802512, 0.10400000000000001, 0.972, 0.098, 192.0, 0.0, 0.0, 0.0, 0.0, 0.0, 0.0, 0.0, 0.0, 0.0, 1.7297115135364163E9, 0.0, 2024-10-24 00:55:13.536
126.0, -44218.6348698896, -45298.62645848113, -38725.604263020075, -50574.040481333795, -51066.739984362124, -42110.463036353955, 49790.94711434211, 72236.50184112809, 0.10400000000000001, 0.972, 0.098, 192.0, 0.0, 0.0, 0.0, 0.0, 0.0, 0.0, 0.0, 0.0, 0.0, 1.729711513541406E9, 0.0, 2024-10-24 00:55:13.541
127.0, -44212.95752679796, -45304.549670761786, -38733.27091136824, -50587.40682451807, -51064.54951340551, -42127.807990051275, 49876.57664735039, 72303.19944658273, 0.10400000000000001, 0.972, 0.098, 192.0, 0.0, 0.0, 0.0, 0.0, 0.0, 0.0, 0.0, 0.0, 0.0, 1.7297115135454948E9, 0.0, 2024-10-24 00:55:13.545
128.0, -44227.37440197163, -45323.23572912643, -38754.86269651207, -50610.87615619614, -51094.61260969789, -42160.642702656114, 50053.691870414244, 72486.01436448269, 0.10400000000000001, 0.972, 0.098, 192.0, 0.0, 0.0, 0.0, 0.0, 0.0, 0.0, 0.0, 0.0, 0.0, 1.7297115135493405E9, 0.0, 2024-10-24 00:55:13.549
129.0, -44250.463753993965, -45333.6516420426, -38766.910286773484, -50617.62638302164, -51103.933287135755, -42172.69029291753, 50103.603315782944, 72550.76736816972, 0.108, 0.972, 0.108, 192.0, 3.0, 96.0, 30.0, 96.0, 3.0, 96.0, 0.0, 0.0, 0.0, 1.729711513553558E9, 0.0, 2024-10-24 00:55:13.553
130.0, -44240.20430328898, -45312.1939673655, -38742.859809739566, -50591.5418972423, -51067.29877797351, -42139.20737972348, 49923.42590372871, 72362.56567985602, 0.108, 0.972, 0.108, 192.0, 0.0, 0.0, 0.0, 0.0, 0.0, 0.0, 0.0, 0.0, 0.0, 1.7297115135574284E9, 0.0, 2024-10-24 00:55:13.557
131.0, -44228.89432059459, -45299.87815617063, -38733.04739392369, -50580.70130118148, -51059.07333601396, -42120.72248705894, 49781.87230609325, 72196.87219820883, 0.108, 0.972, 0.108, 192.0, 0.0, 0.0, 0.0, 0.0, 0.0, 0.0, 0.0, 0.0, 0.0, 1.7297115135613368E9, 0.0, 2024-10-24 00:55:13.561
132.0, -44217.04789603328, -45299.58758349271, -38738.948254459894, -50591.31837979775, -51076.55240017801, -42140.660243113074, 49843.94310044564, 72241.64274235282, 0.108, 0.972, 0.108, 192.0, 0.0, 0.0, 0.0, 0.0, 0.0, 0.0, 0.0, 0.0, 0.0, 1.729711513564402E9, 0.0, 2024-10-24 00:55:13.564
133.0, -44241.61246318966, -45324.174502393544, -38768.452557140896, -50620.64386852311, -51110.90703140581, -42171.52800220585, 50004.18275644574, 72409.37023274544, 0.108, 0.972, 0.108, 192.0, 0.0, 0.0, 0.0, 0.0, 0.0, 0.0, 0.0, 0.0, 0.0, 1.729711513569612E9, 0.0, 2024-10-24 00:55:13.569
134.0, -44262.51134425537, -45340.35716537919, -38776.61094386708, -50629.69632502751, -51114.19273784074, -42180.69221743253, 50055.234140781664, 72475.33023063306, 0.108, 0.972, 0.108, 192.0, 0.0, 0.0, 0.0, 0.0, 0.0, 0.0, 0.0, 0.0, 0.0, 1.7297115135733423E9, 0.0, 2024-10-24 00:55:13.573
135.0, -44248.65326269308, -45327.3484501062, -38752.42635636644, -50610.58558351822, -51084.28610375954, -42155.144173520115, 49887.99838876705, 72300.24901631463, 0.108, 0.972, 0.108, 192.0, 0.0, 0.0, 0.0, 0.0, 0.0, 0.0, 0.0, 0.0, 0.0, 1.729711513577324E9, 0.0, 2024-10-24 00:55:13.577
136.0, -44233.252910763375, -45311.679877243034, -38739.10471667108, -50596.70515021148, -51072.909065831795, -42138.82740006774, 49739.35928813926, 72126.5759618969, 0.108, 0.972, 0.108, 192.0, 0.0, 0.0, 0.0, 0.0, 0.0, 0.0, 0.0, 0.0, 0.0, 1.729711513581334E9, 0.0, 2024-10-24 00:55:13.581
137.0, -44227.41910546054, -45312.5962987657, -38748.96183597587, -50608.082188139226, -51092.66800793028, -42152.17139150755, 49797.67498942316, 72169.67012520673, 0.108, 0.972, 0.108, 192.0, 0.0, 0.0, 0.0, 0.0, 0.0, 0.0, 0.0, 0.0, 0.0, 1.7297115135863445E9, 0.0, 2024-10-24 00:55:13.586
138.0, -44252.00602436138, -45337.11616243317, -38776.074502000156, -50635.86540649717, -51118.417217542796, -42182.34624652222, 49972.48798280812, 72353.60263032945, 0.108, 0.972, 0.108, 192.0, 0.0, 0.0, 0.0, 0.0, 0.0, 0.0, 0.0, 0.0, 0.0, 1.7297115135895092E9, 0.0, 2024-10-24 00:55:13.589
139.0, -44272.86020193818, -45347.196799182515, -38779.58372587964, -50637.00534546439, -51112.1140256064, -42182.34624652222, 50035.20697774971, 72433.57717199055, 0.10200000000000001, 0.972, 0.10200000000000001, 192.0, 3.0, 48.0, 30.0, 96.0, 3.0, 48.0, 0.0, 0.0, 0.0, 1.7297115135926716E9, 0.0, 2024-10-24 00:55:13.592
140.0, -44263.740690200415, -45329.851845485195, -38756.96376049087, -50611.61376376316, -51084.1072898039, -42151.65730138509, 49863.70204254414, 72257.02074253806, 0.10200000000000001, 0.972, 0.10200000000000001, 192.0, 0.0, 0.0, 0.0, 0.0, 0.0, 0.0, 0.0, 0.0, 0.0, 1.7297115135964348E9, 0.0, 2024-10-24 00:55:13.596
141.0, -44244.51818996885, -45308.79650220829, -38736.064879425154, -50588.94909488548, -51062.31433895998, -42123.739972560405, 49720.27089837443, 72095.75290629303, 0.10200000000000001, 0.972, 0.10200000000000001, 192.0, 0.0, 0.0, 0.0, 0.0, 0.0, 0.0, 0.0, 0.0, 0.0, 1.7297115136013792E9, 0.0, 2024-10-24 00:55:13.601
142.0, -44233.543483441295, -45306.20369985148, -38739.46234458236, -50595.3416937997, -51077.78174612305, -42137.039260511316, 49779.5477246699, 72142.06572080443, 0.10200000000000001, 0.972, 0.10200000000000001, 192.0, 0.0, 0.0, 0.0, 0.0, 0.0, 0.0, 0.0, 0.0, 0.0, 1.7297115136053507E9, 0.0, 2024-10-24 00:55:13.605
143.0, -44259.29269305381, -45328.935423962525, -38769.32427517465, -50623.92957495804, -51113.49983376263, -42172.57853419525, 49939.00506961407, 72311.17901935328, 0.10200000000000001, 0.972, 0.10200000000000001, 192.0, 0.0, 0.0, 0.0, 0.0, 0.0, 0.0, 0.0, 0.0, 0.0, 1.7297115136093876E9, 0.0, 2024-10-24 00:55:13.609
144.0, -44279.610428763684, -45338.658432800585, -38775.44865315541, -50625.78476974783, -51109.72238894968, -42170.43276672754, 50000.71823605517, 72389.49953192468, 0.10200000000000001, 0.972, 0.10200000000000001, 192.0, 0.0, 0.0, 0.0, 0.0, 0.0, 0.0, 0.0, 0.0, 0.0, 1.7297115136135125E9, 0.0, 2024-10-24 00:55:13.613
145.0, -44261.572570988246, -45312.88687144362, -38745.85494349658, -50594.380568788125, -51075.97125482217, -42132.50185638689, 49804.17934705965, 72187.79738995999, 0.10200000000000001, 0.972, 0.10200000000000001, 192.0, 0.0, 0.0, 0.0, 0.0, 0.0, 0.0, 0.0, 0.0, 0.0, 1.729711513617492E9, 0.0, 2024-10-24 00:55:13.617
146.0, -44248.85442839318, -45298.894679414596, -38732.600359034586, -50581.34950177068, -51059.0509842695, -42120.43191438102, 49668.19133379356, 72032.69863518461, 0.10200000000000001, 0.972, 0.10200000000000001, 192.0, 0.0, 0.0, 0.0, 0.0, 0.0, 0.0, 0.0, 0.0, 0.0, 1.7297115136205275E9, 0.0, 2024-10-24 00:55:13.620
147.0, -44243.601768446184, -45302.00157189388, -38740.490524827306, -50594.35821704367, -51074.04900479901, -42139.65441461258, 49730.709163035055, 72079.8161124964, 0.10200000000000001, 0.972, 0.10200000000000001, 192.0, 0.0, 0.0, 0.0, 0.0, 0.0, 0.0, 0.0, 0.0, 0.0, 1.7297115136247013E9, 0.0, 2024-10-24 00:55:13.624
148.0, -44261.61727447716, -45324.08509541573, -38763.87044952756, -50619.325115600244, -51100.178194067266, -42169.56104869379, 49893.09458650286, 72251.14223374633, 0.10200000000000001, 0.972, 0.10200000000000001, 192.0, 0.0, 0.0, 0.0, 0.0, 0.0, 0.0, 0.0, 0.0, 0.0, 1.7297115136294057E9, 0.0, 2024-10-24 00:55:13.629
149.0, -44280.61625726417, -45336.62442405515, -38768.96664726337, -50622.85669122419, -51097.585391710454, -42173.025569084355, 49941.59787197088, 72316.85636244493, 0.10200000000000001, 0.974, 0.098, 192.0, 3.0, 48.0, 30.0, 112.0, 3.0, 16.0, 0.0, 0.0, 0.0, 1.729711513633416E9, 0.0, 2024-10-24 00:55:13.633
150.0, -44274.491879283414, -45324.129798904636, -38754.885048256525, -50605.15410961558, -51082.87794385886, -42153.42308919705, 49782.162878771174, 72152.7275029096, 0.10200000000000001, 0.974, 0.098, 192.0, 0.0, 0.0, 0.0, 0.0, 0.0, 0.0, 0.0, 0.0, 0.0, 1.729711513637416E9, 0.0, 2024-10-24 00:55:13.637
151.0, -44257.661015708574, -45308.55063301929, -38741.876332983535, -50591.519545497846, -51071.18798150873, -42138.29095820081, 49637.10005725623, 71989.35860268577, 0.10200000000000001, 0.974, 0.098, 192.0, 0.0, 0.0, 0.0, 0.0, 0.0, 0.0, 0.0, 0.0, 0.0, 1.7297115136414897E9, 0.0, 2024-10-24 00:55:13.641
152.0, -44252.65422495058, -45314.85382495569, -38749.0959464426, -50607.85867069467, -51076.261827500086, -42158.832211355235, 49714.97353493852, 72052.27876332746, 0.10200000000000001, 0.974, 0.098, 192.0, 0.0, 0.0, 0.0, 0.0, 0.0, 0.0, 0.0, 0.0, 0.0, 1.7297115136455593E9, 0.0, 2024-10-24 00:55:13.645
153.0, -44265.975864645945, -45333.0481449423, -38768.452557140896, -50629.69632502751, -51105.78848192555, -42182.033322099844, 49884.04212999847, 72231.62916083683, 0.10200000000000001, 0.974, 0.098, 192.0, 0.0, 0.0, 0.0, 0.0, 0.0, 0.0, 0.0, 0.0, 0.0, 1.7297115136484544E9, 0.0, 2024-10-24 00:55:13.648
154.0, -44288.86405096818, -45350.01311898388, -38783.405874181495, -50641.2521769109, -51121.3676478109, -42192.24806931592, 49944.23537781661, 72309.88261817487, 0.10200000000000001, 0.974, 0.098, 192.0, 0.0, 0.0, 0.0, 0.0, 0.0, 0.0, 0.0, 0.0, 0.0, 1.729711513652434E9, 0.0, 2024-10-24 00:55:13.652
155.0, -44275.29654208381, -45327.460208828474, -38760.67415007045, -50616.955830687984, -51094.500850975615, -42167.25881901489, 49762.76156458397, 72122.3738339393, 0.10200000000000001, 0.974, 0.098, 192.0, 0.0, 0.0, 0.0, 0.0, 0.0, 0.0, 0.0, 0.0, 0.0, 1.7297115136575184E9, 0.0, 2024-10-24 00:55:13.657
156.0, -44260.52203899885, -45310.428179553535, -38746.32433013014, -50603.254211336876, -51077.29000774503, -42154.54067641982, 49603.72890278446, 71941.8834974627, 0.10200000000000001, 0.974, 0.098, 192.0, 0.0, 0.0, 0.0, 0.0, 0.0, 0.0, 0.0, 0.0, 0.0, 1.7297115136615655E9, 0.0, 2024-10-24 00:55:13.661
157.0, -44246.261626036365, -45310.51758653136, -38748.47009759785, -50612.552537030286, -51091.371606751876, -42168.622275426664, 49676.7744036644, 72000.84739933579, 0.10200000000000001, 0.974, 0.098, 192.0, 0.0, 0.0, 0.0, 0.0, 0.0, 0.0, 0.0, 0.0, 0.0, 1.7297115136657383E9, 0.0, 2024-10-24 00:55:13.665
158.0, -44261.013777376866, -45332.89168273112, -38768.29609492971, -50635.37366811916, -51120.518281521596, -42193.74563619443, 49833.281318340465, 72172.46409326364, 0.10200000000000001, 0.974, 0.098, 192.0, 0.0, 0.0, 0.0, 0.0, 0.0, 0.0, 0.0, 0.0, 0.0, 1.7297115136695087E9, 0.0, 2024-10-24 00:55:13.669
159.0, -44286.33830384473, -45351.5553893513, -38780.187222979934, -50643.77792403435, -51118.97601115418, -42202.2616508319, 49887.28313294448, 72249.801129079, 0.1, 0.976, 0.098, 192.0, 3.0, 32.0, 30.0, 128.0, 3.0, 16.0, 0.0, 0.0, 0.0, 1.7297115136745093E9, 0.0, 2024-10-24 00:55:13.674
160.0, -44275.63181825064, -45330.05301118529, -38758.595437836106, -50615.95000218749, -51095.4619759872, -42172.84675512872, 49711.10668314775, 72072.52944380397, 0.1, 0.976, 0.098, 192.0, 0.0, 0.0, 0.0, 0.0, 0.0, 0.0, 0.0, 0.0, 0.0, 1.7297115136776376E9, 0.0, 2024-10-24 00:55:13.677
161.0, -44257.593960475206, -45311.746932476395, -38741.250484138785, -50598.225068834436, -51078.96638857918, -42147.365766449664, 49569.32956806774, 71911.3733662812, 0.1, 0.976, 0.098, 192.0, 0.0, 0.0, 0.0, 0.0, 0.0, 0.0, 0.0, 0.0, 0.0, 1.729711513680628E9, 0.0, 2024-10-24 00:55:13.680
162.0, -44248.7426696709, -45314.049162155294, -38747.21839990836, -50611.47965329643, -51092.37743525236, -42167.48233645944, 49647.98535680597, 71976.93103276861, 0.1, 0.976, 0.098, 192.0, 0.0, 0.0, 0.0, 0.0, 0.0, 0.0, 0.0, 0.0, 0.0, 1.7297115136856613E9, 0.0, 2024-10-24 00:55:13.685
163.0, -44265.215905334466, -45330.43299084104, -38764.42924313894, -50627.05881918178, -51107.48721450415, -42179.954609865505, 49824.675896725166, 72168.26196530604, 0.1, 0.976, 0.098, 192.0, 0.0, 0.0, 0.0, 0.0, 0.0, 0.0, 0.0, 0.0, 0.0, 1.7297115136898413E9, 0.0, 2024-10-24 00:55:13.689
164.0, -44291.367446347176, -45344.42518287006, -38776.81210956718, -50632.53499657333, -51113.11985410689, -42187.710665191495, 49895.7767958375, 72262.78749260753, 0.1, 0.976, 0.098, 192.0, 0.0, 0.0, 0.0, 0.0, 0.0, 0.0, 0.0, 0.0, 0.0, 1.7297115136935427E9, 0.0, 2024-10-24 00:55:13.693
165.0, -44278.850469452205, -45324.040391926814, -38751.3981761215, -50604.81883344875, -51075.43481295524, -42156.37351946515, 49714.16887213813, 72080.19609215214, 0.1, 0.976, 0.098, 192.0, 0.0, 0.0, 0.0, 0.0, 0.0, 0.0, 0.0, 0.0, 0.0, 1.7297115136975536E9, 0.0, 2024-10-24 00:55:13.697
166.0, -44268.769832702856, -45308.21535685246, -38736.17663814743, -50585.75279542837, -51061.375565692855, -42129.32790867423, 49575.85627744869, 71924.40443329864, 0.1, 0.976, 0.098, 192.0, 0.0, 0.0, 0.0, 0.0, 0.0, 0.0, 0.0, 0.0, 0.0, 1.729711513701812E9, 0.0, 2024-10-24 00:55:13.701
167.0, -44260.11970759866, -45303.72265621694, -38740.4458213384, -50593.30768505427, -51077.06649030048, -42145.1976472375, 49626.2147577065, 71965.33047739632, 0.1, 0.976, 0.098, 192.0, 0.0, 0.0, 0.0, 0.0, 0.0, 0.0, 0.0, 0.0, 0.0, 1.7297115137046711E9, 0.0, 2024-10-24 00:55:13.704
168.0, -44277.308199084786, -45323.839226226715, -38763.22224893836, -50618.02871442184, -51103.55330748002, -42171.68446441704, 49784.532163683434, 72137.59537191337, 0.1, 0.976, 0.098, 192.0, 0.0, 0.0, 0.0, 0.0, 0.0, 0.0, 0.0, 0.0, 0.0, 1.7297115137086973E9, 0.0, 2024-10-24 00:55:13.708
169.0, -44304.219699408975, -45339.10546768969, -38773.839327554626, -50625.15892090308, -51108.87302266038, -42169.71751090497, 49840.32211784388, 72216.16175367376, 0.10400000000000001, 0.972, 0.1, 192.0, 3.0, 64.0, 30.0, 96.0, 3.0, 32.0, 0.0, 0.0, 0.0, 1.7297115137136247E9, 0.0, 2024-10-24 00:55:13.713
170.0, -44296.06131268279, -45323.280432615335, -38752.98514997782, -50606.539917771806, -51078.18407752324, -42145.44351642651, 49653.90856908662, 72030.68697818363, 0.10400000000000001, 0.972, 0.1, 192.0, 0.0, 0.0, 0.0, 0.0, 0.0, 0.0, 0.0, 0.0, 0.0, 1.72971151371779E9, 0.0, 2024-10-24 00:55:13.717
171.0, -44282.58321077624, -45312.171615621046, -38740.557580060675, -50599.476766523934, -51059.118039502864, -42140.12380124615, 49514.903070319066, 71873.6659733851, 0.10400000000000001, 0.972, 0.1, 192.0, 0.0, 0.0, 0.0, 0.0, 0.0, 0.0, 0.0, 0.0, 0.0, 1.729711513721867E9, 0.0, 2024-10-24 00:55:13.721
172.0, -44275.832983950735, -45317.87131045715, -38748.35833887557, -50615.570022531756, -51080.039272313035, -42166.476507958956, 49615.41886513458, 71964.30229715137, 0.10400000000000001, 0.972, 0.1, 192.0, 0.0, 0.0, 0.0, 0.0, 0.0, 0.0, 0.0, 0.0, 0.0, 1.7297115137258298E9, 0.0, 2024-10-24 00:55:13.725
173.0, -44288.32760910125, -45335.61859555467, -38770.01717925277, -50634.45724659649, -51115.17621459678, -42185.140214579136, 49788.91310559668, 72153.17453779871, 0.10400000000000001, 0.972, 0.1, 192.0, 0.0, 0.0, 0.0, 0.0, 0.0, 0.0, 0.0, 0.0, 0.0, 1.72971151372956E9, 0.0, 2024-10-24 00:55:13.729
174.0, -44309.69587680053, -45344.22401716996, -38780.00840902429, -50637.07240069776, -51123.11108387841, -42188.627086714165, 49829.92855667217, 72216.67584379624, 0.10400000000000001, 0.972, 0.1, 192.0, 0.0, 0.0, 0.0, 0.0, 0.0, 0.0, 0.0, 0.0, 0.0, 1.729711513732756E9, 0.0, 2024-10-24 00:55:13.732
175.0, -44296.97773420546, -45318.00542092388, -38757.14257444651, -50610.96556317396, -51095.551382965015, -42165.403624225095, 49635.60249037773, 72021.96979784606, 0.10400000000000001, 0.972, 0.1, 192.0, 0.0, 0.0, 0.0, 0.0, 0.0, 0.0, 0.0, 0.0, 0.0, 1.7297115137366736E9, 0.0, 2024-10-24 00:55:13.736
176.0, -44278.60460026319, -45296.1901183355, -38739.68586202692, -50593.2406298209, -51076.99943506711, -42148.59511239471, 49486.02461648281, 71855.85163305422, 0.10400000000000001, 0.972, 0.1, 192.0, 0.0, 0.0, 0.0, 0.0, 0.0, 0.0, 0.0, 0.0, 0.0, 1.7297115137415679E9, 0.0, 2024-10-24 00:55:13.741
177.0, -44273.039015893824, -45302.56036550526, -38751.35347263259, -50610.47382479595, -51104.62619121387, -42178.43469124254, 49552.61046321517, 71912.11097384822, 0.10400000000000001, 0.972, 0.1, 192.0, 0.0, 0.0, 0.0, 0.0, 0.0, 0.0, 0.0, 0.0, 0.0, 1.7297115137457895E9, 0.0, 2024-10-24 00:55:13.745
178.0, -44292.19446089202, -45329.76243850737, -38779.65078111301, -50637.430028609044, -51141.68538352077, -42204.54152876634, 49709.184433124596, 72084.57703406537, 0.10400000000000001, 0.972, 0.1, 192.0, 0.0, 0.0, 0.0, 0.0, 0.0, 0.0, 0.0, 0.0, 0.0, 1.7297115137496877E9, 0.0, 2024-10-24 00:55:13.749
179.0, -44312.48984485744, -45345.229845670445, -38783.45057767041, -50639.754610032396, -51132.69998224974, -42201.45698803151, 49770.8975995657, 72169.44660776218, 0.10400000000000001, 0.972, 0.098, 192.0, 3.0, 64.0, 30.0, 96.0, 3.0, 16.0, 0.0, 0.0, 0.0, 1.7297115137536445E9, 0.0, 2024-10-24 00:55:13.753
180.0, -44306.99131572143, -45328.242519884414, -38763.11049021608, -50616.77701673234, -51105.609667969904, -42180.17812731006, 49609.406245876104, 72008.40228896169, 0.10400000000000001, 0.972, 0.098, 192.0, 0.0, 0.0, 0.0, 0.0, 0.0, 0.0, 0.0, 0.0, 0.0, 1.729711513757619E9, 0.0, 2024-10-24 00:55:13.757
181.0, -44294.18376614854, -45310.80815920927, -38748.00071096429, -50599.38735954611, -51087.9070863613, -42162.16262127908, 49473.93232273249, 71855.78457782086, 0.10400000000000001, 0.972, 0.098, 192.0, 0.0, 0.0, 0.0, 0.0, 0.0, 0.0, 0.0, 0.0, 0.0, 1.729711513761549E9, 0.0, 2024-10-24 00:55:13.761
182.0, -44279.69983574151, -45309.53410977532, -38746.88312374152, -50602.51660376986, -51091.0586823295, -42161.849696856705, 49518.36759070964, 71890.80976138232, 0.10400000000000001, 0.972, 0.098, 192.0, 0.0, 0.0, 0.0, 0.0, 0.0, 0.0, 0.0, 0.0, 0.0, 1.7297115137655516E9, 0.0, 2024-10-24 00:55:13.765
183.0, -44298.63176329515, -45336.1997409105, -38771.380635664544, -50628.69049652702, -51120.093598376945, -42191.39870302662, 49684.66456945713, 72074.07171417138, 0.10400000000000001, 0.972, 0.098, 192.0, 0.0, 0.0, 0.0, 0.0, 0.0, 0.0, 0.0, 0.0, 0.0, 1.7297115137702053E9, 0.0, 2024-10-24 00:55:13.770
184.0, -44323.57631010727, -45352.96354925198, -38785.641048627025, -50634.77017101886, -51128.69901999224, -42193.96915363898, 49746.713012065054, 72162.22699430311, 0.10400000000000001, 0.972, 0.098, 192.0, 0.0, 0.0, 0.0, 0.0, 0.0, 0.0, 0.0, 0.0, 0.0, 1.7297115137736344E9, 0.0, 2024-10-24 00:55:13.773
185.0, -44312.266327412886, -45330.96943270796, -38762.998731493804, -50607.83631895022, -51095.66314168729, -42163.86135385768, 49588.19444038802, 72004.55778891538, 0.10400000000000001, 0.972, 0.098, 192.0, 0.0, 0.0, 0.0, 0.0, 0.0, 0.0, 0.0, 0.0, 0.0, 1.7297115137777672E9, 0.0, 2024-10-24 00:55:13.777
186.0, -44290.786300991334, -45305.98018240693, -38740.17760040493, -50584.88107739462, -51072.37262396487, -42139.34149019021, 49436.940185658954, 71835.10921419969, 0.10400000000000001, 0.972, 0.098, 192.0, 0.0, 0.0, 0.0, 0.0, 0.0, 0.0, 0.0, 0.0, 0.0, 1.7297115137817273E9, 0.0, 2024-10-24 00:55:13.781
187.0, -44286.114786400176, -45313.289202843815, -38752.67222555545, -50602.002513647385, -51101.09461558994, -42158.49693518841, 49522.92734657852, 71910.14402033616, 0.10400000000000001, 0.972, 0.098, 192.0, 0.0, 0.0, 0.0, 0.0, 0.0, 0.0, 0.0, 0.0, 0.0, 1.7297115137846265E9, 0.0, 2024-10-24 00:55:13.784
188.0, -44299.10114992871, -45333.4504763425, -38772.54292637622, -50623.92957495804, -51120.25006058813, -42183.91086863409, 49685.80450842435, 72091.86370275781, 0.10400000000000001, 0.972, 0.098, 192.0, 0.0, 0.0, 0.0, 0.0, 0.0, 0.0, 0.0, 0.0, 0.0, 1.7297115137886562E9, 0.0, 2024-10-24 00:55:13.788
189.0, -44325.94559501953, -45347.17444743806, -38782.087121258635, -50629.56221456078, -51116.53967100855, -42189.34234253673, 49753.55264586838, 72185.53986377, 0.106, 0.968, 0.096, 192.0, 3.0, 80.0, 30.0, 64.0, 3.0, 0.0, 0.0, 0.0, 0.0, 1.729711513792859E9, 0.0, 2024-10-24 00:55:13.792
190.0, -44314.970888491975, -45326.34262160571, -38752.47105985535, -50602.20367934748, -51079.79340312403, -42152.64077814112, 49602.29839113932, 72034.62088520777, 0.106, 0.968, 0.096, 192.0, 0.0, 0.0, 0.0, 0.0, 0.0, 0.0, 0.0, 0.0, 0.0, 1.7297115137986271E9, 0.0, 2024-10-24 00:55:13.798
191.0, -44290.585135291236, -45306.06958938475, -38727.88414095451, -50585.2387053059, -51059.29685345851, -42132.68067034253, 49441.25407233883, 71857.10333074372, 0.106, 0.968, 0.096, 192.0, 0.0, 0.0, 0.0, 0.0, 0.0, 0.0, 0.0, 0.0, 0.0, 1.729711513801649E9, 0.0, 2024-10-24 00:55:13.801
192.0, -44283.656094510094, -45315.189101122516, -38736.55661780317, -50607.41163580557, -51084.39786248182, -42158.36282472168, 49501.73789283489, 71907.86414240171, 0.106, 0.968, 0.096, 192.0, 0.0, 0.0, 0.0, 0.0, 0.0, 0.0, 0.0, 0.0, 0.0, 1.729711513805669E9, 0.0, 2024-10-24 00:55:13.805
193.0, -44301.04575169632, -45340.15599967909, -38761.99290299331, -50638.18998792052, -51122.10525537792, -42193.2091943275, 49685.67039795761, 72110.43800240016, 0.106, 0.968, 0.096, 192.0, 0.0, 0.0, 0.0, 0.0, 0.0, 0.0, 0.0, 0.0, 0.0, 1.7297115138096745E9, 0.0, 2024-10-24 00:55:13.809
194.0, -44322.324612417775, -45348.806124783296, -38768.586667607626, -50643.97908973445, -51125.1674443683, -42197.83600542975, 49745.327203908826, 72196.38045983082, 0.106, 0.968, 0.096, 192.0, 0.0, 0.0, 0.0, 0.0, 0.0, 0.0, 0.0, 0.0, 0.0, 1.729711513812923E9, 0.0, 2024-10-24 00:55:13.812
195.0, -44310.90287100111, -45323.16867389306, -38742.859809739566, -50616.66525801006, -51087.236534027645, -42163.72724339095, 49562.780506942334, 72015.5995506763, 0.106, 0.968, 0.096, 192.0, 0.0, 0.0, 0.0, 0.0, 0.0, 0.0, 0.0, 0.0, 0.0, 1.729711513816678E9, 0.0, 2024-10-24 00:55:13.816
196.0, -44288.90875445709, -45303.90147017258, -38724.21845486385, -50600.90727816907, -51067.61170239589, -42148.68451937253, 49404.48545270985, 71841.32299915826, 0.106, 0.968, 0.096, 192.0, 0.0, 0.0, 0.0, 0.0, 0.0, 0.0, 0.0, 0.0, 0.0, 1.7297115138209736E9, 0.0, 2024-10-24 00:55:13.820
197.0, -44266.601713490694, -45306.44956904049, -38727.057126409665, -50615.32415334274, -51080.88863860234, -42170.43276672754, 49462.53293306028, 71887.65816541412, 0.106, 0.968, 0.096, 192.0, 0.0, 0.0, 0.0, 0.0, 0.0, 0.0, 0.0, 0.0, 0.0, 1.7297115138246915E9, 0.0, 2024-10-24 00:55:13.824
198.0, -44287.14296664512, -45332.936386220026, -38756.069690712655, -50645.186083935034, -51114.93034540777, -42205.70381947802, 49624.09134198324, 72068.86375771329, 0.106, 0.968, 0.096, 192.0, 0.0, 0.0, 0.0, 0.0, 0.0, 0.0, 0.0, 0.0, 0.0, 1.72971151383222E9, 0.0, 2024-10-24 00:55:13.832
199.0, -44319.84356878323, -45351.13070620665, -38772.67703684295, -50653.590339850234, -51128.49785429214, -42205.70381947802, 49703.68590398859, 72175.86155842085, 0.096, 0.97, 0.096, 192.0, 3.0, 0.0, 30.0, 80.0, 3.0, 0.0, 0.0, 0.0, 0.0, 1.729711513833698E9, 0.0, 2024-10-24 00:55:13.833
200.0, -44308.399475622115, -45328.15311290659, -38747.84424875311, -50623.326077857746, -51102.99451386864, -42169.8516213717, 49557.08081210623, 72029.39057700522, 0.096, 0.97, 0.096, 192.0, 0.0, 0.0, 0.0, 0.0, 0.0, 0.0, 0.0, 0.0, 0.0, 1.729711513837736E9, 0.0, 2024-10-24 00:55:13.837
201.0, -44285.71245499998, -45306.15899636257, -38727.481809554316, -50601.91310666956, -51079.16755427928, -42155.16652526457, 49405.558336443704, 71859.67378135608, 0.096, 0.97, 0.096, 192.0, 0.0, 0.0, 0.0, 0.0, 0.0, 0.0, 0.0, 0.0, 0.0, 1.7297115138406987E9, 0.0, 2024-10-24 00:55:13.840
202.0, -44274.17895486104, -45308.30476383028, -38730.208722377865, -50611.25613585188, -51089.62817068436, -42169.58340043824, 49475.429889611, 71916.5813227393, 0.096, 0.97, 0.096, 192.0, 0.0, 0.0, 0.0, 0.0, 0.0, 0.0, 0.0, 0.0, 0.0, 1.729711513844883E9, 0.0, 2024-10-24 00:55:13.844
203.0, -44291.278039369354, -45328.15311290659, -38750.81703076566, -50629.69632502751, -51116.47261577519, -42190.30346754831, 49653.64034815316, 72107.8675517878, 0.096, 0.97, 0.096, 192.0, 0.0, 0.0, 0.0, 0.0, 0.0, 0.0, 0.0, 0.0, 0.0, 1.7297115138487508E9, 0.0, 2024-10-24 00:55:13.848
204.0, -44317.27311817087, -45339.150171178604, -38760.09300471461, -50629.20458664949, -51116.76318845311, -42187.88947914714, 49716.113473905745, 72190.68076499471, 0.096, 0.97, 0.096, 192.0, 0.0, 0.0, 0.0, 0.0, 0.0, 0.0, 0.0, 0.0, 0.0, 1.72971151385276E9, 0.0, 2024-10-24 00:55:13.852
205.0, -44309.13708318914, -45318.65362151308, -38734.29909161319, -50600.75081595789, -51081.13450779134, -42156.08294678723, 49549.28005329133, 72018.97466408905, 0.096, 0.97, 0.096, 192.0, 0.0, 0.0, 0.0, 0.0, 0.0, 0.0, 0.0, 0.0, 0.0, 1.7297115138578036E9, 0.0, 2024-10-24 00:55:13.857
206.0, -44285.73480674443, -45295.36310379066, -38711.835588435606, -50579.29314128079, -51055.832333067934, -42136.36870817765, 49413.29204002524, 71861.88660405714, 0.096, 0.97, 0.096, 192.0, 0.0, 0.0, 0.0, 0.0, 0.0, 0.0, 0.0, 0.0, 0.0, 1.7297115138617394E9, 0.0, 2024-10-24 00:55:13.861
207.0, -44283.43257706554, -45302.672124227545, -38725.89483569799, -50594.53703099931, -51080.41925196878, -42151.7467083629, 49503.8836603026, 71941.4811660625, 0.096, 0.97, 0.096, 192.0, 0.0, 0.0, 0.0, 0.0, 0.0, 0.0, 0.0, 0.0, 0.0, 1.7297115138657467E9, 0.0, 2024-10-24 00:55:13.865
208.0, -44299.950516218014, -45321.44758957, -38750.43705110992, -50616.039409165314, -51112.046970373034, -42176.22186854146, 49673.8239733963, 72128.22999098658, 0.096, 0.97, 0.096, 192.0, 0.0, 0.0, 0.0, 0.0, 0.0, 0.0, 0.0, 0.0, 0.0, 1.72971151386881E9, 0.0, 2024-10-24 00:55:13.868
209.0, -44328.24782469843, -45339.32898513425, -38765.90445827299, -50627.70701977098, -51118.59603149844, -42184.26849654537, 49715.86760471673, 72195.26287260806, 0.096, 0.97, 0.096, 192.0, 0.0, 0.0, 0.0, 0.0, 0.0, 0.0, 0.0, 0.0, 0.0, 1.7297115138727915E9, 0.0, 2024-10-24 00:55:13.872
210.0, -44323.15162696262, -45322.90045295959, -38749.11829818706, -50608.417464306054, -51096.043121343035, -42155.837077598226, 49558.8465999182, 72039.001827121, 0.10200000000000001, 0.97, 0.096, 192.0, 3.0, 48.0, 30.0, 80.0, 3.0, 0.0, 0.0, 0.0, 0.0, 1.7297115138769276E9, 0.0, 2024-10-24 00:55:13.876
211.0, -44301.693952285525, -45301.80040619378, -38727.347699087586, -50588.792632674296, -51066.06943202847, -42133.44062965401, 49428.04419136575, 71889.37924973718, 0.10200000000000001, 0.97, 0.096, 192.0, 0.0, 0.0, 0.0, 0.0, 0.0, 0.0, 0.0, 0.0, 0.0, 1.7297115138808007E9, 0.0, 2024-10-24 00:55:13.880
212.0, -44291.278039369354, -45303.230917838926, -38733.785001490716, -50600.3931880466, -51081.02274906907, -42145.421164682055, 49512.37732319562, 71963.43057911762, 0.10200000000000001, 0.97, 0.096, 192.0, 0.0, 0.0, 0.0, 0.0, 0.0, 0.0, 0.0, 0.0, 0.0, 1.7297115138859046E9, 0.0, 2024-10-24 00:55:13.885
213.0, -44305.761969776395, -45322.05108667029, -38756.226152923846, -50625.6506592811, -51112.82928142897, -42174.41137724058, 49670.29239777236, 72139.11529053633, 0.10200000000000001, 0.97, 0.096, 192.0, 0.0, 0.0, 0.0, 0.0, 0.0, 0.0, 0.0, 0.0, 0.0, 1.7297115138898635E9, 0.0, 2024-10-24 00:55:13.889
214.0, -44332.91933928959, -45341.675918302055, -38768.161984462975, -50637.295918142314, -51116.673781475285, -42181.072197088266, 49722.193148397586, 72217.05582345198, 0.10200000000000001, 0.97, 0.096, 192.0, 0.0, 0.0, 0.0, 0.0, 0.0, 0.0, 0.0, 0.0, 0.0, 1.7297115138939757E9, 0.0, 2024-10-24 00:55:13.893
215.0, -44330.840627055244, -45333.40577285359, -38752.2475424108, -50624.04133368032, -51095.126699820365, -42161.93910383453, 49573.28582683633, 72066.85210071232, 0.10200000000000001, 0.97, 0.096, 192.0, 0.0, 0.0, 0.0, 0.0, 0.0, 0.0, 0.0, 0.0, 0.0, 1.7297115138969443E9, 0.0, 2024-10-24 00:55:13.896
216.0, -44314.94853674752, -45317.893662201604, -38734.38849859101, -50610.58558351822, -51075.68068214425, -42150.83028684024, 49423.327973285675, 71897.82820914128, 0.10200000000000001, 0.97, 0.096, 192.0, 0.0, 0.0, 0.0, 0.0, 0.0, 0.0, 0.0, 0.0, 0.0, 1.7297115139007895E9, 0.0, 2024-10-24 00:55:13.900
217.0, -44305.49374884293, -45315.390266822615, -38739.95408296038, -50621.4485313235, -51091.416310240784, -42170.27630451635, 49500.285029445295, 71964.74933204048, 0.10200000000000001, 0.97, 0.096, 192.0, 0.0, 0.0, 0.0, 0.0, 0.0, 0.0, 0.0, 0.0, 0.0, 1.729711513904902E9, 0.0, 2024-10-24 00:55:13.904
218.0, -44321.85522578421, -45334.27749088735, -38762.68580707143, -50643.532054845346, -51120.16065361031, -42185.67665644606, 49665.75499364793, 72147.65365691825, 0.10200000000000001, 0.97, 0.096, 192.0, 0.0, 0.0, 0.0, 0.0, 0.0, 0.0, 0.0, 0.0, 0.0, 1.7297115139088447E9, 0.0, 2024-10-24 00:55:13.908
219.0, -44346.576255151784, -45353.768212052375, -38779.04728401271, -50656.04903174032, -51142.244177132154, -42197.18780484054, 49738.8899015057, 72245.06255925448, 0.10200000000000001, 0.97, 0.096, 192.0, 0.0, 0.0, 0.0, 0.0, 0.0, 0.0, 0.0, 0.0, 0.0, 1.7297115139127746E9, 0.0, 2024-10-24 00:55:13.912
220.0, -44334.975699779476, -45334.00926995388, -38758.08134771363, -50632.02090645086, -51111.44347327274, -42175.327798763254, 49562.08760286422, 72066.96385943459, 0.108, 0.972, 0.1, 192.0, 3.0, 96.0, 30.0, 96.0, 3.0, 32.0, 0.0, 0.0, 0.0, 1.729711513917913E9, 0.0, 2024-10-24 00:55:13.917
221.0, -44304.33145813125, -45307.45539754098, -38732.08626891211, -50607.25517359438, -51078.228781012156, -42156.86525784317, 49403.8596038651, 71891.25679627142, 0.108, 0.972, 0.1, 192.0, 0.0, 0.0, 0.0, 0.0, 0.0, 0.0, 0.0, 0.0, 0.0, 1.7297115139218652E9, 0.0, 2024-10-24 00:55:13.921
222.0, -44291.12157715816, -45302.91799341655, -38734.50025731329, -50610.652638751584, -51086.118946804876, -42156.57468516525, 49465.25984588383, 71943.24695387446, 0.108, 0.972, 0.1, 192.0, 0.0, 0.0, 0.0, 0.0, 0.0, 0.0, 0.0, 0.0, 0.0, 1.7297115139248495E9, 0.0, 2024-10-24 00:55:13.924
223.0, -44306.946612232525, -45322.43106632603, -38757.76842329126, -50630.21041514998, -51118.908955920815, -42176.71360691948, 49640.85515032472, 72134.26496198952, 0.108, 0.972, 0.1, 192.0, 0.0, 0.0, 0.0, 0.0, 0.0, 0.0, 0.0, 0.0, 0.0, 1.7297115139288192E9, 0.0, 2024-10-24 00:55:13.928
224.0, -44331.57823462227, -45337.2502728999, -38770.10658623059, -50635.77599951935, -51118.23840358715, -42183.664999445085, 49708.96091568004, 72225.66124506727, 0.108, 0.972, 0.1, 192.0, 0.0, 0.0, 0.0, 0.0, 0.0, 0.0, 0.0, 0.0, 0.0, 1.7297115139328594E9, 0.0, 2024-10-24 00:55:13.932
225.0, -44322.257557184406, -45319.7488569914, -38748.51480108676, -50611.97139167445, -51088.421176483775, -42160.06155730028, 49547.693079435005, 72063.65580125521, 0.108, 0.972, 0.1, 192.0, 0.0, 0.0, 0.0, 0.0, 0.0, 0.0, 0.0, 0.0, 0.0, 1.729711513936902E9, 0.0, 2024-10-24 00:55:13.936
226.0, -44302.6550772971, -45301.57688874923, -38733.04739392369, -50594.78290018832, -51081.02274906907, -42145.979958293436, 49424.19969131943, 71919.21882858501, 0.108, 0.972, 0.1, 192.0, 0.0, 0.0, 0.0, 0.0, 0.0, 0.0, 0.0, 0.0, 0.0, 1.7297115139408329E9, 0.0, 2024-10-24 00:55:13.940
227.0, -44291.65801902509, -45303.834414939214, -38743.776231262236, -50606.897545683096, -51103.240383057644, -42163.28020850184, 49503.39192192459, 71988.26336720746, 0.108, 0.972, 0.1, 192.0, 0.0, 0.0, 0.0, 0.0, 0.0, 0.0, 0.0, 0.0, 0.0, 1.7297115139458776E9, 0.0, 2024-10-24 00:55:13.945
228.0, -44300.88928948514, -45319.97237443595, -38757.34374014661, -50620.867385967664, -51107.17429008178, -42175.81953714127, 49680.01540661042, 72183.6846689802, 0.108, 0.972, 0.1, 192.0, 0.0, 0.0, 0.0, 0.0, 0.0, 0.0, 0.0, 0.0, 0.0, 1.7297115139498255E9, 0.0, 2024-10-24 00:55:13.949
229.0, -44324.559786863305, -45334.88098798764, -38769.503089130296, -50624.82364473625, -51117.00905764211, -42180.78162441035, 49725.07652343232, 72255.38906519284, 0.108, 0.972, 0.1, 192.0, 0.0, 0.0, 0.0, 0.0, 0.0, 0.0, 0.0, 0.0, 0.0, 1.7297115139528613E9, 0.0, 2024-10-24 00:55:13.952
230.0, -44319.955327505515, -45322.095790159205, -38760.02594948125, -50606.22699334944, -51103.530955735565, -42158.988673566426, 49555.113858594166, 72085.7616765215, 0.10200000000000001, 0.968, 0.096, 192.0, 3.0, 48.0, 30.0, 64.0, 3.0, 0.0, 0.0, 0.0, 0.0, 1.7297115139568725E9, 0.0, 2024-10-24 00:55:13.956
231.0, -44302.92329823057, -45305.01905739535, -38746.503144085786, -50588.05502510727, -51083.68260665925, -42134.62527211014, 49451.08883989917, 71962.42475061712, 0.10200000000000001, 0.968, 0.096, 192.0, 0.0, 0.0, 0.0, 0.0, 0.0, 0.0, 0.0, 0.0, 0.0, 1.7297115139608536E9, 0.0, 2024-10-24 00:55:13.960
232.0, -44288.215850378976, -45306.56132776276, -38751.12995518804, -50596.906315911576, -51092.310380019, -42146.02466178234, 49531.59982342718, 72030.93284737263, 0.10200000000000001, 0.968, 0.096, 192.0, 0.0, 0.0, 0.0, 0.0, 0.0, 0.0, 0.0, 0.0, 0.0, 1.7297115139648576E9, 0.0, 2024-10-24 00:55:13.964
233.0, -44303.325629630766, -45332.31053737528, -38773.72756883235, -50623.30372611329, -51121.1664821108, -42173.98669409593, 49700.80252895386, 72215.044166451, 0.10200000000000001, 0.968, 0.096, 192.0, 0.0, 0.0, 0.0, 0.0, 0.0, 0.0, 0.0, 0.0, 0.0, 1.7297115139689105E9, 0.0, 2024-10-24 00:55:13.968
234.0, -44330.68416484406, -45350.706023062, -38787.78681609474, -50632.17736866204, -51126.32973507998, -42180.24518254342, 49776.46318393507, 72314.10709787693, 0.10200000000000001, 0.968, 0.096, 192.0, 0.0, 0.0, 0.0, 0.0, 0.0, 0.0, 0.0, 0.0, 0.0, 1.7297115139738853E9, 0.0, 2024-10-24 00:55:13.973
235.0, -44317.63074608216, -45329.0471826848, -38765.21155419487, -50604.72942647093, -51092.15391780781, -42146.181123993534, 49611.0602749658, 72145.03850281698, 0.10200000000000001, 0.968, 0.096, 192.0, 0.0, 0.0, 0.0, 0.0, 0.0, 0.0, 0.0, 0.0, 0.0, 1.7297115139780962E9, 0.0, 2024-10-24 00:55:13.978
236.0, -44296.68716152754, -45309.95879291997, -38747.687786541916, -50587.69739719599, -51071.94794082022, -42123.96349000496, 49471.764203520324, 71985.33528868381, 0.10200000000000001, 0.968, 0.096, 192.0, 0.0, 0.0, 0.0, 0.0, 0.0, 0.0, 0.0, 0.0, 0.0, 1.7297115139808965E9, 0.0, 2024-10-24 00:55:13.980
237.0, -44282.8514317097, -45310.91991793155, -38753.700405800395, -50604.237688092915, -51091.79628989653, -42147.41046993858, 49549.302405035785, 72051.6082109938, 0.10200000000000001, 0.968, 0.096, 192.0, 0.0, 0.0, 0.0, 0.0, 0.0, 0.0, 0.0, 0.0, 0.0, 1.7297115139848902E9, 0.0, 2024-10-24 00:55:13.984
238.0, -44297.938859217036, -45331.327060619245, -38763.53517336073, -50631.998554706406, -51117.299630320034, -42180.222830798964, 49740.96861374004, 72260.14998676181, 0.10200000000000001, 0.968, 0.096, 192.0, 0.0, 0.0, 0.0, 0.0, 0.0, 0.0, 0.0, 0.0, 0.0, 1.7297115139889627E9, 0.0, 2024-10-24 00:55:13.988
239.0, -44319.97767924997, -45341.11712469067, -38771.939429275924, -50634.74781927441, -51121.52411002209, -42172.42207198407, 49828.83332119386, 72372.17692997181, 0.10200000000000001, 0.968, 0.096, 192.0, 0.0, 0.0, 0.0, 0.0, 0.0, 0.0, 0.0, 0.0, 0.0, 1.7297115139929366E9, 0.0, 2024-10-24 00:55:13.992
240.0, -44305.85137675421, -45312.84216795471, -38748.91713248696, -50603.63419099262, -51091.4610137297, -42139.07326925675, 49648.94648181755, 72189.65258474977, 0.108, 0.97, 0.10200000000000001, 192.0, 3.0, 96.0, 30.0, 80.0, 3.0, 48.0, 0.0, 0.0, 0.0, 1.7297115139969237E9, 0.0, 2024-10-24 00:55:13.996
241.0, -44285.33247534424, -45292.323266544736, -38730.365184589056, -50587.11625184015, -51068.52812391855, -42130.42314415254, 49495.59116310968, 72017.2982832549, 0.108, 0.97, 0.10200000000000001, 192.0, 0.0, 0.0, 0.0, 0.0, 0.0, 0.0, 0.0, 0.0, 0.0, 1.7297115140009372E9, 0.0, 2024-10-24 00:55:14.000
242.0, -44275.92239092856, -45297.62062998064, -38735.95312070288, -50600.72846421343, -51083.77201363707, -42147.365766449664, 49564.70275696549, 72076.41864733919, 0.108, 0.97, 0.10200000000000001, 192.0, 0.0, 0.0, 0.0, 0.0, 0.0, 0.0, 0.0, 0.0, 0.0, 1.7297115140059772E9, 0.0, 2024-10-24 00:55:14.005
243.0, -44296.06131268279, -45324.621537282655, -38764.38453965003, -50629.87513898315, -51119.87008093239, -42176.22186854146, 49760.36992792725, 72287.9108533753, 0.108, 0.97, 0.10200000000000001, 192.0, 0.0, 0.0, 0.0, 0.0, 0.0, 0.0, 0.0, 0.0, 0.0, 1.7297115140089586E9, 0.0, 2024-10-24 00:55:14.008
244.0, -44318.79303679384, -45341.69827004651, -38777.16973747846, -50638.12293268716, -51123.22284260069, -42190.01289487039, 49855.45424884013, 72408.65497692287, 0.108, 0.97, 0.10200000000000001, 192.0, 0.0, 0.0, 0.0, 0.0, 0.0, 0.0, 0.0, 0.0, 0.0, 1.729711514013932E9, 0.0, 2024-10-24 00:55:14.013
245.0, -44305.113769187185, -45317.133702890125, -38753.38748137802, -50604.5953160042, -51094.724368420175, -42154.853600842194, 49691.19127883807, 72242.51446038658, 0.108, 0.97, 0.10200000000000001, 192.0, 0.0, 0.0, 0.0, 0.0, 0.0, 0.0, 0.0, 0.0, 0.0, 1.7297115140169573E9, 0.0, 2024-10-24 00:55:14.016
246.0, -44285.198364877506, -45295.65367646857, -38732.91328345696, -50580.52248722583, -51065.60004539491, -42123.33764116021, 49530.25871875986, 72060.86183319829, 0.108, 0.97, 0.10200000000000001, 192.0, 0.0, 0.0, 0.0, 0.0, 0.0, 0.0, 0.0, 0.0, 0.0, 1.7297115140210028E9, 0.0, 2024-10-24 00:55:14.021
247.0, -44278.44813805201, -45298.313534058754, -38744.42443185144, -50593.330036798725, -51086.118946804876, -42143.945949548004, 49614.614202334196, 72132.90150557774, 0.108, 0.97, 0.10200000000000001, 192.0, 0.0, 0.0, 0.0, 0.0, 0.0, 0.0, 0.0, 0.0, 0.0, 1.7297115140250397E9, 0.0, 2024-10-24 00:55:14.025
248.0, -44298.76587376188, -45320.709982002976, -38774.82280431066, -50618.4981010554, -51120.87590943288, -42172.69029291753, 49808.806158161904, 72343.76786276912, 0.108, 0.97, 0.10200000000000001, 192.0, 0.0, 0.0, 0.0, 0.0, 0.0, 0.0, 0.0, 0.0, 0.0, 1.7297115140290673E9, 0.0, 2024-10-24 00:55:14.029
249.0, -44324.403324652114, -45338.56902582276, -38789.910231817994, -50626.745894759406, -51136.3209648515, -42177.16064180859, 49875.52611536099, 72433.845392924, 0.108, 0.97, 0.10200000000000001, 192.0, 0.0, 0.0, 0.0, 0.0, 0.0, 0.0, 0.0, 0.0, 0.0, 1.729711514033964E9, 0.0, 2024-10-24 00:55:14.033
250.0, -44317.67544957107, -45321.98403143693, -38767.51378387377, -50602.53895551431, -51092.86917363038, -42150.651472884594, 49729.680982790116, 72285.8097893965, 0.106, 0.968, 0.10200000000000001, 192.0, 3.0, 80.0, 30.0, 64.0, 3.0, 48.0, 0.0, 0.0, 0.0, 1.72971151403701E9, 0.0, 2024-10-24 00:55:14.037
251.0, -44298.72117027297, -45307.18717660751, -38748.51480108676, -50586.602161717674, -51066.69528087322, -42131.518379630856, 49596.39753060312, 72132.49917417756, 0.106, 0.968, 0.10200000000000001, 192.0, 0.0, 0.0, 0.0, 0.0, 0.0, 0.0, 0.0, 0.0, 0.0, 1.7297115140401816E9, 0.0, 2024-10-24 00:55:14.040
252.0, -44286.42771082255, -45307.00836265187, -38755.175620934446, -50595.58756298871, -51085.96248459369, -42143.36480419216, 49666.71611865951, 72190.85957895036, 0.106, 0.968, 0.10200000000000001, 192.0, 0.0, 0.0, 0.0, 0.0, 0.0, 0.0, 0.0, 0.0, 0.0, 1.7297115140451462E9, 0.0, 2024-10-24 00:55:14.045
253.0, -44303.795016264325, -45328.64485128461, -38778.46613865688, -50619.682743511534, -51111.44347327274, -42168.24229577092, 49853.621405794795, 72392.02527904812, 0.106, 0.968, 0.10200000000000001, 192.0, 0.0, 0.0, 0.0, 0.0, 0.0, 0.0, 0.0, 0.0, 0.0, 1.729711514049031E9, 0.0, 2024-10-24 00:55:14.049
254.0, -44326.12440897518, -45343.01702296937, -38788.166795750476, -50626.678839526045, -51117.79136869805, -42174.09845281821, 49918.17324378172, 72479.57706207957, 0.106, 0.968, 0.10200000000000001, 192.0, 0.0, 0.0, 0.0, 0.0, 0.0, 0.0, 0.0, 0.0, 0.0, 1.7297115140530593E9, 0.0, 2024-10-24 00:55:14.053
255.0, -44316.78137979286, -45326.52143556136, -38766.485603628826, -50603.27656308134, -51079.86045835739, -42143.07423151425, 49758.537084881915, 72315.78347871108, 0.106, 0.968, 0.10200000000000001, 192.0, 0.0, 0.0, 0.0, 0.0, 0.0, 0.0, 0.0, 0.0, 0.0, 1.7297115140571012E9, 0.0, 2024-10-24 00:55:14.057
0.0, -44301.11280692969, -45314.38443832212, -38752.225190666344, -50591.18426933102, -51068.34930996291, -42131.04899299729, 49637.23416772296, 72174.96748864264, 0.106, 0.968, 0.10200000000000001, 192.0, 0.0, 0.0, 0.0, 0.0, 0.0, 0.0, 0.0, 0.0, 0.0, 1.7297115140620308E9, 0.0, 2024-10-24 00:55:14.062
1.0, -44289.44519632402, -45317.200758123494, -38759.13187970303, -50603.96946715945, -51089.82933638446, -42143.320100703255, 49734.30779389236, 72259.83706233944, 0.106, 0.968, 0.10200000000000001, 192.0, 0.0, 0.0, 0.0, 0.0, 0.0, 0.0, 0.0, 0.0, 0.0, 1.7297115140650897E9, 0.0, 2024-10-24 00:55:14.065
2.0, -44298.832928995245, -45330.85767398569, -38774.8004525662, -50621.96262144597, -51108.135415093355, -42157.088775287724, 49925.32580200741, 72466.12131191746, 0.106, 0.968, 0.10200000000000001, 192.0, 0.0, 0.0, 0.0, 0.0, 0.0, 0.0, 0.0, 0.0, 0.0, 1.7297115140690036E9, 0.0, 2024-10-24 00:55:14.069
3.0, -44331.555882877816, -45352.0024242404, -38796.72751387686, -50640.089886199225, -51130.91184269331, -42179.06054008729, 50008.116663469875, 72571.82271144661, 0.106, 0.968, 0.10200000000000001, 192.0, 0.0, 0.0, 0.0, 0.0, 0.0, 0.0, 0.0, 0.0, 0.0, 1.7297115140730145E9, 0.0, 2024-10-24 00:55:14.073
4.0, -44312.82512102427, -45328.82366524025, -38769.79366180822, -50611.30083934079, -51090.92457186277, -42146.22582748244, 49843.51841730099, 72402.41884021983, 0.112, 0.97, 0.1, 192.0, 3.0, 128.0, 30.0, 80.0, 3.0, 32.0, 0.0, 0.0, 0.0, 1.7297115140770278E9, 0.0, 2024-10-24 00:55:14.077
5.0, -44287.18767013403, -45306.986010907414, -38746.212571407865, -50590.87134490864, -51063.901312816306, -42124.1423039606, 49717.74515125098, 72254.13736750334, 0.112, 0.97, 0.1, 192.0, 0.0, 0.0, 0.0, 0.0, 0.0, 0.0, 0.0, 0.0, 0.0, 1.729711514081038E9, 0.0, 2024-10-24 00:55:14.081
6.0, -44269.686254225526, -45305.19787135099, -38748.738318531316, -50600.34848455769, -51081.20156302471, -42134.804086065786, 49772.12694551074, 72296.44921975723, 0.112, 0.97, 0.1, 192.0, 0.0, 0.0, 0.0, 0.0, 0.0, 0.0, 0.0, 0.0, 0.0, 1.7297115140850527E9, 0.0, 2024-10-24 00:55:14.085
7.0, -44285.73480674443, -45325.806179738785, -38775.04632175521, -50628.22110989346, -51113.99157214064, -42168.95755159349, 49944.03421211651, 72484.31563190409, 0.112, 0.97, 0.1, 192.0, 0.0, 0.0, 0.0, 0.0, 0.0, 0.0, 0.0, 0.0, 0.0, 1.7297115140900128E9, 0.0, 2024-10-24 00:55:14.090
8.0, -44312.601603579715, -45339.53015083434, -38788.792644595225, -50636.35714487519, -51116.76318845311, -42178.50174647591, 50035.13992251634, 72599.09183968209, 0.112, 0.97, 0.1, 192.0, 0.0, 0.0, 0.0, 0.0, 0.0, 0.0, 0.0, 0.0, 0.0, 1.7297115140929992E9, 0.0, 2024-10-24 00:55:14.092
9.0, -44300.9563447185, -45317.51368254587, -38767.111452473575, -50610.78674921832, -51091.34925500742, -42154.42891769754, 49877.13544096178, 72437.55578250358, 0.112, 0.97, 0.1, 192.0, 0.0, 0.0, 0.0, 0.0, 0.0, 0.0, 0.0, 0.0, 0.0, 1.72971151409708E9, 0.0, 2024-10-24 00:55:14.097
10.0, -44279.72218748596, -45295.20664157947, -38748.872428998046, -50588.792632674296, -51072.93141757625, -42130.110219730166, 49738.062886960855, 72278.32195500398, 0.112, 0.97, 0.1, 192.0, 0.0, 0.0, 0.0, 0.0, 0.0, 0.0, 0.0, 0.0, 0.0, 1.729711514101092E9, 0.0, 2024-10-24 00:55:14.101
11.0, -44265.86410592367, -45293.88788865661, -38752.6945772999, -50597.733330456416, -51089.69522591773, -42144.12476350365, 49826.37462930377, 72357.69299956477, 0.112, 0.97, 0.1, 192.0, 0.0, 0.0, 0.0, 0.0, 0.0, 0.0, 0.0, 0.0, 0.0, 1.729711514105059E9, 0.0, 2024-10-24 00:55:14.105
12.0, -44284.32664684375, -45316.48550230092, -38779.09198750162, -50622.275545868346, -51122.08290363347, -42175.14898480761, 50024.969878789176, 72573.49909228076, 0.112, 0.97, 0.1, 192.0, 0.0, 0.0, 0.0, 0.0, 0.0, 0.0, 0.0, 0.0, 0.0, 1.7297115141090677E9, 0.0, 2024-10-24 00:55:14.109
13.0, -44303.34798137522, -45322.989859937414, -38785.28342071574, -50620.44270282301, -51119.98183965467, -42173.47260397347, 50086.32541731899, 72657.72046538835, 0.112, 0.97, 0.1, 192.0, 0.0, 0.0, 0.0, 0.0, 0.0, 0.0, 0.0, 0.0, 0.0, 1.7297115141137004E9, 0.0, 2024-10-24 00:55:14.113
14.0, -44295.65898128259, -45300.571060248745, -38764.250429183296, -50593.598257732185, -51089.315246261984, -42147.54458040531, 49935.71936317914, 72503.49342864675, 0.112, 0.972, 0.10200000000000001, 192.0, 3.0, 128.0, 30.0, 96.0, 3.0, 48.0, 0.0, 0.0, 0.0, 1.729711514118071E9, 0.0, 2024-10-24 00:55:14.118
15.0, -44274.71539672797, -45279.58277220521, -38744.603245807084, -50570.464202220945, -51067.92462681826, -42121.8400742817, 49801.743006914025, 72351.00982797264, 0.112, 0.972, 0.10200000000000001, 192.0, 0.0, 0.0, 0.0, 0.0, 0.0, 0.0, 0.0, 0.0, 0.0, 1.7297115141210864E9, 0.0, 2024-10-24 00:55:14.121
16.0, -44266.6464169796, -45285.52833623032, -38754.5497720897, -50584.34463552769, -51093.71853991968, -42138.60388262318, 49863.478525099585, 72404.18462803181, 0.112, 0.972, 0.10200000000000001, 192.0, 0.0, 0.0, 0.0, 0.0, 0.0, 0.0, 0.0, 0.0, 0.0, 1.7297115141241453E9, 0.0, 2024-10-24 00:55:14.124
17.0, -44289.3557893462, -45310.2940690868, -38782.377693936556, -50613.6477725086, -51124.04985714553, -42176.467737730476, 50046.87458835538, 72606.4902670968, 0.112, 0.972, 0.10200000000000001, 192.0, 0.0, 0.0, 0.0, 0.0, 0.0, 0.0, 0.0, 0.0, 0.0, 1.7297115141290925E9, 0.0, 2024-10-24 00:55:14.129
18.0, -44313.27215591337, -45322.855749470684, -38790.93841206293, -50617.62638302164, -51118.126644864875, -42176.803013897304, 50131.095961462976, 72715.1644486385, 0.112, 0.972, 0.10200000000000001, 192.0, 0.0, 0.0, 0.0, 0.0, 0.0, 0.0, 0.0, 0.0, 0.0, 1.7297115141330972E9, 0.0, 2024-10-24 00:55:14.133
19.0, -44305.31493488728, -45303.499138772386, -38768.944295518915, -50591.519545497846, -51100.58052546746, -42137.32983318923, 49980.75812825658, 72560.7809496857, 0.112, 0.972, 0.10200000000000001, 192.0, 0.0, 0.0, 0.0, 0.0, 0.0, 0.0, 0.0, 0.0, 0.0, 1.7297115141371064E9, 0.0, 2024-10-24 00:55:14.137
20.0, -44280.50449854189, -45279.82864139422, -38741.42929809443, -50568.54195219779, -51065.17536225026, -42116.16273119006, 49834.28714684095, 72393.12051452644, 0.112, 0.972, 0.10200000000000001, 192.0, 0.0, 0.0, 0.0, 0.0, 0.0, 0.0, 0.0, 0.0, 0.0, 1.7297115141411629E9, 0.0, 2024-10-24 00:55:14.141
21.0, -44272.413167049075, -45287.36117927566, -38750.23588540982, -50584.90342913907, -51081.715653147185, -42138.8944553011, 49911.82534835641, 72458.63347752494, 0.112, 0.972, 0.10200000000000001, 192.0, 0.0, 0.0, 0.0, 0.0, 0.0, 0.0, 0.0, 0.0, 0.0, 1.7297115141461256E9, 0.0, 2024-10-24 00:55:14.146
22.0, -44287.500594556404, -45319.48063605793, -38783.115301503574, -50619.749798744895, -51122.59699375594, -42170.67863591655, 50124.18927242629, 72687.09065760263, 0.112, 0.972, 0.10200000000000001, 192.0, 0.0, 0.0, 0.0, 0.0, 0.0, 0.0, 0.0, 0.0, 0.0, 1.7297115141491308E9, 0.0, 2024-10-24 00:55:14.149
23.0, -44307.61716456618, -45333.74104902042, -38790.02199054027, -50626.745894759406, -51118.05958963151, -42173.76317665138, 50206.801319933096, 72793.5296646988, 0.112, 0.972, 0.10200000000000001, 192.0, 0.0, 0.0, 0.0, 0.0, 0.0, 0.0, 0.0, 0.0, 0.0, 1.7297115141521146E9, 0.0, 2024-10-24 00:55:14.152
24.0, -44302.878594741655, -45313.557423777274, -38768.72077807436, -50603.5447840148, -51089.87403987337, -42144.638853626115, 50061.40322225133, 72644.17530824844, 0.108, 0.976, 0.10200000000000001, 192.0, 3.0, 96.0, 30.0, 128.0, 3.0, 48.0, 0.0, 0.0, 0.0, 1.7297115141571481E9, 0.0, 2024-10-24 00:55:14.157
25.0, -44281.8008997203, -45290.57983047722, -38747.48662084182, -50585.17165007254, -51071.232684997645, -42127.71858307345, 49922.21890952813, 72481.63342256944, 0.108, 0.976, 0.10200000000000001, 192.0, 0.0, 0.0, 0.0, 0.0, 0.0, 0.0, 0.0, 0.0, 0.0, 1.7297115141611743E9, 0.0, 2024-10-24 00:55:14.161
26.0, -44272.34611181571, -45294.06670261225, -38753.834516267125, -50599.56617350176, -51090.164612551285, -42145.01883328186, 49991.7998900175, 72537.870411619, 0.108, 0.976, 0.10200000000000001, 192.0, 0.0, 0.0, 0.0, 0.0, 0.0, 0.0, 0.0, 0.0, 0.0, 1.729711514165164E9, 0.0, 2024-10-24 00:55:14.165
27.0, -44285.64539976662, -45313.93740343302, -38772.20765020939, -50619.749798744895, -51109.70003720523, -42163.794298624314, 50167.46224969176, 72729.87189649009, 0.108, 0.976, 0.10200000000000001, 192.0, 0.0, 0.0, 0.0, 0.0, 0.0, 0.0, 0.0, 0.0, 0.0, 1.7297115141691246E9, 0.0, 2024-10-24 00:55:14.169
28.0, -44312.82512102427, -45330.16476990757, -38785.372827693565, -50629.4504558385, -51118.8642524319, -42174.47843247395, 50246.006279707704, 72831.12529887263, 0.108, 0.976, 0.10200000000000001, 192.0, 0.0, 0.0, 0.0, 0.0, 0.0, 0.0, 0.0, 0.0, 0.0, 1.729711514174199E9, 0.0, 2024-10-24 00:55:14.174
29.0, -44306.030190709855, -45311.03167665382, -38765.85975478408, -50604.03652239282, -51091.0586823295, -42142.98482453643, 50096.42840581279, 72679.46871274337, 0.108, 0.976, 0.10200000000000001, 192.0, 0.0, 0.0, 0.0, 0.0, 0.0, 0.0, 0.0, 0.0, 0.0, 1.7297115141771414E9, 0.0, 2024-10-24 00:55:14.177
30.0, -44291.076873669255, -45296.05600786877, -38751.465231354865, -50589.15026058558, -51073.311397231984, -42126.19866445049, 49960.149819868784, 72520.8160305996, 0.108, 0.976, 0.10200000000000001, 192.0, 0.0, 0.0, 0.0, 0.0, 0.0, 0.0, 0.0, 0.0, 0.0, 1.7297115141824913E9, 0.0, 2024-10-24 00:55:14.182
31.0, -44276.1012048842, -45298.42529278103, -38753.85686801158, -50603.72359797044, -51086.70009216072, -42150.87499032915, 50030.490759669636, 72578.41647606093, 0.108, 0.976, 0.10200000000000001, 192.0, 0.0, 0.0, 0.0, 0.0, 0.0, 0.0, 0.0, 0.0, 0.0, 1.7297115141852007E9, 0.0, 2024-10-24 00:55:14.185
32.0, -44293.55791730379, -45319.7488569914, -38775.04632175521, -50628.131702915634, -51114.32684830748, -42173.651417929104, 50222.31343058508, 72788.36641172963, 0.108, 0.976, 0.10200000000000001, 192.0, 0.0, 0.0, 0.0, 0.0, 0.0, 0.0, 0.0, 0.0, 0.0, 1.7297115141892004E9, 0.0, 2024-10-24 00:55:14.189
33.0, -44319.64240308314, -45336.289147888325, -38788.88205157305, -50635.88775824163, -51124.38513331237, -42179.77579590986, 50297.750568121744, 72888.79279956732, 0.108, 0.976, 0.10200000000000001, 192.0, 0.0, 0.0, 0.0, 0.0, 0.0, 0.0, 0.0, 0.0, 0.0, 1.7297115141931674E9, 0.0, 2024-10-24 00:55:14.193
34.0, -44309.22649016696, -45319.05595291328, -38771.58180136464, -50615.61472602066, -51110.88467966136, -42164.82247886926, 50129.911319006846, 72717.04199517274, 0.106, 0.974, 0.10400000000000001, 192.0, 3.0, 80.0, 30.0, 112.0, 3.0, 64.0, 0.0, 0.0, 0.0, 1.72971151419722E9, 0.0, 2024-10-24 00:55:14.197
35.0, -44287.21002187848, -45299.40876953707, -38749.83355400962, -50595.78872868881, -51077.3570629784, -42135.139362232614, 49989.74352952761, 72555.23771706078, 0.106, 0.974, 0.10400000000000001, 192.0, 0.0, 0.0, 0.0, 0.0, 0.0, 0.0, 0.0, 0.0, 0.0, 1.72971151420222E9, 0.0, 2024-10-24 00:55:14.202
36.0, -44275.207135105986, -45300.63811548211, -38751.6440453105, -50603.72359797044, -51086.945961349724, -42139.22973146793, 50087.44300454176, 72639.36968319055, 0.106, 0.974, 0.10400000000000001, 192.0, 0.0, 0.0, 0.0, 0.0, 0.0, 0.0, 0.0, 0.0, 0.0, 1.7297115142052078E9, 0.0, 2024-10-24 00:55:14.205
37.0, -44296.28483012734, -45327.77313325085, -38778.71200784588, -50633.27260414036, -51114.77388319658, -42177.16064180859, 50283.221934225796, 72850.92894446003, 0.106, 0.974, 0.10400000000000001, 192.0, 0.0, 0.0, 0.0, 0.0, 0.0, 0.0, 0.0, 0.0, 0.0, 1.729711514210212E9, 0.0, 2024-10-24 00:55:14.210
38.0, -44324.984470007956, -45346.570950337766, -38789.977287051355, -50641.274528655355, -51115.35502855242, -42185.69900819052, 50372.5395050692, 72961.41361730262, 0.106, 0.974, 0.10400000000000001, 192.0, 0.0, 0.0, 0.0, 0.0, 0.0, 0.0, 0.0, 0.0, 0.0, 1.7297115142132325E9, 0.0, 2024-10-24 00:55:14.213
39.0, -44319.39653389413, -45328.35427860669, -38774.48752814383, -50616.888775454616, -51094.83612714245, -42160.46388870048, 50215.58555550403, 72798.26823452333, 0.106, 0.974, 0.10400000000000001, 192.0, 0.0, 0.0, 0.0, 0.0, 0.0, 0.0, 0.0, 0.0, 0.0, 1.7297115142172227E9, 0.0, 2024-10-24 00:55:14.217
40.0, -44288.685237012534, -45301.263964326856, -38748.738318531316, -50592.16774608705, -51074.04900479901, -42132.81478080926, 50087.890039430866, 72645.78463384922, 0.106, 0.974, 0.10400000000000001, 192.0, 0.0, 0.0, 0.0, 0.0, 0.0, 0.0, 0.0, 0.0, 0.0, 1.7297115142212825E9, 0.0, 2024-10-24 00:55:14.221
41.0, -44275.63181825064, -45296.3912840356, -38751.71110054387, -50600.10261536868, -51090.74575790713, -42143.56596989226, 50160.801429844076, 72704.50266653331, 0.106, 0.974, 0.10400000000000001, 192.0, 0.0, 0.0, 0.0, 0.0, 0.0, 0.0, 0.0, 0.0, 0.0, 1.7297115142252026E9, 0.0, 2024-10-24 00:55:14.225
42.0, -44290.71924575797, -45313.95975517747, -38772.16294672048, -50622.700229013, -51114.25979307411, -42166.878839359146, 50336.79906568516, 72894.8054188258, 0.106, 0.974, 0.10400000000000001, 192.0, 0.0, 0.0, 0.0, 0.0, 0.0, 0.0, 0.0, 0.0, 0.0, 1.7297115142292747E9, 0.0, 2024-10-24 00:55:14.229
43.0, -44315.21675768099, -45332.35524086419, -38785.35047594911, -50633.11614192917, -51121.635868744364, -42174.97017085197, 50420.52870041475, 72999.99272823248, 0.106, 0.974, 0.10400000000000001, 192.0, 0.0, 0.0, 0.0, 0.0, 0.0, 0.0, 0.0, 0.0, 0.0, 1.7297115142333035E9, 0.0, 2024-10-24 00:55:14.233
44.0, -44307.66186805509, -45312.506891787874, -38764.473946627855, -50608.01513290586, -51087.951789850216, -42143.83419082573, 50259.48438161426, 72831.54998201728, 0.106, 0.972, 0.10200000000000001, 192.0, 3.0, 80.0, 30.0, 96.0, 3.0, 48.0, 0.0, 0.0, 0.0, 1.7297115142362964E9, 0.0, 2024-10-24 00:55:14.236
45.0, -44287.21002187848, -45289.68576069901, -38744.469135340354, -50586.333940784214, -51067.83521984044, -42122.91295801556, 50127.34086839448, 72675.7583231638, 0.106, 0.972, 0.10200000000000001, 192.0, 0.0, 0.0, 0.0, 0.0, 0.0, 0.0, 0.0, 0.0, 0.0, 1.7297115142403057E9, 0.0, 2024-10-24 00:55:14.240
46.0, -44275.900039184104, -45292.25621131137, -38750.30294064319, -50596.21341183346, -51080.97804558016, -42138.983862278925, 50228.393105076924, 72762.79601607275, 0.106, 0.972, 0.10200000000000001, 192.0, 0.0, 0.0, 0.0, 0.0, 0.0, 0.0, 0.0, 0.0, 0.0, 1.7297115142452796E9, 0.0, 2024-10-24 00:55:14.245
47.0, -44296.173071405065, -45315.233804611424, -38775.26983919976, -50620.5991650342, -51108.560098238006, -42165.64949341411, 50405.41892116296, 72955.19983234403, 0.106, 0.972, 0.10200000000000001, 192.0, 0.0, 0.0, 0.0, 0.0, 0.0, 0.0, 0.0, 0.0, 0.0, 1.7297115142492516E9, 0.0, 2024-10-24 00:55:14.249
48.0, -44321.698763573026, -45331.37176410815, -38787.608002139095, -50630.56804306126, -51120.5629850105, -42173.807880140295, 50473.569390007186, 73043.39981596469, 0.106, 0.972, 0.10200000000000001, 192.0, 0.0, 0.0, 0.0, 0.0, 0.0, 0.0, 0.0, 0.0, 0.0, 1.729711514253306E9, 0.0, 2024-10-24 00:55:14.253
49.0, -44314.143873947134, -45310.271717342344, -38769.23486819683, -50607.165766616556, -51094.0091125976, -42145.82349608225, 50321.376362011004, 72882.46725588647, 0.106, 0.972, 0.10200000000000001, 192.0, 0.0, 0.0, 0.0, 0.0, 0.0, 0.0, 0.0, 0.0, 0.0, 1.7297115142573931E9, 0.0, 2024-10-24 00:55:14.257
50.0, -44295.9048504716, -45287.62940020912, -38753.92392324495, -50592.43596702051, -51075.50186818861, -42138.089792500716, 50188.36113075747, 72725.78152725477, 0.106, 0.972, 0.10200000000000001, 192.0, 0.0, 0.0, 0.0, 0.0, 0.0, 0.0, 0.0, 0.0, 0.0, 1.729711514261282E9, 0.0, 2024-10-24 00:55:14.261
51.0, -44289.33343760174, -45290.24455431039, -38764.27278092776, -50609.8479759512, -51093.606781197406, -42159.1004322887, 50271.50962013121, 72796.52479845581, 0.106, 0.972, 0.10200000000000001, 192.0, 0.0, 0.0, 0.0, 0.0, 0.0, 0.0, 0.0, 0.0, 0.0, 1.7297115142644267E9, 0.0, 2024-10-24 00:55:14.264
52.0, -44301.29162088533, -45312.05985689877, -38785.663400371486, -50636.02186870836, -51118.417217542796, -42181.67569418856, 50476.98920690885, 73015.86246679575, 0.106, 0.972, 0.10200000000000001, 192.0, 0.0, 0.0, 0.0, 0.0, 0.0, 0.0, 0.0, 0.0, 0.0, 1.7297115142683375E9, 0.0, 2024-10-24 00:55:14.268
53.0, -44330.14772297713, -45333.51753157587, -38804.34945873612, -50650.84107528223, -51139.2713951196, -42193.991505383434, 50550.03470778879, 73110.96913945308, 0.106, 0.972, 0.10200000000000001, 192.0, 0.0, 0.0, 0.0, 0.0, 0.0, 0.0, 0.0, 0.0, 0.0, 1.7297115142732482E9, 0.0, 2024-10-24 00:55:14.273
54.0, -44318.56951934928, -45310.629345253634, -38780.07546425766, -50623.25902262438, -51114.863290174406, -42162.900228846105, 50377.54629582719, 72931.99872159943, 0.106, 0.968, 0.1, 192.0, 3.0, 80.0, 30.0, 64.0, 3.0, 32.0, 0.0, 0.0, 0.0, 1.7297115142772932E9, 0.0, 2024-10-24 00:55:14.277
55.0, -44293.021475436864, -45286.98119961991, -38749.47592609834, -50598.73915895691, -51075.12188853287, -42137.75451633388, 50249.49315184273, 72779.85039709216, 0.106, 0.968, 0.1, 192.0, 0.0, 0.0, 0.0, 0.0, 0.0, 0.0, 0.0, 0.0, 0.0, 1.7297115142813203E9, 0.0, 2024-10-24 00:55:14.281
56.0, -44284.68427475504, -45289.663408954555, -38755.779118034734, -50609.199775361994, -51091.215144540685, -42150.56206590677, 50329.62415571501, 72845.40806357957, 0.106, 0.968, 0.1, 192.0, 0.0, 0.0, 0.0, 0.0, 0.0, 0.0, 0.0, 0.0, 0.0, 1.729711514285316E9, 0.0, 2024-10-24 00:55:14.285
57.0, -44296.933030716544, -45310.2940690868, -38772.16294672048, -50633.07143844026, -51105.18498482525, -42180.20047905451, 50514.62954457159, 73044.3385892318, 0.106, 0.968, 0.1, 192.0, 0.0, 0.0, 0.0, 0.0, 0.0, 0.0, 0.0, 0.0, 0.0, 1.729711514289287E9, 0.0, 2024-10-24 00:55:14.289
58.0, -44325.23033919696, -45327.59431929521, -38785.998676538315, -50642.52622634485, -51112.896336662336, -42189.49880474792, 50603.72359797044, 73151.17992772817, 0.106, 0.968, 0.1, 192.0, 0.0, 0.0, 0.0, 0.0, 0.0, 0.0, 0.0, 0.0, 0.0, 1.729711514292308E9, 0.0, 2024-10-24 00:55:14.292
59.0, -44318.83774028275, -45308.43887429701, -38767.603190851594, -50618.36399058867, -51091.438661985245, -42161.91675209007, 50459.13016308906, 72997.1764084311, 0.106, 0.968, 0.1, 192.0, 0.0, 0.0, 0.0, 0.0, 0.0, 0.0, 0.0, 0.0, 0.0, 1.7297115142963784E9, 0.0, 2024-10-24 00:55:14.296
60.0, -44294.87667022666, -45280.074510583225, -38743.75387951778, -50591.11721409765, -51064.81773433897, -42130.95958601947, 50315.028466585696, 72828.37603430463, 0.106, 0.968, 0.1, 192.0, 0.0, 0.0, 0.0, 0.0, 0.0, 0.0, 0.0, 0.0, 0.0, 1.7297115143013008E9, 0.0, 2024-10-24 00:55:14.301
61.0, -44287.9029259566, -45280.14156581659, -38752.87339125555, -50603.70124622599, -51084.219048526174, -42150.74087986242, 50392.968999501354, 72890.67034610157, 0.106, 0.968, 0.1, 192.0, 0.0, 0.0, 0.0, 0.0, 0.0, 0.0, 0.0, 0.0, 0.0, 1.7297115143053703E9, 0.0, 2024-10-24 00:55:14.305
62.0, -44305.98548722095, -45297.419464280545, -38777.616772367575, -50624.242499380416, -51114.282144818564, -42173.6067144402, 50575.985083101405, 73085.71166821857, 0.106, 0.968, 0.1, 192.0, 0.0, 0.0, 0.0, 0.0, 0.0, 0.0, 0.0, 0.0, 0.0, 1.7297115143093424E9, 0.0, 2024-10-24 00:55:14.309
63.0, -44323.464551385, -45308.57298476374, -38784.165833492974, -50625.337734858724, -51116.89729891984, -42168.82344112676, 50659.178275964056, 73187.21093979012, 0.106, 0.968, 0.1, 192.0, 0.0, 0.0, 0.0, 0.0, 0.0, 0.0, 0.0, 0.0, 0.0, 1.7297115143133793E9, 0.0, 2024-10-24 00:55:14.313
64.0, -44317.18371119305, -45292.591487478196, -38762.775214049245, -50602.896583425594, -51086.118946804876, -42143.588321636715, 50517.57997483969, 73034.8838013272, 0.106, 0.968, 0.1, 192.0, 0.0, 0.0, 0.0, 0.0, 0.0, 0.0, 0.0, 0.0, 0.0, 1.7297115143173332E9, 0.0, 2024-10-24 00:55:14.317
65.0, -44305.78432152085, -45279.09103382719, -38747.10664118608, -50588.72557744093, -51068.68458612974, -42127.606824351176, 50401.708531583376, 72891.96674727998, 0.112, 0.968, 0.098, 192.0, 3.0, 128.0, 30.0, 64.0, 3.0, 16.0, 0.0, 0.0, 0.0, 1.729711514320402E9, 0.0, 2024-10-24 00:55:14.320
66.0, -44292.552088803306, -45277.280542526314, -38748.55950457567, -50595.5428594998, -51077.69233914523, -42138.983862278925, 50464.40517478051, 72941.63232345966, 0.112, 0.968, 0.098, 192.0, 0.0, 0.0, 0.0, 0.0, 0.0, 0.0, 0.0, 0.0, 0.0, 1.7297115143244011E9, 0.0, 2024-10-24 00:55:14.324
67.0, -44309.248841911416, -45299.85580442617, -38772.788795565226, -50624.48836856942, -51112.27048781759, -42176.28892377483, 50622.65552552409, 73113.18196215415, 0.112, 0.968, 0.098, 192.0, 0.0, 0.0, 0.0, 0.0, 0.0, 0.0, 0.0, 0.0, 0.0, 1.7297115143294094E9, 0.0, 2024-10-24 00:55:14.329
68.0, -44334.215740468, -45315.83730171172, -38782.31063870319, -50631.775037261854, -51109.54357499404, -42176.043054585825, 50686.53681117736, 73196.41985850572, 0.112, 0.968, 0.098, 192.0, 0.0, 0.0, 0.0, 0.0, 0.0, 0.0, 0.0, 0.0, 0.0, 1.729711514333489E9, 0.0, 2024-10-24 00:55:14.333
69.0, -44325.52091187488, -45295.184289835015, -38759.4001006365, -50604.14828111509, -51081.648597913816, -42134.20058896549, 50549.61002464414, 73048.63012416722, 0.112, 0.968, 0.098, 192.0, 0.0, 0.0, 0.0, 0.0, 0.0, 0.0, 0.0, 0.0, 0.0, 1.729711514337495E9, 0.0, 2024-10-24 00:55:14.337
70.0, -44312.82512102427, -45277.347597759675, -38746.771365019245, -50592.279504809325, -51073.043176298524, -42124.455228382976, 50453.721040930875, 72924.712052907, 0.112, 0.968, 0.098, 192.0, 0.0, 0.0, 0.0, 0.0, 0.0, 0.0, 0.0, 0.0, 0.0, 1.7297115143416348E9, 0.0, 2024-10-24 00:55:14.341
71.0, -44298.94468771752, -45274.82185063623, -38751.1970104214, -50604.64001949311, -51086.610685182895, -42147.030490282836, 50534.99198377037, 72990.96262347253, 0.112, 0.968, 0.098, 192.0, 0.0, 0.0, 0.0, 0.0, 0.0, 0.0, 0.0, 0.0, 0.0, 1.729711514345471E9, 0.0, 2024-10-24 00:55:14.345
72.0, -44310.43348436755, -45293.39615027859, -38768.944295518915, -50628.17640640455, -51102.72629293517, -42176.98182785295, 50713.493014990454, 73182.53942519896, 0.112, 0.968, 0.098, 192.0, 0.0, 0.0, 0.0, 0.0, 0.0, 0.0, 0.0, 0.0, 0.0, 1.7297115143485796E9, 0.0, 2024-10-24 00:55:14.348
73.0, -44332.874635800676, -45305.466092284456, -38775.67217059996, -50630.97037446146, -51104.04504585804, -42174.18785979603, 50796.08271075282, 73283.7481240926, 0.112, 0.968, 0.098, 192.0, 0.0, 0.0, 0.0, 0.0, 0.0, 0.0, 0.0, 0.0, 0.0, 1.7297115143526928E9, 0.0, 2024-10-24 00:55:14.352
74.0, -44318.81538853829, -45280.856821639165, -38748.58185632013, -50599.32030431274, -51073.98194956565, -42134.513513387865, 50642.77209553386, 73118.68049129016, 0.112, 0.968, 0.098, 192.0, 0.0, 0.0, 0.0, 0.0, 0.0, 0.0, 0.0, 0.0, 0.0, 1.7297115143564465E9, 0.0, 2024-10-24 00:55:14.356
75.0, -44298.60941155069, -45260.5837894182, -38728.55469328817, -50582.37768201562, -51056.01114702358, -42122.130646959624, 50518.027009728794, 72966.50981503843, 0.106, 0.968, 0.10200000000000001, 192.0, 3.0, 80.0, 30.0, 64.0, 3.0, 48.0, 0.0, 0.0, 0.0, 1.7297115143614078E9, 0.0, 2024-10-24 00:55:14.361
76.0, -44284.39370207712, -45263.5342196863, -38734.9919956913, -50597.06277812276, -51074.58544666594, -42143.185990236525, 50608.998609661896, 73040.60584790776, 0.106, 0.968, 0.10200000000000001, 192.0, 0.0, 0.0, 0.0, 0.0, 0.0, 0.0, 0.0, 0.0, 0.0, 1.7297115143654687E9, 0.0, 2024-10-24 00:55:14.365
77.0, -44299.5034813289, -45283.67314144053, -38756.87435351305, -50619.77215048935, -51092.04215908553, -42168.04113007082, 50806.31980971334, 73251.22633591012, 0.106, 0.968, 0.10200000000000001, 192.0, 0.0, 0.0, 0.0, 0.0, 0.0, 0.0, 0.0, 0.0, 0.0, 1.7297115143695328E9, 0.0, 2024-10-24 00:55:14.369
78.0, -44317.87661527117, -45291.42919676652, -38762.10466171559, -50620.934441201025, -51093.27150503058, -42169.78456613834, 50878.53829604844, 73340.36509279789, 0.106, 0.968, 0.10200000000000001, 192.0, 0.0, 0.0, 0.0, 0.0, 0.0, 0.0, 0.0, 0.0, 0.0, 1.729711514372589E9, 0.0, 2024-10-24 00:55:14.372
79.0, -44301.11280692969, -45261.09787954067, -38726.76655373175, -50586.2892372953, -51053.127771988846, -42133.194760465, 50708.70974167702, 73158.57835514288, 0.106, 0.968, 0.10200000000000001, 192.0, 0.0, 0.0, 0.0, 0.0, 0.0, 0.0, 0.0, 0.0, 0.0, 1.7297115143765745E9, 0.0, 2024-10-24 00:55:14.376
80.0, -44286.4053590781, -45243.77527758781, -38706.04648662168, -50567.82669637522, -51032.13948394531, -42113.748742788885, 50575.694510423484, 72997.84696076477, 0.106, 0.968, 0.10200000000000001, 192.0, 0.0, 0.0, 0.0, 0.0, 0.0, 0.0, 0.0, 0.0, 0.0, 1.7297115143814175E9, 0.0, 2024-10-24 00:55:14.381
81.0, -44276.592943262214, -45247.17274274502, -38714.830722192615, -50580.05310059227, -51053.1501237333, -42131.160751719566, 50666.46494465649, 73070.78070292244, 0.106, 0.968, 0.10200000000000001, 192.0, 0.0, 0.0, 0.0, 0.0, 0.0, 0.0, 0.0, 0.0, 0.0, 1.7297115143845243E9, 0.0, 2024-10-24 00:55:14.384
82.0, -44289.57930679075, -45268.697472655476, -38738.255350381776, -50604.21533634846, -51082.475612458664, -42159.949798578, 50861.52861851795, 73275.70149608869, 0.106, 0.968, 0.10200000000000001, 192.0, 0.0, 0.0, 0.0, 0.0, 0.0, 0.0, 0.0, 0.0, 0.0, 1.729711514389577E9, 0.0, 2024-10-24 00:55:14.389
83.0, -44309.20413842251, -45277.01232159285, -38746.16786791896, -50602.136624114115, -51087.63886542784, -42155.144173520115, 50923.88998554826, 73356.70421799472, 0.106, 0.968, 0.10200000000000001, 192.0, 0.0, 0.0, 0.0, 0.0, 0.0, 0.0, 0.0, 0.0, 0.0, 1.7297115143936155E9, 0.0, 2024-10-24 00:55:14.393
84.0, -44299.48112958445, -45254.32530097071, -38720.39630656198, -50572.34174875519, -51047.00339400809, -42123.605862093675, 50760.677547535604, 73182.20414903214, 0.106, 0.968, 0.10200000000000001, 192.0, 0.0, 0.0, 0.0, 0.0, 0.0, 0.0, 0.0, 0.0, 0.0, 1.729711514397509E9, 0.0, 2024-10-24 00:55:14.397
85.0, -44286.07008291127, -45235.70629783944, -38705.62180347703, -50556.29319623628, -51031.13365544482, -42111.04418170979, 50627.88583372663, 73020.33281568681, 0.106, 0.964, 0.106, 192.0, 3.0, 80.0, 30.0, 32.0, 3.0, 80.0, 0.0, 0.0, 0.0, 1.7297115144004893E9, 0.0, 2024-10-24 00:55:14.400
86.0, -44278.29167584082, -45239.19316997447, -38717.33411757161, -50572.185286544, -51059.60977788088, -42133.50768488737, 50729.11688436472, 73103.19073238263, 0.106, 0.964, 0.106, 192.0, 0.0, 0.0, 0.0, 0.0, 0.0, 0.0, 0.0, 0.0, 0.0, 1.7297115144045951E9, 0.0, 2024-10-24 00:55:14.404
87.0, -44299.63759179564, -45262.595446419175, -38741.63046379453, -50599.52147001284, -51072.976121065156, -42166.14123179212, 50920.783093068974, 73306.03281331454, 0.106, 0.964, 0.106, 192.0, 0.0, 0.0, 0.0, 0.0, 0.0, 0.0, 0.0, 0.0, 0.0, 1.729711514408586E9, 0.0, 2024-10-24 00:55:14.408
88.0, -44319.64240308314, -45276.43117623701, -38749.11829818706, -50604.77412995984, -51084.1072898039, -42161.31325498978, 50996.354341072365, 73398.65844233733, 0.106, 0.964, 0.106, 192.0, 0.0, 0.0, 0.0, 0.0, 0.0, 0.0, 0.0, 0.0, 0.0, 1.7297115144126067E9, 0.0, 2024-10-24 00:55:14.412
89.0, -44308.15360643311, -45253.49828642586, -38724.08434439711, -50574.97925460092, -51053.328937688944, -42113.23465266641, 50842.19435956411, 73234.90956245775, 0.106, 0.964, 0.106, 192.0, 0.0, 0.0, 0.0, 0.0, 0.0, 0.0, 0.0, 0.0, 0.0, 1.7297115144175851E9, 0.0, 2024-10-24 00:55:14.417
90.0, -44288.93110620155, -45232.7782193158, -38704.52656799872, -50558.237798003895, -51031.91596650076, -42101.455283338466, 50697.6679799161, 73062.17528130714, 0.106, 0.964, 0.106, 192.0, 0.0, 0.0, 0.0, 0.0, 0.0, 0.0, 0.0, 0.0, 0.0, 1.7297115144216435E9, 0.0, 2024-10-24 00:55:14.421
91.0, -44281.353864831195, -45237.76265832933, -38711.27679482422, -50575.89567612358, -51050.467914398665, -42127.606824351176, 50778.5365913554, 73125.27425590447, 0.106, 0.964, 0.106, 192.0, 0.0, 0.0, 0.0, 0.0, 0.0, 0.0, 0.0, 0.0, 0.0, 1.7297115144257758E9, 0.0, 2024-10-24 00:55:14.425
92.0, -44295.837795238236, -45257.67806263901, -38728.15236188798, -50598.87326942364, -51069.86922858587, -42145.75644084888, 50967.18531455819, 73325.14355482382, 0.106, 0.964, 0.106, 192.0, 0.0, 0.0, 0.0, 0.0, 0.0, 0.0, 0.0, 0.0, 0.0, 1.729711514428712E9, 0.0, 2024-10-24 00:55:14.428
93.0, -44319.530644360864, -45269.792708133784, -38730.342832844595, -50603.96946715945, -51068.237551240636, -42144.81766758176, 51047.40572540829, 73423.44652693826, 0.106, 0.964, 0.106, 192.0, 0.0, 0.0, 0.0, 0.0, 0.0, 0.0, 0.0, 0.0, 0.0, 1.7297115144346972E9, 0.0, 2024-10-24 00:55:14.434
94.0, -44314.277984413864, -45251.26311198033, -38709.89098666799, -50583.20469656047, -51038.8450072819, -42124.25406268288, 50911.99885749804, 73277.80256006749, 0.106, 0.964, 0.106, 192.0, 0.0, 0.0, 0.0, 0.0, 0.0, 0.0, 0.0, 0.0, 0.0, 1.7297115144385548E9, 0.0, 2024-10-24 00:55:14.438
95.0, -44299.92816447355, -45233.00173676035, -38698.402190017965, -50570.35244349867, -51025.72453328664, -42113.59228057769, 50787.49964088198, 73126.8612297608, 0.11, 0.968, 0.10400000000000001, 192.0, 3.0, 112.0, 30.0, 64.0, 3.0, 64.0, 0.0, 0.0, 0.0, 1.7297115144425719E9, 0.0, 2024-10-24 00:55:14.442
96.0, -44287.00885617839, -45233.8287513052, -38705.97943138831, -50583.62937970512, -51045.639937596316, -42130.110219730166, 50859.472258028065, 73182.24885252105, 0.11, 0.968, 0.10400000000000001, 192.0, 0.0, 0.0, 0.0, 0.0, 0.0, 0.0, 0.0, 0.0, 0.0, 1.729711514445558E9, 0.0, 2024-10-24 00:55:14.445
97.0, -44303.41503660858, -45257.231027749905, -38729.89579795549, -50610.13854862911, -51076.91002808929, -42158.38517646613, 51045.59523410741, 73378.58657581647, 0.11, 0.968, 0.10400000000000001, 192.0, 0.0, 0.0, 0.0, 0.0, 0.0, 0.0, 0.0, 0.0, 0.0, 1.7297115144485638E9, 0.0, 2024-10-24 00:55:14.448
98.0, -44321.698763573026, -45266.238780765394, -38735.23786488031, -50609.758568973375, -51078.34053973443, -42158.563990421775, 51114.282144818564, 73463.09852160198, 0.11, 0.968, 0.10400000000000001, 192.0, 0.0, 0.0, 0.0, 0.0, 0.0, 0.0, 0.0, 0.0, 0.0, 1.7297115144525573E9, 0.0, 2024-10-24 00:55:14.452
99.0, -44307.34894363272, -45238.32145194071, -38705.890024410495, -50576.29800752378, -51041.7507340611, -42122.46592312645, 50930.10377050684, 73269.15243496328, 0.11, 0.968, 0.10400000000000001, 192.0, 0.0, 0.0, 0.0, 0.0, 0.0, 0.0, 0.0, 0.0, 0.0, 1.7297115144566004E9, 0.0, 2024-10-24 00:55:14.456
100.0, -44288.282905612345, -45215.477969107385, -38689.595602702575, -50556.94139682548, -51029.52432984404, -42106.93146073001, 50799.63663812121, 73113.09255517634, 0.11, 0.968, 0.10400000000000001, 192.0, 0.0, 0.0, 0.0, 0.0, 0.0, 0.0, 0.0, 0.0, 0.0, 1.7297115144616184E9, 0.0, 2024-10-24 00:55:14.461
101.0, -44279.9010014416, -45218.361344142126, -38698.87157665152, -50570.50890570985, -51052.47957139964, -42129.59612960769, 50912.803520298425, 73208.5792074894, 0.11, 0.968, 0.10400000000000001, 192.0, 0.0, 0.0, 0.0, 0.0, 0.0, 0.0, 0.0, 0.0, 0.0, 1.729711514465586E9, 0.0, 2024-10-24 00:55:14.465
102.0, -44293.58026904825, -45238.43321066299, -38715.031887892714, -50593.195926331995, -51068.34930996291, -42159.122784033156, 51102.30160979052, 73408.20263721974, 0.11, 0.968, 0.10400000000000001, 192.0, 0.0, 0.0, 0.0, 0.0, 0.0, 0.0, 0.0, 0.0, 0.0, 1.7297115144685557E9, 0.0, 2024-10-24 00:55:14.468
103.0, -44318.122484460175, -45254.504114926356, -38724.48667579731, -50600.81787119125, -51073.892542587826, -42161.46971720096, 51200.87280283842, 73522.84473453101, 0.11, 0.968, 0.10400000000000001, 192.0, 0.0, 0.0, 0.0, 0.0, 0.0, 0.0, 0.0, 0.0, 0.0, 1.7297115144727154E9, 0.0, 2024-10-24 00:55:14.472
104.0, -44303.325629630766, -45231.05713499274, -38696.99403011728, -50572.989949344395, -51035.8945770138, -42129.23850169641, 51032.564167089964, 73343.51668876609, 0.11, 0.968, 0.10400000000000001, 192.0, 0.0, 0.0, 0.0, 0.0, 0.0, 0.0, 0.0, 0.0, 0.0, 1.7297115144785905E9, 0.0, 2024-10-24 00:55:14.478
105.0, -44278.38108281864, -45204.14563466855, -38674.3293612396, -50551.64403338957, -51012.984038947114, -42104.71863802894, 50887.724863019575, 73169.08367503688, 0.108, 0.968, 0.098, 192.0, 3.0, 96.0, 30.0, 64.0, 3.0, 16.0, 0.0, 0.0, 0.0, 1.7297115144816184E9, 0.0, 2024-10-24 00:55:14.481
106.0, -44265.215905334466, -45204.54796606874, -38684.09707356657, -50565.658577163056, -51038.53208285953, -42123.85173128268, 50976.68480595169, 73240.51985031604, 0.108, 0.968, 0.098, 192.0, 0.0, 0.0, 0.0, 0.0, 0.0, 0.0, 0.0, 0.0, 0.0, 1.7297115144846368E9, 0.0, 2024-10-24 00:55:14.484
107.0, -44280.593905519716, -45226.02799249029, -38704.14658834298, -50589.35142628568, -51059.60977788088, -42152.64077814112, 51167.16637219982, 73439.94211434628, 0.108, 0.968, 0.098, 192.0, 0.0, 0.0, 0.0, 0.0, 0.0, 0.0, 0.0, 0.0, 0.0, 1.7297115144895792E9, 0.0, 2024-10-24 00:55:14.489
108.0, -44307.72892328846, -45240.53427464179, -38714.87542568152, -50594.62643797713, -51064.59421689442, -42159.3015979888, 51257.37801282144, 73543.96713304128, 0.108, 0.968, 0.098, 192.0, 0.0, 0.0, 0.0, 0.0, 0.0, 0.0, 0.0, 0.0, 0.0, 1.7297115144947386E9, 0.0, 2024-10-24 00:55:14.494
109.0, -44294.429635337554, -45215.85794876313, -38690.84730039207, -50564.78685912929, -51038.88971077082, -42121.88477777062, 51100.513470234095, 73377.11136068242, 0.108, 0.968, 0.098, 192.0, 0.0, 0.0, 0.0, 0.0, 0.0, 0.0, 0.0, 0.0, 0.0, 1.729711514498641E9, 0.0, 2024-10-24 00:55:14.498
110.0, -44263.83009717824, -45186.08542514866, -38660.49363142176, -50535.55077738175, -51002.25520160857, -42085.004399419355, 50965.28541627949, 73215.39648954826, 0.108, 0.968, 0.098, 192.0, 0.0, 0.0, 0.0, 0.0, 0.0, 0.0, 0.0, 0.0, 0.0, 1.7297115145016828E9, 0.0, 2024-10-24 00:55:14.501
111.0, -44259.31504479826, -45190.48871880636, -38671.5800966716, -50550.548797911266, -51023.28819314101, -42106.95381247447, 51044.85762654038, 73277.31082168948, 0.108, 0.968, 0.098, 192.0, 0.0, 0.0, 0.0, 0.0, 0.0, 0.0, 0.0, 0.0, 0.0, 1.7297115145056577E9, 0.0, 2024-10-24 00:55:14.505
112.0, -44276.36942581766, -45210.89586149405, -38693.99889636027, -50573.548742955776, -51048.83623705342, -42133.79825756529, 51225.34796301699, 73468.23942282671, 0.108, 0.968, 0.098, 192.0, 0.0, 0.0, 0.0, 0.0, 0.0, 0.0, 0.0, 0.0, 0.0, 1.7297115145105915E9, 0.0, 2024-10-24 00:55:14.510
113.0, -44303.86207149769, -45228.978422758395, -38705.890024410495, -50583.38351051611, -51051.093763243414, -42140.459077412976, 51306.55185062312, 73567.50351995272, 0.108, 0.968, 0.098, 192.0, 0.0, 0.0, 0.0, 0.0, 0.0, 0.0, 0.0, 0.0, 0.0, 1.729711514514644E9, 0.0, 2024-10-24 00:55:14.514
114.0, -44293.55791730379, -45210.64999230504, -38684.85703287805, -50561.25528350536, -51029.03259146602, -42113.391114877595, 51147.34037486796, 73399.15018071535, 0.108, 0.968, 0.098, 192.0, 0.0, 0.0, 0.0, 0.0, 0.0, 0.0, 0.0, 0.0, 0.0, 1.7297115145186357E9, 0.0, 2024-10-24 00:55:14.518
115.0, -44274.42482405005, -45188.61117227211, -38668.204983258845, -50544.603233886155, -51013.9898674476, -42096.58260304721, 51026.52919608703, 73253.10388244437, 0.112, 0.968, 0.1, 192.0, 3.0, 128.0, 30.0, 64.0, 3.0, 32.0, 0.0, 0.0, 0.0, 1.729711514522655E9, 0.0, 2024-10-24 00:55:14.522
116.0, -44263.65128322259, -45187.76180598281, -38672.56357342763, -50555.89086483608, -51023.17643441873, -42113.614632322155, 51131.560043282516, 73341.12505210938, 0.112, 0.968, 0.1, 192.0, 0.0, 0.0, 0.0, 0.0, 0.0, 0.0, 0.0, 0.0, 0.0, 1.7297115145266595E9, 0.0, 2024-10-24 00:55:14.526
117.0, -44272.52492577135, -45201.12814916708, -38686.91339336793, -50573.14641155558, -51047.49513238611, -42135.54169363281, 51320.34287695204, 73541.26257196219, 0.112, 0.968, 0.1, 192.0, 0.0, 0.0, 0.0, 0.0, 0.0, 0.0, 0.0, 0.0, 0.0, 1.729711514531639E9, 0.0, 2024-10-24 00:55:14.531
118.0, -44288.88640271263, -45202.31279162321, -38691.45079749236, -50571.224161532424, -51050.758487076586, -42136.48046689993, 51375.86461017902, 73614.84451470907, 0.112, 0.968, 0.1, 192.0, 0.0, 0.0, 0.0, 0.0, 0.0, 0.0, 0.0, 0.0, 0.0, 1.7297115145346217E9, 0.0, 2024-10-24 00:55:14.534
119.0, -44274.71539672797, -45175.490698276844, -38666.238029746775, -50543.70916410794, -51017.49909132709, -42112.966431732944, 51240.27892831313, 73469.75934144967, 0.112, 0.968, 0.1, 192.0, 0.0, 0.0, 0.0, 0.0, 0.0, 0.0, 0.0, 0.0, 0.0, 1.729711514538728E9, 0.0, 2024-10-24 00:55:14.538
120.0, -44252.676576695034, -45147.21574154088, -38643.57336086909, -50518.65285857354, -51001.182317874714, -42088.11129189865, 51110.88467966136, 73313.43124072925, 0.112, 0.968, 0.1, 192.0, 0.0, 0.0, 0.0, 0.0, 0.0, 0.0, 0.0, 0.0, 0.0, 1.7297115145416636E9, 0.0, 2024-10-24 00:55:14.541
121.0, -44247.0439370923, -45149.473267730864, -38658.549029654154, -50533.36030642514, -51039.18028344873, -42111.60297532118, 51194.74842485767, 73380.50882583963, 0.112, 0.968, 0.1, 192.0, 0.0, 0.0, 0.0, 0.0, 0.0, 0.0, 0.0, 0.0, 0.0, 1.7297115145458083E9, 0.0, 2024-10-24 00:55:14.545
122.0, -44266.1993820905, -45168.98634064035, -38690.17674805841, -50560.65178640506, -51084.666083415286, -42149.44447868401, 51369.69552870936, 73567.2129472748, 0.112, 0.968, 0.1, 192.0, 0.0, 0.0, 0.0, 0.0, 0.0, 0.0, 0.0, 0.0, 0.0, 1.7297115145496557E9, 0.0, 2024-10-24 00:55:14.549
123.0, -44285.198364877506, -45178.2623145893, -38693.909489382444, -50564.54098994029, -51069.66806288577, -42154.42891769754, 51444.685631356915, 73657.67045708543, 0.112, 0.968, 0.1, 192.0, 0.0, 0.0, 0.0, 0.0, 0.0, 0.0, 0.0, 0.0, 0.0, 1.729711514552673E9, 0.0, 2024-10-24 00:55:14.552
124.0, -44279.20809736349, -45163.063128359696, -38672.78709087218, -50543.57505364121, -51036.9451090032, -42128.61265285166, 51294.236039428244, 73497.07317317405, 0.112, 0.968, 0.1, 192.0, 0.0, 0.0, 0.0, 0.0, 0.0, 0.0, 0.0, 0.0, 0.0, 1.7297115145566845E9, 0.0, 2024-10-24 00:55:14.556
125.0, -44266.48995476842, -45150.83672414264, -38658.50432616524, -50532.55564362474, -51021.25418439558, -42116.49800735689, 51177.02349150461, 73352.70325573721, 0.106, 0.968, 0.1, 192.0, 3.0, 80.0, 30.0, 64.0, 3.0, 32.0, 0.0, 0.0, 0.0, 1.729711514560696E9, 0.0, 2024-10-24 00:55:14.560
126.0, -44254.26355055136, -45151.440221242934, -38659.44309943236, -50542.12219025161, -51024.83046350843, -42125.12578071663, 51249.15257086189, 73408.04617500857, 0.106, 0.968, 0.1, 192.0, 0.0, 0.0, 0.0, 0.0, 0.0, 0.0, 0.0, 0.0, 0.0, 1.7297115145646985E9, 0.0, 2024-10-24 00:55:14.564
127.0, -44269.61919899216, -45172.920247664486, -38680.856070620546, -50564.63039691811, -51053.41834466677, -42137.70981284497, 51438.248328953785, 73608.42956405038, 0.106, 0.968, 0.1, 192.0, 0.0, 0.0, 0.0, 0.0, 0.0, 0.0, 0.0, 0.0, 0.0, 1.72971151456871E9, 0.0, 2024-10-24 00:55:14.568
128.0, -44293.71437951498, -45191.04751241774, -38691.42844574791, -50576.94620811298, -51053.86537955587, -42148.550408905794, 51521.21800437188, 73710.75585016678, 0.106, 0.968, 0.1, 192.0, 0.0, 0.0, 0.0, 0.0, 0.0, 0.0, 0.0, 0.0, 0.0, 1.7297115145737743E9, 0.0, 2024-10-24 00:55:14.573
129.0, -44277.21879210696, -45166.43824177245, -38662.72880586729, -50549.25239673286, -51015.12980641482, -42116.475655612434, 51369.0249763757, 73550.6056011445, 0.106, 0.968, 0.1, 192.0, 0.0, 0.0, 0.0, 0.0, 0.0, 0.0, 0.0, 0.0, 0.0, 1.7297115145778356E9, 0.0, 2024-10-24 00:55:14.577
130.0, -44253.123611584146, -45144.22060778387, -38640.48882013426, -50529.89578603456, -50996.421396305734, -42097.14139665859, 51228.05252409608, 73385.44856136425, 0.106, 0.968, 0.1, 192.0, 0.0, 0.0, 0.0, 0.0, 0.0, 0.0, 0.0, 0.0, 0.0, 1.729711514580745E9, 0.0, 2024-10-24 00:55:14.580
131.0, -44247.42391674804, -45154.01067185529, -38651.19530572835, -50547.732478109894, -51020.471873339644, -42119.71665855845, 51320.85696707451, 73465.73602744771, 0.106, 0.968, 0.1, 192.0, 0.0, 0.0, 0.0, 0.0, 0.0, 0.0, 0.0, 0.0, 0.0, 1.7297115145848267E9, 0.0, 2024-10-24 00:55:14.584
132.0, -44252.52011448385, -45168.53930575124, -38663.13113726749, -50563.64692016208, -51040.34257416041, -42138.80504832328, 51501.302600062205, 73661.26908794274, 0.106, 0.968, 0.1, 192.0, 0.0, 0.0, 0.0, 0.0, 0.0, 0.0, 0.0, 0.0, 0.0, 1.729711514588771E9, 0.0, 2024-10-24 00:55:14.588
133.0, -44275.073024639256, -45178.508183778315, -38667.24385824727, -50563.04342306178, -51038.509731115075, -42135.34052793271, 51570.28008345128, 73749.40201633002, 0.106, 0.968, 0.1, 192.0, 0.0, 0.0, 0.0, 0.0, 0.0, 0.0, 0.0, 0.0, 0.0, 1.7297115145927556E9, 0.0, 2024-10-24 00:55:14.592
134.0, -44265.66294022357, -45157.76576492379, -38642.79104981316, -50536.556605882244, -51013.36401860286, -42105.344486873684, 51423.27266016873, 73596.20315983334, 0.106, 0.968, 0.1, 192.0, 0.0, 0.0, 0.0, 0.0, 0.0, 0.0, 0.0, 0.0, 0.0, 1.7297115145968764E9, 0.0, 2024-10-24 00:55:14.596
135.0, -44246.261626036365, -45138.587968181135, -38619.5675873241, -50518.49639636235, -50987.90538166826, -42091.06172216675, 51284.1554026789, 73435.06943405503, 0.114, 0.968, 0.10400000000000001, 192.0, 3.0, 144.0, 30.0, 64.0, 3.0, 64.0, 0.0, 0.0, 0.0, 1.7297115146008687E9, 0.0, 2024-10-24 00:55:14.600
136.0, -44239.46669572195, -45143.46064847239, -38626.541331594155, -50530.275765690305, -51000.51176554105, -42104.450417095475, 51388.67215975191, 73524.72228106526, 0.114, 0.968, 0.10400000000000001, 192.0, 0.0, 0.0, 0.0, 0.0, 0.0, 0.0, 0.0, 0.0, 0.0, 1.7297115146058187E9, 0.0, 2024-10-24 00:55:14.605
137.0, -44253.7941639178, -45160.246808558324, -38641.427593401386, -50548.22421648791, -51018.54962331649, -42119.58254809172, 51582.752356857345, 73733.91225742249, 0.114, 0.968, 0.10400000000000001, 192.0, 0.0, 0.0, 0.0, 0.0, 0.0, 0.0, 0.0, 0.0, 0.0, 1.7297115146088076E9, 0.0, 2024-10-24 00:55:14.608
138.0, -44272.07789088225, -45165.58887548315, -38646.74730858175, -50550.2805769778, -51022.10355068488, -42124.07524872723, 51662.27986362933, 73832.3269882592, 0.114, 0.968, 0.10400000000000001, 192.0, 0.0, 0.0, 0.0, 0.0, 0.0, 0.0, 0.0, 0.0, 0.0, 1.7297115146128366E9, 0.0, 2024-10-24 00:55:14.612
139.0, -44264.27713206734, -45145.87463687356, -38628.32947115057, -50529.985193012384, -50997.60603876186, -42105.88092874062, 51493.14421333602, 73656.06113148465, 0.114, 0.968, 0.10400000000000001, 192.0, 0.0, 0.0, 0.0, 0.0, 0.0, 0.0, 0.0, 0.0, 0.0, 1.7297115146168227E9, 0.0, 2024-10-24 00:55:14.616
140.0, -44253.19066681751, -45130.58604366613, -38615.45486634432, -50515.724780049895, -50984.2843990665, -42084.736178485895, 51349.24368253275, 73488.6912690033, 0.114, 0.968, 0.10400000000000001, 192.0, 0.0, 0.0, 0.0, 0.0, 0.0, 0.0, 0.0, 0.0, 0.0, 1.7297115146208873E9, 0.0, 2024-10-24 00:55:14.620
141.0, -44240.2937102668, -45128.06029654268, -38616.684212289365, -50523.01144874233, -50998.455405051165, -42092.067550667234, 51431.542805617195, 73558.8086913596, 0.114, 0.968, 0.10400000000000001, 192.0, 0.0, 0.0, 0.0, 0.0, 0.0, 0.0, 0.0, 0.0, 0.0, 1.7297115146248813E9, 0.0, 2024-10-24 00:55:14.624
142.0, -44249.90496038258, -45141.62780542705, -38628.754154295224, -50539.39527742807, -51012.849928480384, -42114.10637070017, 51620.81737766473, 73764.40003685952, 0.114, 0.968, 0.10400000000000001, 192.0, 0.0, 0.0, 0.0, 0.0, 0.0, 0.0, 0.0, 0.0, 0.0, 1.7297115146288304E9, 0.0, 2024-10-24 00:55:14.628
143.0, -44276.97292291796, -45150.09911657561, -38636.532561365675, -50541.96572804043, -51012.69346626919, -42117.41442887955, 51691.15831746558, 73854.74578794788, 0.114, 0.968, 0.10400000000000001, 192.0, 0.0, 0.0, 0.0, 0.0, 0.0, 0.0, 0.0, 0.0, 0.0, 1.7297115146338377E9, 0.0, 2024-10-24 00:55:14.633
