%OpenBCI Raw EXG Data
%Number of channels = 8
%Sample Rate = 250 Hz
%Board = OpenBCI_GUI$BoardCytonSerial
Sample Index, EXG Channel 0, EXG Channel 1, EXG Channel 2, EXG Channel 3, EXG Channel 4, EXG Channel 5, EXG Channel 6, EXG Channel 7, Accel Channel 0, Accel Channel 1, Accel Channel 2, Other, Other, Other, Other, Other, Other, Other, Analog Channel 0, Analog Channel 1, Analog Channel 2, Timestamp, Other, Timestamp (Formatted)
0.0, 0.0, 0.0, 0.0, 0.0, 0.0, 0.0, 0.0, 0.0, 0.0, 0.0, 0.0, 192.0, 0.0, 0.0, 0.0, 0.0, 0.0, 0.0, 0.0, 0.0, 0.0, 1.7297032760759797E9, 0.0, 2024-10-23 22:37:56.075
1.0, -50213.17156710286, -44865.226133492724, -18760.020287039315, -37815.70944973343, -19418.815603115036, -25465.208347464606, -187500.02235174447, -187500.02235174447, -0.034, 0.906, 0.34400000000000003, 192.0, 254.0, 240.0, 28.0, 80.0, 10.0, 192.0, 0.0, 0.0, 0.0, 1.7297032760849433E9, 0.0, 2024-10-23 22:37:56.084
2.0, -50214.64678223691, -44865.49435442619, -18767.686935387486, -37820.31390909122, -19412.780632112102, -25467.84585331033, -187500.02235174447, -187500.02235174447, -0.034, 0.906, 0.34400000000000003, 192.0, 0.0, 0.0, 0.0, 0.0, 0.0, 0.0, 0.0, 0.0, 0.0, 1.72970327609102E9, 0.0, 2024-10-23 22:37:56.091
3.0, -50209.32706705655, -44859.41467993435, -18765.161188264035, -37821.29738584726, -19409.584332654995, -25472.47266441258, -187500.02235174447, -187500.02235174447, -0.034, 0.906, 0.34400000000000003, 192.0, 0.0, 0.0, 0.0, 0.0, 0.0, 0.0, 0.0, 0.0, 0.0, 1.72970327609501E9, 0.0, 2024-10-23 22:37:56.095
4.0, -50214.66913398137, -44865.62846489292, -18762.098999273658, -37832.13798190808, -19412.69122513428, -25485.8166558524, -187500.02235174447, -187500.02235174447, -0.034, 0.906, 0.34400000000000003, 192.0, 0.0, 0.0, 0.0, 0.0, 0.0, 0.0, 0.0, 0.0, 0.0, 1.729703276099038E9, 0.0, 2024-10-23 22:37:56.099
5.0, -50228.77308473267, -44872.512802185156, -18753.828853825195, -37844.16322042504, -19426.191678785286, -25500.300586259436, -187500.02235174447, -187500.02235174447, -0.034, 0.906, 0.34400000000000003, 192.0, 0.0, 0.0, 0.0, 0.0, 0.0, 0.0, 0.0, 0.0, 0.0, 1.7297032761020012E9, 0.0, 2024-10-23 22:37:56.102
6.0, -50230.605927778, -44873.65274115238, -18760.064990528226, -37845.45962160345, -19428.024521830623, -25506.559074706922, -187500.02235174447, -187500.02235174447, -0.034, 0.906, 0.34400000000000003, 192.0, 0.0, 0.0, 0.0, 0.0, 0.0, 0.0, 0.0, 0.0, 0.0, 1.7297032761068573E9, 0.0, 2024-10-23 22:37:56.106
7.0, -50228.191939376826, -44867.26014223816, -18770.23503425539, -37843.80559251375, -19430.974952098724, -25506.38026075128, -187500.02235174447, -187500.02235174447, -0.034, 0.906, 0.34400000000000003, 192.0, 0.0, 0.0, 0.0, 0.0, 0.0, 0.0, 0.0, 0.0, 0.0, 1.7297032761089737E9, 0.0, 2024-10-23 22:37:56.108
8.0, -50229.443637066324, -44860.93459855731, -18775.71121164694, -37842.978577968905, -19433.45599573326, -25505.217970039605, -187500.02235174447, -187500.02235174447, -0.056, 0.9, 0.37, 192.0, 254.0, 64.0, 28.0, 32.0, 11.0, 144.0, 0.0, 0.0, 0.0, 1.7297032761144636E9, 0.0, 2024-10-23 22:37:56.114
9.0, -50228.683677754845, -44853.3350054425, -18772.91724359003, -37841.97274946842, -19436.719350423737, -25506.402612495735, -187500.02235174447, -187500.02235174447, -0.056, 0.9, 0.37, 192.0, 0.0, 0.0, 0.0, 0.0, 0.0, 0.0, 0.0, 0.0, 0.0, 1.7297032761340568E9, 0.0, 2024-10-23 22:37:56.134
10.0, -50239.52427381567, -44858.00652003366, -18756.84633932666, -37846.890133248584, -19448.342257540495, -25516.125621333795, -187500.02235174447, -187500.02235174447, -0.056, 0.9, 0.37, 192.0, 0.0, 0.0, 0.0, 0.0, 0.0, 0.0, 0.0, 0.0, 0.0, 1.7297032761370523E9, 0.0, 2024-10-23 22:37:56.137
11.0, -50229.04130566613, -44850.9880722747, -18778.86280761514, -37838.44117384448, -19445.928269139324, -25511.364699764814, -187500.02235174447, -187500.02235174447, -0.056, 0.9, 0.37, 192.0, 0.0, 0.0, 0.0, 0.0, 0.0, 0.0, 0.0, 0.0, 0.0, 1.729703276154975E9, 0.0, 2024-10-23 22:37:56.154
12.0, -50226.582613776045, -44853.290301953595, -18775.487694202388, -37839.3799471116, -19453.147882598387, -25513.264598043515, -187500.02235174447, -187500.02235174447, -0.056, 0.9, 0.37, 192.0, 0.0, 0.0, 0.0, 0.0, 0.0, 0.0, 0.0, 0.0, 0.0, 1.7297032761550066E9, 0.0, 2024-10-23 22:37:56.155
13.0, -50228.08018065455, -44858.43120317831, -18756.756932348842, -37844.20792391395, -19459.249908834685, -25517.019691112007, -187500.02235174447, -187500.02235174447, -0.056, 0.9, 0.37, 192.0, 0.0, 0.0, 0.0, 0.0, 0.0, 0.0, 0.0, 0.0, 0.0, 1.7297032761550221E9, 0.0, 2024-10-23 22:37:56.155
14.0, -50227.54373878762, -44862.588627647005, -18758.56742364972, -37847.5830373267, -19452.454978520273, -25520.28304580248, -187500.02235174447, -187500.02235174447, -0.056, 0.9, 0.37, 192.0, 0.0, 0.0, 0.0, 0.0, 0.0, 0.0, 0.0, 0.0, 0.0, 1.72970327615508E9, 0.0, 2024-10-23 22:37:56.155
15.0, -50235.120980157975, -44872.17752601833, -18738.674371084497, -37855.227333930416, -19454.109007609964, -25522.540571992467, -187500.02235174447, -187500.02235174447, -0.056, 0.9, 0.37, 192.0, 0.0, 0.0, 0.0, 0.0, 0.0, 0.0, 0.0, 0.0, 0.0, 1.7297032761551092E9, 0.0, 2024-10-23 22:37:56.155
16.0, -50224.45919805279, -44867.37190096044, -18737.37796990609, -37845.10199369216, -19447.872870906936, -25508.101345074338, -187500.02235174447, -187500.02235174447, -0.056, 0.9, 0.37, 192.0, 0.0, 0.0, 0.0, 0.0, 0.0, 0.0, 0.0, 0.0, 0.0, 1.7297032761580963E9, 0.0, 2024-10-23 22:37:56.158
17.0, -50210.55641300159, -44862.20864799126, -18742.004781008338, -37835.73661276539, -19442.17317607083, -25498.780667636474, -187500.02235174447, -187500.02235174447, -0.056, 0.9, 0.37, 192.0, 0.0, 0.0, 0.0, 0.0, 0.0, 0.0, 0.0, 0.0, 0.0, 1.729703276166184E9, 0.0, 2024-10-23 22:37:56.166
18.0, -50209.77410194565, -44859.59349388999, -18733.17584194849, -37829.92515920701, -19446.8893941509, -25495.65142341273, -187500.02235174447, -187500.02235174447, -0.062, 0.892, 0.386, 192.0, 254.0, 16.0, 27.0, 224.0, 12.0, 16.0, 0.0, 0.0, 0.0, 1.7297032761662073E9, 0.0, 2024-10-23 22:37:56.166
19.0, -50213.03745663613, -44857.51478165565, -18728.32551340169, -37824.471333559915, -19440.60855395896, -25487.493036686545, -187500.02235174447, -187500.02235174447, -0.062, 0.892, 0.386, 192.0, 0.0, 0.0, 0.0, 0.0, 0.0, 0.0, 0.0, 0.0, 0.0, 1.72970327616801E9, 0.0, 2024-10-23 22:37:56.168
20.0, -50200.81105241908, -44849.69167109629, -18750.43138866799, -37810.36738280862, -19430.907896865356, -25469.969269033583, -187500.02235174447, -187500.02235174447, -0.062, 0.892, 0.386, 192.0, 0.0, 0.0, 0.0, 0.0, 0.0, 0.0, 0.0, 0.0, 0.0, 1.7297032761731195E9, 0.0, 2024-10-23 22:37:56.173
21.0, -50195.78190991663, -44842.04737449258, -18763.820083596718, -37798.20803382493, -19419.352044981963, -25454.345399659327, -187500.02235174447, -187500.02235174447, -0.062, 0.892, 0.386, 192.0, 0.0, 0.0, 0.0, 0.0, 0.0, 0.0, 0.0, 0.0, 0.0, 1.7297032761752243E9, 0.0, 2024-10-23 22:37:56.175
22.0, -50201.36984603046, -44844.72958382721, -18742.965906019916, -37798.34214429166, -19430.84084163199, -25449.383312390248, -187500.02235174447, -187500.02235174447, -0.062, 0.892, 0.386, 192.0, 0.0, 0.0, 0.0, 0.0, 0.0, 0.0, 0.0, 0.0, 0.0, 1.7297032761781924E9, 0.0, 2024-10-23 22:37:56.178
23.0, -50199.31348554057, -44841.71209832574, -18734.762815804817, -37790.18375756547, -19405.13633550839, -25433.088890682327, -187500.02235174447, -187500.02235174447, -0.062, 0.892, 0.386, 192.0, 0.0, 0.0, 0.0, 0.0, 0.0, 0.0, 0.0, 0.0, 0.0, 1.72970327618489E9, 0.0, 2024-10-23 22:37:56.184
24.0, -50201.79452917511, -44841.890912281386, -18734.919278016005, -37789.73672267637, -19397.089707504478, -25426.003387689994, -187500.02235174447, -187500.02235174447, -0.062, 0.892, 0.386, 192.0, 0.0, 0.0, 0.0, 0.0, 0.0, 0.0, 0.0, 0.0, 0.0, 1.7297032761849174E9, 0.0, 2024-10-23 22:37:56.184
25.0, -50203.6497239649, -44847.07651699502, -18738.76377806232, -37795.726990190386, -19409.27140823262, -25434.072367438363, -187500.02235174447, -187500.02235174447, -0.062, 0.892, 0.386, 192.0, 0.0, 0.0, 0.0, 0.0, 0.0, 0.0, 0.0, 0.0, 0.0, 1.7297032761881351E9, 0.0, 2024-10-23 22:37:56.188
26.0, -50208.27653506715, -44852.507990897655, -18744.66463859852, -37806.7240484624, -19422.078957805512, -25448.891574012232, -187500.02235174447, -187500.02235174447, -0.062, 0.892, 0.386, 192.0, 0.0, 0.0, 0.0, 0.0, 0.0, 0.0, 0.0, 0.0, 0.0, 1.729703276194487E9, 0.0, 2024-10-23 22:37:56.194
27.0, -50212.880994424944, -44849.69167109629, -18750.364333434623, -37810.56854850871, -19416.111042035944, -25457.85462353881, -187500.02235174447, -187500.02235174447, -0.062, 0.892, 0.386, 192.0, 0.0, 0.0, 0.0, 0.0, 0.0, 0.0, 0.0, 0.0, 0.0, 1.7297032761952813E9, 0.0, 2024-10-23 22:37:56.195
28.0, -50229.64480276642, -44857.7382991002, -18726.202097678437, -37825.499513804854, -19435.98174285671, -25479.17818774917, -187500.02235174447, -187500.02235174447, -0.064, 0.896, 0.386, 192.0, 254.0, 0.0, 28.0, 0.0, 12.0, 16.0, 0.0, 0.0, 0.0, 1.7297032761992023E9, 0.0, 2024-10-23 22:37:56.199
29.0, -50225.64384050892, -44855.167848487836, -18724.503365099834, -37822.30321434775, -19408.578504154506, -25481.03338253896, -187500.02235174447, -187500.02235174447, -0.064, 0.896, 0.386, 192.0, 0.0, 0.0, 0.0, 0.0, 0.0, 0.0, 0.0, 0.0, 0.0, 1.729703276209295E9, 0.0, 2024-10-23 22:37:56.209
30.0, -50232.57288129007, -44862.11924101344, -18702.62100727809, -37830.37219409611, -19420.871963604925, -25497.75248739153, -187500.02235174447, -187500.02235174447, -0.064, 0.896, 0.386, 192.0, 0.0, 0.0, 0.0, 0.0, 0.0, 0.0, 0.0, 0.0, 0.0, 1.7297032762093244E9, 0.0, 2024-10-23 22:37:56.209
31.0, -50235.389201091435, -44864.73439511471, -18695.736669985854, -37837.43534534399, -19430.125585809423, -25512.057603842928, -187500.02235174447, -187500.02235174447, -0.064, 0.896, 0.386, 192.0, 0.0, 0.0, 0.0, 0.0, 0.0, 0.0, 0.0, 0.0, 0.0, 1.7297032762093387E9, 0.0, 2024-10-23 22:37:56.209
32.0, -50230.44946556682, -44862.521572413636, -18719.27305689729, -37838.999967455864, -19433.90303062237, -25515.835048655874, -187500.02235174447, -187500.02235174447, -0.064, 0.896, 0.386, 192.0, 0.0, 0.0, 0.0, 0.0, 0.0, 0.0, 0.0, 0.0, 0.0, 1.7297032762146623E9, 0.0, 2024-10-23 22:37:56.214
33.0, -50233.04226792363, -44859.03470027861, -18724.65982731102, -37838.91056047804, -19449.303382552076, -25522.831144670385, -187500.02235174447, -187500.02235174447, -0.064, 0.896, 0.386, 192.0, 0.0, 0.0, 0.0, 0.0, 0.0, 0.0, 0.0, 0.0, 0.0, 1.7297032762156343E9, 0.0, 2024-10-23 22:37:56.215
34.0, -50241.71474477229, -44861.98513054671, -18705.32556835718, -37843.11268843564, -19465.821321704545, -25529.983702896083, -187500.02235174447, -187500.02235174447, -0.064, 0.896, 0.386, 192.0, 0.0, 0.0, 0.0, 0.0, 0.0, 0.0, 0.0, 0.0, 0.0, 1.7297032762202773E9, 0.0, 2024-10-23 22:37:56.220
35.0, -50236.52914005866, -44858.43120317831, -18711.137021915558, -37840.29636863427, -19451.650315719882, -25531.414214541222, -187500.02235174447, -187500.02235174447, -0.064, 0.896, 0.386, 192.0, 0.0, 0.0, 0.0, 0.0, 0.0, 0.0, 0.0, 0.0, 0.0, 1.72970327622223E9, 0.0, 2024-10-23 22:37:56.222
36.0, -50229.42128532187, -44852.4856391532, -18709.661806781507, -37834.44021158698, -19451.13622559741, -25531.39186279677, -187500.02235174447, -187500.02235174447, -0.064, 0.896, 0.386, 192.0, 0.0, 0.0, 0.0, 0.0, 0.0, 0.0, 0.0, 0.0, 0.0, 1.7297032762287307E9, 0.0, 2024-10-23 22:37:56.228
37.0, -50224.52625328616, -44851.92684554182, -18718.781318519275, -37831.82505748571, -19458.311135567565, -25530.967179652118, -187500.02235174447, -187500.02235174447, -0.064, 0.896, 0.386, 192.0, 0.0, 0.0, 0.0, 0.0, 0.0, 0.0, 0.0, 0.0, 0.0, 1.729703276231128E9, 0.0, 2024-10-23 22:37:56.231
38.0, -50222.76046547419, -44853.7373368427, -18733.779339048786, -37829.74634525136, -19451.493853508695, -25527.86028717283, -187500.02235174447, -187500.02235174447, -0.07, 0.892, 0.386, 192.0, 253.0, 208.0, 27.0, 224.0, 12.0, 16.0, 0.0, 0.0, 0.0, 1.7297032762431495E9, 0.0, 2024-10-23 22:37:56.243
39.0, -50228.23664286574, -44857.42537467783, -18714.378024861577, -37834.596673798165, -19446.151786583876, -25532.24122908607, -187500.02235174447, -187500.02235174447, -0.07, 0.892, 0.386, 192.0, 0.0, 0.0, 0.0, 0.0, 0.0, 0.0, 0.0, 0.0, 0.0, 1.7297032762431824E9, 0.0, 2024-10-23 22:37:56.243
40.0, -50229.5553957886, -44862.90155206937, -18700.095260154638, -37840.51988607882, -19452.298516309085, -25535.661045987734, -187500.02235174447, -187500.02235174447, -0.07, 0.892, 0.386, 192.0, 0.0, 0.0, 0.0, 0.0, 0.0, 0.0, 0.0, 0.0, 0.0, 1.729703276243198E9, 0.0, 2024-10-23 22:37:56.243
41.0, -50220.502939284204, -44861.82866833552, -18703.26920786729, -37834.23904588688, -19443.648391204883, -25528.016749384016, -187500.02235174447, -187500.02235174447, -0.07, 0.892, 0.386, 192.0, 0.0, 0.0, 0.0, 0.0, 0.0, 0.0, 0.0, 0.0, 0.0, 1.7297032762471924E9, 0.0, 2024-10-23 22:37:56.247
42.0, -50216.9043084269, -44863.68386312531, -18701.54812354423, -37829.76869699582, -19439.64742894738, -25523.077013859394, -187500.02235174447, -187500.02235174447, -0.07, 0.892, 0.386, 192.0, 0.0, 0.0, 0.0, 0.0, 0.0, 0.0, 0.0, 0.0, 0.0, 1.729703276249175E9, 0.0, 2024-10-23 22:37:56.249
43.0, -50212.813939191576, -44864.91320907035, -18702.710414255907, -37821.587958525175, -19429.387978242397, -25509.19658055265, -187500.02235174447, -187500.02235174447, -0.07, 0.892, 0.386, 192.0, 0.0, 0.0, 0.0, 0.0, 0.0, 0.0, 0.0, 0.0, 0.0, 1.7297032762531793E9, 0.0, 2024-10-23 22:37:56.253
44.0, -50200.54283148561, -44856.06191826605, -18723.18461217697, -37806.05349612874, -19416.200449013766, -25487.47068494209, -187500.02235174447, -187500.02235174447, -0.07, 0.892, 0.386, 192.0, 0.0, 0.0, 0.0, 0.0, 0.0, 0.0, 0.0, 0.0, 0.0, 1.7297032762705057E9, 0.0, 2024-10-23 22:37:56.270
45.0, -50204.11911059846, -44855.726642099224, -18711.80757424922, -37800.689077459465, -19425.09644330698, -25477.166530748193, -187500.02235174447, -187500.02235174447, -0.07, 0.892, 0.386, 192.0, 0.0, 0.0, 0.0, 0.0, 0.0, 0.0, 0.0, 0.0, 0.0, 1.7297032762705245E9, 0.0, 2024-10-23 22:37:56.270
46.0, -50205.08023561004, -44855.8384008215, -18711.114670171104, -37795.54817623475, -19426.102271807467, -25468.69521959963, -187500.02235174447, -187500.02235174447, -0.07, 0.892, 0.386, 192.0, 0.0, 0.0, 0.0, 0.0, 0.0, 0.0, 0.0, 0.0, 0.0, 1.729703276271408E9, 0.0, 2024-10-23 22:37:56.271
47.0, -50206.98013388874, -44857.5371334001, -18696.98836767535, -37795.5705279792, -19397.827315071503, -25461.788530562942, -187500.02235174447, -187500.02235174447, -0.07, 0.892, 0.386, 192.0, 0.0, 0.0, 0.0, 0.0, 0.0, 0.0, 0.0, 0.0, 0.0, 1.729703276278731E9, 0.0, 2024-10-23 22:37:56.278
48.0, -50216.45727353779, -44863.59445614749, -18690.12638212757, -37800.86789141511, -19400.151896494855, -25458.994562506028, -187500.02235174447, -187500.02235174447, -0.074, 0.894, 0.388, 192.0, 253.0, 176.0, 27.0, 240.0, 12.0, 32.0, 0.0, 0.0, 0.0, 1.729703276278761E9, 0.0, 2024-10-23 22:37:56.278
49.0, -50224.57095677507, -44867.72952887172, -18683.823190191175, -37806.34406880666, -19405.31514946403, -25462.012048007495, -187500.02235174447, -187500.02235174447, -0.074, 0.894, 0.388, 192.0, 0.0, 0.0, 0.0, 0.0, 0.0, 0.0, 0.0, 0.0, 0.0, 1.7297032762813747E9, 0.0, 2024-10-23 22:37:56.281
50.0, -50228.75073298821, -44874.90443884188, -18670.83682666264, -37818.19049336797, -19414.32290247952, -25472.51736790149, -187500.02235174447, -187500.02235174447, -0.074, 0.894, 0.388, 192.0, 0.0, 0.0, 0.0, 0.0, 0.0, 0.0, 0.0, 0.0, 0.0, 1.7297032762883065E9, 0.0, 2024-10-23 22:37:56.288
51.0, -50225.91206144239, -44871.12699402893, -18687.690041981943, -37821.744420736366, -19414.702882135258, -25476.31716445889, -187500.02235174447, -187500.02235174447, -0.074, 0.894, 0.388, 192.0, 0.0, 0.0, 0.0, 0.0, 0.0, 0.0, 0.0, 0.0, 0.0, 1.7297032762883394E9, 0.0, 2024-10-23 22:37:56.288
52.0, -50221.24054685123, -44864.622636392436, -18709.214771892402, -37823.10787714814, -19409.003187299157, -25484.788475607453, -187500.02235174447, -187500.02235174447, -0.074, 0.894, 0.388, 192.0, 0.0, 0.0, 0.0, 0.0, 0.0, 0.0, 0.0, 0.0, 0.0, 1.729703276292232E9, 0.0, 2024-10-23 22:37:56.292
53.0, -50223.63218350794, -44859.101755511976, -18714.13215567257, -37826.997080683366, -19418.636789159395, -25500.43469672617, -187500.02235174447, -187500.02235174447, -0.074, 0.894, 0.388, 192.0, 0.0, 0.0, 0.0, 0.0, 0.0, 0.0, 0.0, 0.0, 0.0, 1.7297032762952151E9, 0.0, 2024-10-23 22:37:56.295
54.0, -50237.24439588123, -44865.02496779263, -18694.08264089616, -37844.36438612513, -19434.215955044743, -25521.13241209178, -187500.02235174447, -187500.02235174447, -0.074, 0.894, 0.388, 192.0, 0.0, 0.0, 0.0, 0.0, 0.0, 0.0, 0.0, 0.0, 0.0, 1.7297032762982185E9, 0.0, 2024-10-23 22:37:56.298
55.0, -50242.56411106159, -44874.613866163956, -18685.812495447695, -37855.33909265269, -19447.157615084365, -25538.723234978108, -187500.02235174447, -187500.02235174447, -0.074, 0.894, 0.388, 192.0, 0.0, 0.0, 0.0, 0.0, 0.0, 0.0, 0.0, 0.0, 0.0, 1.7297032763022351E9, 0.0, 2024-10-23 22:37:56.302
56.0, -50234.00339293521, -44865.5390579151, -18693.56855077369, -37850.399357128066, -19450.644487219393, -25542.791252468975, -187500.02235174447, -187500.02235174447, -0.074, 0.894, 0.388, 192.0, 0.0, 0.0, 0.0, 0.0, 0.0, 0.0, 0.0, 0.0, 0.0, 1.729703276306252E9, 0.0, 2024-10-23 22:37:56.306
57.0, -50239.881901726956, -44869.718834128245, -18676.290652309734, -37857.70837756495, -19459.741647212704, -25550.033217672495, -187500.02235174447, -187500.02235174447, -0.074, 0.894, 0.388, 192.0, 0.0, 0.0, 0.0, 0.0, 0.0, 0.0, 0.0, 0.0, 0.0, 1.729703276310242E9, 0.0, 2024-10-23 22:37:56.310
58.0, -50233.019916179175, -44866.857810837966, -18678.54817849972, -37852.276903662314, -19441.390865014895, -25540.332560578892, -187500.02235174447, -187500.02235174447, -0.066, 0.898, 0.386, 192.0, 253.0, 240.0, 28.0, 16.0, 12.0, 16.0, 0.0, 0.0, 0.0, 1.729703276317269E9, 0.0, 2024-10-23 22:37:56.317
59.0, -50233.310488857096, -44868.109508527465, -18680.73864945634, -37850.84639201718, -19443.044894104587, -25538.969104167118, -187500.02235174447, -187500.02235174447, -0.066, 0.898, 0.386, 192.0, 0.0, 0.0, 0.0, 0.0, 0.0, 0.0, 0.0, 0.0, 0.0, 1.729703276321282E9, 0.0, 2024-10-23 22:37:56.321
60.0, -50239.41251509339, -44877.98897957671, -18657.895166623017, -37859.11653746564, -19454.779559943625, -25545.20524087015, -187500.02235174447, -187500.02235174447, -0.066, 0.898, 0.386, 192.0, 0.0, 0.0, 0.0, 0.0, 0.0, 0.0, 0.0, 0.0, 0.0, 1.7297032763243048E9, 0.0, 2024-10-23 22:37:56.324
61.0, -50240.284233127146, -44881.83347962302, -18657.492835222823, -37861.41876714453, -19463.988478659212, -25546.72515949311, -187500.02235174447, -187500.02235174447, -0.066, 0.898, 0.386, 192.0, 0.0, 0.0, 0.0, 0.0, 0.0, 0.0, 0.0, 0.0, 0.0, 1.7297032763272543E9, 0.0, 2024-10-23 22:37:56.327
62.0, -50227.02964866515, -44874.27858999713, -18676.69298370993, -37849.99702572788, -19460.456903035272, -25534.6775692317, -187500.02235174447, -187500.02235174447, -0.066, 0.898, 0.386, 192.0, 0.0, 0.0, 0.0, 0.0, 0.0, 0.0, 0.0, 0.0, 0.0, 1.7297032763313105E9, 0.0, 2024-10-23 22:37:56.331
63.0, -50214.73618921473, -44862.76744160264, -18702.41984157799, -37839.46935408942, -19443.715446438247, -25522.697034203655, -187500.02235174447, -187500.02235174447, -0.066, 0.898, 0.386, 192.0, 0.0, 0.0, 0.0, 0.0, 0.0, 0.0, 0.0, 0.0, 0.0, 1.729703276334281E9, 0.0, 2024-10-23 22:37:56.334
64.0, -50213.05980838058, -44859.59349388999, -18727.632609323577, -37836.72008952142, -19433.99243760019, -25514.605702710833, -187500.02235174447, -187500.02235174447, -0.066, 0.898, 0.386, 192.0, 0.0, 0.0, 0.0, 0.0, 0.0, 0.0, 0.0, 0.0, 0.0, 1.729703276337244E9, 0.0, 2024-10-23 22:37:56.337
65.0, -50216.99371540472, -44857.64889212238, -18716.389681862554, -37833.36732785313, -19438.954524869267, -25511.007071853528, -187500.02235174447, -187500.02235174447, -0.066, 0.898, 0.386, 192.0, 0.0, 0.0, 0.0, 0.0, 0.0, 0.0, 0.0, 0.0, 0.0, 1.729703276341266E9, 0.0, 2024-10-23 22:37:56.341
66.0, -50220.10060788401, -44861.26987472414, -18691.445135050435, -37832.80853424174, -19436.65229519037, -25509.4200979972, -187500.02235174447, -187500.02235174447, -0.066, 0.898, 0.386, 192.0, 0.0, 0.0, 0.0, 0.0, 0.0, 0.0, 0.0, 0.0, 0.0, 1.7297032763452945E9, 0.0, 2024-10-23 22:37:56.345
67.0, -50212.545718258116, -44861.20281949077, -18695.580207774667, -37823.64431901507, -19430.70673116526, -25500.635862426265, -187500.02235174447, -187500.02235174447, -0.066, 0.898, 0.386, 192.0, 0.0, 0.0, 0.0, 0.0, 0.0, 0.0, 0.0, 0.0, 0.0, 1.7297032763492692E9, 0.0, 2024-10-23 22:37:56.349
68.0, -50214.55737525909, -44862.387461946906, -18683.68907972444, -37821.185627124985, -19429.499736964674, -25495.584368179367, -187500.02235174447, -187500.02235174447, -0.07200000000000001, 0.902, 0.386, 192.0, 253.0, 192.0, 28.0, 48.0, 12.0, 16.0, 0.0, 0.0, 0.0, 1.7297032763533185E9, 0.0, 2024-10-23 22:37:56.353
69.0, -50203.22504082025, -44855.86075256595, -18695.759021730308, -37809.0262781413, -19416.155745524855, -25481.03338253896, -187500.02235174447, -187500.02235174447, -0.07200000000000001, 0.902, 0.386, 192.0, 0.0, 0.0, 0.0, 0.0, 0.0, 0.0, 0.0, 0.0, 0.0, 1.7297032763563356E9, 0.0, 2024-10-23 22:37:56.356
70.0, -50200.162851829875, -44845.46719139424, -18713.394548105545, -37800.71142920392, -19411.059547789046, -25465.320106186882, -187500.02235174447, -187500.02235174447, -0.07200000000000001, 0.902, 0.386, 192.0, 0.0, 0.0, 0.0, 0.0, 0.0, 0.0, 0.0, 0.0, 0.0, 1.7297032763612916E9, 0.0, 2024-10-23 22:37:56.361
71.0, -50221.77698871816, -44856.12897349942, -18694.97671067437, -37814.50245553285, -19432.31605676604, -25477.412399937202, -187500.02235174447, -187500.02235174447, -0.07200000000000001, 0.902, 0.386, 192.0, 0.0, 0.0, 0.0, 0.0, 0.0, 0.0, 0.0, 0.0, 0.0, 1.7297032763653169E9, 0.0, 2024-10-23 22:37:56.365
72.0, -50230.38241033345, -44868.46713643875, -18691.780411217263, -37821.36444108062, -19444.385998771908, -25483.581481406865, -187500.02235174447, -187500.02235174447, -0.07200000000000001, 0.902, 0.386, 192.0, 0.0, 0.0, 0.0, 0.0, 0.0, 0.0, 0.0, 0.0, 0.0, 1.7297032763693194E9, 0.0, 2024-10-23 22:37:56.369
73.0, -50228.03547716564, -44869.04828179458, -18710.734690515364, -37818.57047302371, -19448.789292429603, -25476.428923181167, -187500.02235174447, -187500.02235174447, -0.07200000000000001, 0.902, 0.386, 192.0, 0.0, 0.0, 0.0, 0.0, 0.0, 0.0, 0.0, 0.0, 0.0, 1.7297032763733263E9, 0.0, 2024-10-23 22:37:56.373
74.0, -50225.241509108724, -44863.75091835867, -18712.41107134951, -37813.138999121074, -19413.1829635123, -25468.114074243793, -187500.02235174447, -187500.02235174447, -0.07200000000000001, 0.902, 0.386, 192.0, 0.0, 0.0, 0.0, 0.0, 0.0, 0.0, 0.0, 0.0, 0.0, 1.7297032763783586E9, 0.0, 2024-10-23 22:37:56.378
75.0, -50232.595233034524, -44870.50114518418, -18695.401393819022, -37821.185627124985, -19394.340442936475, -25472.42796092367, -187500.02235174447, -187500.02235174447, -0.07200000000000001, 0.902, 0.386, 192.0, 0.0, 0.0, 0.0, 0.0, 0.0, 0.0, 0.0, 0.0, 0.0, 1.729703276381353E9, 0.0, 2024-10-23 22:37:56.381
76.0, -50235.41155283589, -44872.55750567407, -18701.346957844133, -37827.01943242782, -19408.01971054312, -25482.687411628656, -187500.02235174447, -187500.02235174447, -0.07200000000000001, 0.902, 0.386, 192.0, 0.0, 0.0, 0.0, 0.0, 0.0, 0.0, 0.0, 0.0, 0.0, 1.7297032763843343E9, 0.0, 2024-10-23 22:37:56.384
77.0, -50238.94312845983, -44872.289284740604, -18693.70266124042, -37831.10980166314, -19414.926399579814, -25497.439562969157, -187500.02235174447, -187500.02235174447, -0.07200000000000001, 0.902, 0.386, 192.0, 0.0, 0.0, 0.0, 0.0, 0.0, 0.0, 0.0, 0.0, 0.0, 1.7297032763893223E9, 0.0, 2024-10-23 22:37:56.389
78.0, -50236.37267784747, -44871.26110449566, -18693.613254262596, -37830.193380140474, -19425.09644330698, -25508.347214263347, -187500.02235174447, -187500.02235174447, -0.07, 0.904, 0.388, 192.0, 253.0, 208.0, 28.0, 64.0, 12.0, 32.0, 0.0, 0.0, 0.0, 1.7297032763933673E9, 0.0, 2024-10-23 22:37:56.393
79.0, -50224.30273584161, -44862.32040671354, -18702.97863518937, -37822.929063192496, -19421.475460705216, -25513.6222259548, -187500.02235174447, -187500.02235174447, -0.07, 0.904, 0.388, 192.0, 0.0, 0.0, 0.0, 0.0, 0.0, 0.0, 0.0, 0.0, 0.0, 1.7297032763973572E9, 0.0, 2024-10-23 22:37:56.397
80.0, -50216.88195668244, -44856.01721477714, -18709.773565503787, -37823.30904284824, -19424.984684584702, -25522.361758036826, -187500.02235174447, -187500.02235174447, -0.07, 0.904, 0.388, 192.0, 0.0, 0.0, 0.0, 0.0, 0.0, 0.0, 0.0, 0.0, 0.0, 1.7297032764033692E9, 0.0, 2024-10-23 22:37:56.403
81.0, -50219.31829682807, -44856.01721477714, -18719.541277830755, -37831.35567085215, -19432.964257355245, -25534.90108667625, -187500.02235174447, -187500.02235174447, -0.07, 0.904, 0.388, 192.0, 0.0, 0.0, 0.0, 0.0, 0.0, 0.0, 0.0, 0.0, 0.0, 1.7297032764063687E9, 0.0, 2024-10-23 22:37:56.406
82.0, -50239.05488718211, -44871.61873240695, -18675.910672653994, -37852.567476340235, -19454.8913186659, -25557.76692125403, -187500.02235174447, -187500.02235174447, -0.07, 0.904, 0.388, 192.0, 0.0, 0.0, 0.0, 0.0, 0.0, 0.0, 0.0, 0.0, 0.0, 1.7297032764094176E9, 0.0, 2024-10-23 22:37:56.409
83.0, -50236.08210516955, -44879.710063899765, -18669.49572199532, -37855.719072308435, -19451.024466875133, -25559.532709066, -187500.02235174447, -187500.02235174447, -0.07, 0.904, 0.388, 192.0, 0.0, 0.0, 0.0, 0.0, 0.0, 0.0, 0.0, 0.0, 0.0, 1.729703276413386E9, 0.0, 2024-10-23 22:37:56.413
84.0, -50221.24054685123, -44871.8422498515, -18705.862010224108, -37844.789069269784, -19440.89912663688, -25546.076958903905, -187500.02235174447, -187500.02235174447, -0.07, 0.904, 0.388, 192.0, 0.0, 0.0, 0.0, 0.0, 0.0, 0.0, 0.0, 0.0, 0.0, 1.7297032764174294E9, 0.0, 2024-10-23 22:37:56.417
85.0, -50219.81003520609, -44870.411738206356, -18725.151565689037, -37843.73853728039, -19431.26552477664, -25538.745586722565, -187500.02235174447, -187500.02235174447, -0.07, 0.904, 0.388, 192.0, 0.0, 0.0, 0.0, 0.0, 0.0, 0.0, 0.0, 0.0, 0.0, 1.729703276421408E9, 0.0, 2024-10-23 22:37:56.421
86.0, -50216.47962528225, -44869.718834128245, -18742.317705430713, -37838.642339544574, -19423.330655495007, -25528.687301717677, -187500.02235174447, -187500.02235174447, -0.07, 0.904, 0.388, 192.0, 0.0, 0.0, 0.0, 0.0, 0.0, 0.0, 0.0, 0.0, 0.0, 1.7297032764254527E9, 0.0, 2024-10-23 22:37:56.425
87.0, -50211.964572902274, -44870.903476584375, -18740.28369668528, -37833.613197042134, -19422.324826994518, -25522.04883361445, -187500.02235174447, -187500.02235174447, -0.07, 0.904, 0.388, 192.0, 0.0, 0.0, 0.0, 0.0, 0.0, 0.0, 0.0, 0.0, 0.0, 1.7297032764294453E9, 0.0, 2024-10-23 22:37:56.429
88.0, -50204.54379374311, -44863.482697425214, -18737.780301306284, -37820.135095135585, -19413.80881235705, -25509.174228808195, -187500.02235174447, -187500.02235174447, -0.07, 0.904, 0.388, 192.0, 0.0, 0.0, 0.0, 0.0, 0.0, 0.0, 0.0, 0.0, 0.0, 1.72970327643343E9, 0.0, 2024-10-23 22:37:56.433
89.0, -50208.38829378942, -44862.11924101344, -18720.94943773144, -37821.29738584726, -19422.391882227887, -25509.554208463935, -187500.02235174447, -187500.02235174447, -0.07, 0.902, 0.392, 192.0, 253.0, 208.0, 28.0, 48.0, 12.0, 64.0, 0.0, 0.0, 0.0, 1.729703276437432E9, 0.0, 2024-10-23 22:37:56.437
90.0, -50210.712875212776, -44866.299017226585, -18729.018417479805, -37821.587958525175, -19422.41423397234, -25505.53089446198, -187500.02235174447, -187500.02235174447, -0.07, 0.902, 0.392, 192.0, 0.0, 0.0, 0.0, 0.0, 0.0, 0.0, 0.0, 0.0, 0.0, 1.7297032764404528E9, 0.0, 2024-10-23 22:37:56.440
91.0, -50223.05103815211, -44871.819898107045, -18714.93681847296, -37825.05247891575, -19438.46278649125, -25507.94488286315, -187500.02235174447, -187500.02235174447, -0.07, 0.902, 0.392, 192.0, 0.0, 0.0, 0.0, 0.0, 0.0, 0.0, 0.0, 0.0, 0.0, 1.729703276444435E9, 0.0, 2024-10-23 22:37:56.444
92.0, -50212.85864268048, -44866.25431373767, -18727.319684901202, -37809.80858919723, -19413.875867590414, -25489.750562876532, -187500.02235174447, -187500.02235174447, -0.07, 0.902, 0.392, 192.0, 0.0, 0.0, 0.0, 0.0, 0.0, 0.0, 0.0, 0.0, 0.0, 1.7297032764494376E9, 0.0, 2024-10-23 22:37:56.449
93.0, -50207.96361064477, -44856.151325243874, -18737.735597817373, -37796.48694950187, -19406.74566110917, -25473.590251635345, -187500.02235174447, -187500.02235174447, -0.07, 0.902, 0.392, 192.0, 0.0, 0.0, 0.0, 0.0, 0.0, 0.0, 0.0, 0.0, 0.0, 1.7297032764534578E9, 0.0, 2024-10-23 22:37:56.453
94.0, -50217.82072994956, -44863.840325336496, -18719.764795275307, -37799.19151058096, -19414.881696090903, -25471.46683591209, -187500.02235174447, -187500.02235174447, -0.07, 0.902, 0.392, 192.0, 0.0, 0.0, 0.0, 0.0, 0.0, 0.0, 0.0, 0.0, 0.0, 1.7297032764574313E9, 0.0, 2024-10-23 22:37:56.457
95.0, -50217.12782587145, -44862.298054969084, -18714.08745218366, -37791.30134478824, -19412.37830071191, -25462.503786385514, -187500.02235174447, -187500.02235174447, -0.07, 0.902, 0.392, 192.0, 0.0, 0.0, 0.0, 0.0, 0.0, 0.0, 0.0, 0.0, 0.0, 1.7297032764614751E9, 0.0, 2024-10-23 22:37:56.461
96.0, -50214.64678223691, -44860.39815669038, -18700.966978188393, -37787.121568575094, -19403.191733740776, -25458.435768894647, -187500.02235174447, -187500.02235174447, -0.07, 0.902, 0.392, 192.0, 0.0, 0.0, 0.0, 0.0, 0.0, 0.0, 0.0, 0.0, 0.0, 1.7297032764655082E9, 0.0, 2024-10-23 22:37:56.465
97.0, -50205.34845654351, -44855.100793254474, -18718.021359207793, -37782.40535049503, -19392.9769865247, -25450.009161234997, -187500.02235174447, -187500.02235174447, -0.07, 0.902, 0.392, 192.0, 0.0, 0.0, 0.0, 0.0, 0.0, 0.0, 0.0, 0.0, 0.0, 1.7297032764684927E9, 0.0, 2024-10-23 22:37:56.468
98.0, -50200.60988671898, -44848.05999375105, -18741.6248013526, -37775.588068436155, -19388.283120189088, -25445.18118443265, -187500.02235174447, -187500.02235174447, -0.07, 0.902, 0.392, 192.0, 0.0, 0.0, 0.0, 0.0, 0.0, 0.0, 0.0, 0.0, 0.0, 1.7297032764725015E9, 0.0, 2024-10-23 22:37:56.472
99.0, -50208.25418332269, -44849.40109841837, -18741.691856585963, -37778.15851904852, -19392.574655124507, -25449.718588557076, -187500.02235174447, -187500.02235174447, -0.068, 0.898, 0.394, 192.0, 253.0, 224.0, 28.0, 16.0, 12.0, 80.0, 0.0, 0.0, 0.0, 1.7297032764774475E9, 0.0, 2024-10-23 22:37:56.477
100.0, -50220.39118056193, -44858.29709271158, -18714.489783583856, -37791.01077211032, -19404.93516980829, -25460.51448112899, -187500.02235174447, -187500.02235174447, -0.068, 0.898, 0.394, 192.0, 0.0, 0.0, 0.0, 0.0, 0.0, 0.0, 0.0, 0.0, 0.0, 1.729703276481466E9, 0.0, 2024-10-23 22:37:56.481
101.0, -50224.615660263975, -44858.028871778115, -18704.18562938996, -37797.49277800236, -19415.66400714684, -25472.696181857133, -187500.02235174447, -187500.02235174447, -0.068, 0.898, 0.394, 192.0, 0.0, 0.0, 0.0, 0.0, 0.0, 0.0, 0.0, 0.0, 0.0, 1.7297032764854684E9, 0.0, 2024-10-23 22:37:56.485
102.0, -50223.94510793032, -44854.27377870963, -18711.293484126745, -37805.09237111716, -19430.84084163199, -25485.771952363488, -187500.02235174447, -187500.02235174447, -0.068, 0.898, 0.394, 192.0, 0.0, 0.0, 0.0, 0.0, 0.0, 0.0, 0.0, 0.0, 0.0, 1.7297032764894772E9, 0.0, 2024-10-23 22:37:56.489
103.0, -50222.22402360726, -44853.983206031706, -18712.567533560697, -37812.1778741095, -19433.52305096663, -25500.591158937357, -187500.02235174447, -187500.02235174447, -0.068, 0.898, 0.394, 192.0, 0.0, 0.0, 0.0, 0.0, 0.0, 0.0, 0.0, 0.0, 0.0, 1.729703276494563E9, 0.0, 2024-10-23 22:37:56.494
104.0, -50221.15113987341, -44857.000691533176, -18724.32455114419, -37815.508284033334, -19427.733949152702, -25511.632920698277, -187500.02235174447, -187500.02235174447, -0.068, 0.898, 0.394, 192.0, 0.0, 0.0, 0.0, 0.0, 0.0, 0.0, 0.0, 0.0, 0.0, 1.7297032764975147E9, 0.0, 2024-10-23 22:37:56.497
105.0, -50227.85666321, -44858.76647934514, -18721.619990065097, -37821.76677248082, -19439.42391150283, -25521.95942663663, -187500.02235174447, -187500.02235174447, -0.068, 0.898, 0.394, 192.0, 0.0, 0.0, 0.0, 0.0, 0.0, 0.0, 0.0, 0.0, 0.0, 1.7297032765005257E9, 0.0, 2024-10-23 22:37:56.500
106.0, -50228.84013996603, -44859.437031678804, -18716.076757440183, -37828.516999306325, -19441.07794059252, -25529.067281373416, -187500.02235174447, -187500.02235174447, -0.068, 0.898, 0.394, 192.0, 0.0, 0.0, 0.0, 0.0, 0.0, 0.0, 0.0, 0.0, 0.0, 1.7297032765186396E9, 0.0, 2024-10-23 22:37:56.518
107.0, -50230.158892888896, -44863.72856661422, -18719.04953945274, -37836.16129591004, -19449.66101046336, -25539.25967684504, -187500.02235174447, -187500.02235174447, -0.068, 0.898, 0.394, 192.0, 0.0, 0.0, 0.0, 0.0, 0.0, 0.0, 0.0, 0.0, 0.0, 1.729703276522654E9, 0.0, 2024-10-23 22:37:56.522
108.0, -50241.15595116091, -44877.72075864324, -18710.13119341507, -37847.940665237984, -19454.936022154812, -25553.989476441086, -187500.02235174447, -187500.02235174447, -0.068, 0.898, 0.394, 192.0, 0.0, 0.0, 0.0, 0.0, 0.0, 0.0, 0.0, 0.0, 0.0, 1.7297032765255504E9, 0.0, 2024-10-23 22:37:56.525
109.0, -50235.23273888025, -44877.02785456513, -18713.953341716926, -37846.912484993045, -19446.46471100625, -25553.4306828297, -187500.02235174447, -187500.02235174447, -0.074, 0.904, 0.386, 192.0, 253.0, 176.0, 28.0, 64.0, 12.0, 16.0, 0.0, 0.0, 0.0, 1.729703276528597E9, 0.0, 2024-10-23 22:37:56.528
110.0, -50224.45919805279, -44866.5895899045, -18708.208943391914, -37840.29636863427, -19445.213013316752, -25551.19550838417, -187500.02235174447, -187500.02235174447, -0.074, 0.904, 0.386, 192.0, 0.0, 0.0, 0.0, 0.0, 0.0, 0.0, 0.0, 0.0, 0.0, 1.7297032765325768E9, 0.0, 2024-10-23 22:37:56.532
111.0, -50216.34551481551, -44861.538095657605, -18717.6190278076, -37832.20503714145, -19433.88067887791, -25539.68435998969, -187500.02235174447, -187500.02235174447, -0.074, 0.904, 0.386, 192.0, 0.0, 0.0, 0.0, 0.0, 0.0, 0.0, 0.0, 0.0, 0.0, 1.72970327653553E9, 0.0, 2024-10-23 22:37:56.535
112.0, -50215.6526107374, -44861.180467746315, -18736.416844894513, -37827.08648766118, -19424.984684584702, -25529.357854051337, -187500.02235174447, -187500.02235174447, -0.074, 0.904, 0.386, 192.0, 0.0, 0.0, 0.0, 0.0, 0.0, 0.0, 0.0, 0.0, 0.0, 1.7297032765385675E9, 0.0, 2024-10-23 22:37:56.538
113.0, -50230.33770684453, -44868.75770911667, -18714.154507417024, -37835.91542672103, -19437.32284752403, -25537.449185544156, -187500.02235174447, -187500.02235174447, -0.074, 0.904, 0.386, 192.0, 0.0, 0.0, 0.0, 0.0, 0.0, 0.0, 0.0, 0.0, 0.0, 1.7297032765415828E9, 0.0, 2024-10-23 22:37:56.541
114.0, -50225.7555992312, -44867.52836317162, -18723.296370899247, -37828.06996441722, -19436.7864056571, -25530.095461618363, -187500.02235174447, -187500.02235174447, -0.074, 0.904, 0.386, 192.0, 0.0, 0.0, 0.0, 0.0, 0.0, 0.0, 0.0, 0.0, 0.0, 1.7297032765455663E9, 0.0, 2024-10-23 22:37:56.545
115.0, -50214.624430492455, -44860.286397968106, -18729.554859346732, -37814.30128983275, -19427.108100307956, -25513.6222259548, -187500.02235174447, -187500.02235174447, -0.074, 0.904, 0.386, 192.0, 0.0, 0.0, 0.0, 0.0, 0.0, 0.0, 0.0, 0.0, 0.0, 1.729703276548544E9, 0.0, 2024-10-23 22:37:56.548
116.0, -50213.79741594761, -44860.53226715711, -18714.378024861577, -37812.58020550969, -19431.377283498918, -25507.117868318306, -187500.02235174447, -187500.02235174447, -0.074, 0.904, 0.386, 192.0, 0.0, 0.0, 0.0, 0.0, 0.0, 0.0, 0.0, 0.0, 0.0, 1.7297032765516088E9, 0.0, 2024-10-23 22:37:56.551
117.0, -50217.59721250501, -44865.650816637375, -18718.37898711908, -37812.53550202078, -19430.103234064965, -25504.927397361684, -187500.02235174447, -187500.02235174447, -0.074, 0.904, 0.386, 192.0, 0.0, 0.0, 0.0, 0.0, 0.0, 0.0, 0.0, 0.0, 0.0, 1.7297032765558276E9, 0.0, 2024-10-23 22:37:56.555
118.0, -50222.51459628518, -44869.1376887724, -18704.118574156593, -37811.48497003138, -19429.902068364867, -25505.732060162078, -187500.02235174447, -187500.02235174447, -0.074, 0.904, 0.386, 192.0, 0.0, 0.0, 0.0, 0.0, 0.0, 0.0, 0.0, 0.0, 0.0, 1.7297032765594196E9, 0.0, 2024-10-23 22:37:56.559
119.0, -50212.813939191576, -44864.890857325896, -18699.22354212088, -37797.93981289146, -19421.81073687205, -25488.588272164856, -187500.02235174447, -187500.02235174447, -0.07200000000000001, 0.898, 0.394, 192.0, 253.0, 192.0, 28.0, 16.0, 12.0, 80.0, 0.0, 0.0, 0.0, 1.729703276572786E9, 0.0, 2024-10-23 22:37:56.572
120.0, -50212.7021804693, -44866.433127693315, -18681.83388493465, -37791.882490144075, -19420.626094415915, -25480.22871973857, -187500.02235174447, -187500.02235174447, -0.07200000000000001, 0.898, 0.394, 192.0, 0.0, 0.0, 0.0, 0.0, 0.0, 0.0, 0.0, 0.0, 0.0, 1.7297032765728188E9, 0.0, 2024-10-23 22:37:56.572
121.0, -50208.678866467344, -44858.49825841168, -18685.253701836315, -37777.71148415941, -19390.54064637907, -25454.79243454843, -187500.02235174447, -187500.02235174447, -0.07200000000000001, 0.898, 0.394, 192.0, 0.0, 0.0, 0.0, 0.0, 0.0, 0.0, 0.0, 0.0, 0.0, 1.7297032765728333E9, 0.0, 2024-10-23 22:37:56.572
122.0, -50213.149215358404, -44859.48173516771, -18707.001949191326, -37775.83393762517, -19391.099439990456, -25451.08204496885, -187500.02235174447, -187500.02235174447, -0.07200000000000001, 0.898, 0.394, 192.0, 0.0, 0.0, 0.0, 0.0, 0.0, 0.0, 0.0, 0.0, 0.0, 1.729703276572865E9, 0.0, 2024-10-23 22:37:56.572
123.0, -50225.97911667575, -44864.86850558144, -18714.534487072764, -37788.44032149796, -19427.264562519144, -25488.43180995367, -187500.02235174447, -187500.02235174447, -0.07200000000000001, 0.898, 0.394, 192.0, 0.0, 0.0, 0.0, 0.0, 0.0, 0.0, 0.0, 0.0, 0.0, 1.7297032765756469E9, 0.0, 2024-10-23 22:37:56.575
124.0, -50239.25605288221, -44873.38452021891, -18703.35861484511, -37806.94756590695, -19465.57545251554, -25522.96525513712, -187500.02235174447, -187500.02235174447, -0.07200000000000001, 0.898, 0.394, 192.0, 0.0, 0.0, 0.0, 0.0, 0.0, 0.0, 0.0, 0.0, 0.0, 1.7297032765816455E9, 0.0, 2024-10-23 22:37:56.581
125.0, -50254.678756556365, -44884.806261635575, -18673.407277275, -37814.39069681057, -19456.210071588765, -25491.985737322062, -187500.02235174447, -187500.02235174447, -0.07200000000000001, 0.898, 0.394, 192.0, 0.0, 0.0, 0.0, 0.0, 0.0, 0.0, 0.0, 0.0, 0.0, 1.7297032765919216E9, 0.0, 2024-10-23 22:37:56.591
126.0, -50253.38235537796, -44882.81695637905, -18670.16627432898, -37816.849388700655, -19447.202318573276, -25489.45999019861, -187500.02235174447, -187500.02235174447, -0.07200000000000001, 0.898, 0.394, 192.0, 0.0, 0.0, 0.0, 0.0, 0.0, 0.0, 0.0, 0.0, 0.0, 1.7297032765919478E9, 0.0, 2024-10-23 22:37:56.591
127.0, -50245.13456167395, -44874.56916267505, -18701.346957844133, -37814.21188285493, -19432.249001532677, -25485.32491747438, -187500.02235174447, -187500.02235174447, -0.07200000000000001, 0.898, 0.394, 192.0, 0.0, 0.0, 0.0, 0.0, 0.0, 0.0, 0.0, 0.0, 0.0, 1.729703276591958E9, 0.0, 2024-10-23 22:37:56.591
128.0, -50247.973233219775, -44879.62065692194, -18709.97473120388, -37828.11466790613, -19445.86121390596, -25507.453144485135, -187500.02235174447, -187500.02235174447, -0.07200000000000001, 0.898, 0.394, 192.0, 0.0, 0.0, 0.0, 0.0, 0.0, 0.0, 0.0, 0.0, 0.0, 1.7297032765958457E9, 0.0, 2024-10-23 22:37:56.595
129.0, -50258.70207055832, -44887.4437674813, -18703.671539267485, -37847.337168137696, -19468.212958361266, -25535.3257698209, -187500.02235174447, -187500.02235174447, -0.066, 0.884, 0.39, 192.0, 253.0, 240.0, 27.0, 160.0, 12.0, 48.0, 0.0, 0.0, 0.0, 1.7297032766001635E9, 0.0, 2024-10-23 22:37:56.600
130.0, -50262.591274093546, -44889.701293671285, -18691.802762961717, -37859.29535142128, -19483.322737613053, -25553.38597934079, -187500.02235174447, -187500.02235174447, -0.066, 0.884, 0.39, 192.0, 0.0, 0.0, 0.0, 0.0, 0.0, 0.0, 0.0, 0.0, 0.0, 1.7297032766026487E9, 0.0, 2024-10-23 22:37:56.602
131.0, -50257.60683508001, -44884.2921715131, -18690.729879227863, -37860.52469736632, -19486.273167881154, -25559.845633488374, -187500.02235174447, -187500.02235174447, -0.066, 0.884, 0.39, 192.0, 0.0, 0.0, 0.0, 0.0, 0.0, 0.0, 0.0, 0.0, 0.0, 1.7297032766056507E9, 0.0, 2024-10-23 22:37:56.605
132.0, -50247.8614744975, -44876.8937440984, -18690.238140849848, -37854.57913334121, -19479.232368377732, -25555.263525875038, -187500.02235174447, -187500.02235174447, -0.066, 0.884, 0.39, 192.0, 0.0, 0.0, 0.0, 0.0, 0.0, 0.0, 0.0, 0.0, 0.0, 1.7297032766176972E9, 0.0, 2024-10-23 22:37:56.617
133.0, -50236.77500924766, -44869.47296493923, -18704.65501602352, -37842.24097040188, -19469.576414773037, -25547.462767060133, -187500.02235174447, -187500.02235174447, -0.066, 0.884, 0.39, 192.0, 0.0, 0.0, 0.0, 0.0, 0.0, 0.0, 0.0, 0.0, 0.0, 1.729703276621688E9, 0.0, 2024-10-23 22:37:56.621
134.0, -50237.780837748156, -44874.83738360851, -18692.339204828644, -37844.789069269784, -19468.23531010572, -25547.395711826768, -187500.02235174447, -187500.02235174447, -0.066, 0.884, 0.39, 192.0, 0.0, 0.0, 0.0, 0.0, 0.0, 0.0, 0.0, 0.0, 0.0, 1.7297032766248384E9, 0.0, 2024-10-23 22:37:56.624
135.0, -50223.38631431894, -44875.01619756415, -18703.090393911647, -37838.95526396695, -19459.451074534783, -25539.170269867216, -187500.02235174447, -187500.02235174447, -0.066, 0.884, 0.39, 192.0, 0.0, 0.0, 0.0, 0.0, 0.0, 0.0, 0.0, 0.0, 0.0, 1.7297032766279871E9, 0.0, 2024-10-23 22:37:56.627
136.0, -50220.03355265064, -44877.22902026523, -18713.148678916536, -37842.46448784644, -19460.747475713193, -25546.367531581825, -187500.02235174447, -187500.02235174447, -0.066, 0.884, 0.39, 192.0, 0.0, 0.0, 0.0, 0.0, 0.0, 0.0, 0.0, 0.0, 0.0, 1.729703276632563E9, 0.0, 2024-10-23 22:37:56.632
137.0, -50216.03259039314, -44875.932619086816, -18712.545181816244, -37844.185572169496, -19459.205205345777, -25549.34031359438, -187500.02235174447, -187500.02235174447, -0.066, 0.884, 0.39, 192.0, 0.0, 0.0, 0.0, 0.0, 0.0, 0.0, 0.0, 0.0, 0.0, 1.729703276634691E9, 0.0, 2024-10-23 22:37:56.634
138.0, -50206.577802488544, -44871.75284287368, -18714.154507417024, -37839.067022689225, -19451.42679827533, -25538.38795881128, -187500.02235174447, -187500.02235174447, -0.066, 0.884, 0.39, 192.0, 0.0, 0.0, 0.0, 0.0, 0.0, 0.0, 0.0, 0.0, 0.0, 1.7297032766377869E9, 0.0, 2024-10-23 22:37:56.637
139.0, -50200.74399718571, -44863.773270103135, -18700.13996364355, -37837.92708372201, -19445.86121390596, -25528.799060439953, -187500.02235174447, -187500.02235174447, -0.076, 0.894, 0.384, 192.0, 253.0, 160.0, 27.0, 240.0, 12.0, 0.0, 0.0, 0.0, 0.0, 1.7297032766414237E9, 0.0, 2024-10-23 22:37:56.641
140.0, -50194.3961017604, -44861.78396484661, -18692.048632150727, -37836.29540637677, -19437.70282717977, -25518.450202757147, -187500.02235174447, -187500.02235174447, -0.076, 0.894, 0.384, 192.0, 0.0, 0.0, 0.0, 0.0, 0.0, 0.0, 0.0, 0.0, 0.0, 1.7297032766458175E9, 0.0, 2024-10-23 22:37:56.645
141.0, -50192.675017437345, -44862.655682880366, -18701.79399273324, -37834.35080460916, -19429.16446079784, -25509.04011834146, -187500.02235174447, -187500.02235174447, -0.076, 0.894, 0.384, 192.0, 0.0, 0.0, 0.0, 0.0, 0.0, 0.0, 0.0, 0.0, 0.0, 1.7297032766478412E9, 0.0, 2024-10-23 22:37:56.647
142.0, -50183.77902314413, -44857.470078166734, -18722.871687754596, -37832.18268539699, -19418.569733926026, -25492.74569663354, -187500.02235174447, -187500.02235174447, -0.076, 0.894, 0.384, 192.0, 0.0, 0.0, 0.0, 0.0, 0.0, 0.0, 0.0, 0.0, 0.0, 1.7297032766517034E9, 0.0, 2024-10-23 22:37:56.651
143.0, -50179.15221204188, -44851.4351071638, -18698.798858976228, -37832.719127263925, -19414.255847246153, -25480.27342322748, -187500.02235174447, -187500.02235174447, -0.076, 0.894, 0.384, 192.0, 0.0, 0.0, 0.0, 0.0, 0.0, 0.0, 0.0, 0.0, 0.0, 1.7297032766567624E9, 0.0, 2024-10-23 22:37:56.656
144.0, -50180.582723687025, -44853.7373368427, -18683.957300657905, -37833.277920875305, -19413.071204790023, -25469.723399844577, -187500.02235174447, -187500.02235174447, -0.076, 0.894, 0.384, 192.0, 0.0, 0.0, 0.0, 0.0, 0.0, 0.0, 0.0, 0.0, 0.0, 1.729703276660751E9, 0.0, 2024-10-23 22:37:56.660
145.0, -50185.32129351155, -44855.816049077046, -18679.84457967813, -37835.87072323212, -19409.785498355093, -25459.642763095235, -187500.02235174447, -187500.02235174447, -0.076, 0.894, 0.384, 192.0, 0.0, 0.0, 0.0, 0.0, 0.0, 0.0, 0.0, 0.0, 0.0, 1.729703276664775E9, 0.0, 2024-10-23 22:37:56.664
146.0, -50193.83730814902, -44862.230999735715, -18679.79987618922, -37840.58694131219, -19412.75828036765, -25455.32887641536, -187500.02235174447, -187500.02235174447, -0.076, 0.894, 0.384, 192.0, 0.0, 0.0, 0.0, 0.0, 0.0, 0.0, 0.0, 0.0, 0.0, 1.7297032766688151E9, 0.0, 2024-10-23 22:37:56.668
147.0, -50201.50395649719, -44869.227095750226, -18666.03120160475, -37843.559723324746, -19418.770899626124, -25458.90515552821, -187500.02235174447, -187500.02235174447, -0.076, 0.894, 0.384, 192.0, 0.0, 0.0, 0.0, 0.0, 0.0, 0.0, 0.0, 0.0, 0.0, 1.7297032766727755E9, 0.0, 2024-10-23 22:37:56.672
148.0, -50201.615715219465, -44862.74508985819, -18671.820303418674, -37839.93874072299, -19418.52503043712, -25454.27834442596, -187500.02235174447, -187500.02235174447, -0.076, 0.894, 0.384, 192.0, 0.0, 0.0, 0.0, 0.0, 0.0, 0.0, 0.0, 0.0, 0.0, 1.7297032766768029E9, 0.0, 2024-10-23 22:37:56.676
149.0, -50206.443692021814, -44860.24169447919, -18689.902864683016, -37841.12338317912, -19422.0342543166, -25457.117015971784, -187500.02235174447, -187500.02235174447, -0.084, 0.908, 0.386, 192.0, 253.0, 96.0, 28.0, 96.0, 12.0, 16.0, 0.0, 0.0, 0.0, 1.7297032766797628E9, 0.0, 2024-10-23 22:37:56.679
150.0, -50218.35717181649, -44868.64595039439, -18686.41599254799, -37855.786127541796, -19448.722237196238, -25477.345344703837, -187500.02235174447, -187500.02235174447, -0.084, 0.908, 0.386, 192.0, 0.0, 0.0, 0.0, 0.0, 0.0, 0.0, 0.0, 0.0, 0.0, 1.7297032766837437E9, 0.0, 2024-10-23 22:37:56.683
151.0, -50228.102532399, -44875.26206675316, -18674.301347053213, -37868.41486315904, -19476.259586365173, -25496.61254842431, -187500.02235174447, -187500.02235174447, -0.084, 0.908, 0.386, 192.0, 0.0, 0.0, 0.0, 0.0, 0.0, 0.0, 0.0, 0.0, 0.0, 1.7297032766867607E9, 0.0, 2024-10-23 22:37:56.686
152.0, -50237.73613425924, -44883.82278487954, -18652.84367237612, -37886.20685174547, -19482.47337132375, -25525.155726093737, -187500.02235174447, -187500.02235174447, -0.084, 0.908, 0.386, 192.0, 0.0, 0.0, 0.0, 0.0, 0.0, 0.0, 0.0, 0.0, 0.0, 1.7297032767098312E9, 0.0, 2024-10-23 22:37:56.709
153.0, -50227.29786959862, -44882.146404045394, -18652.955431098395, -37887.21268024596, -19460.65806873537, -25527.368548794813, -187500.02235174447, -187500.02235174447, -0.084, 0.908, 0.386, 192.0, 0.0, 0.0, 0.0, 0.0, 0.0, 0.0, 0.0, 0.0, 0.0, 1.729703276713953E9, 0.0, 2024-10-23 22:37:56.713
154.0, -50210.10937811249, -44869.31650272805, -18665.36064927109, -37871.94643878299, -19438.41808300234, -25501.95461534913, -187500.02235174447, -187500.02235174447, -0.084, 0.908, 0.386, 192.0, 0.0, 0.0, 0.0, 0.0, 0.0, 0.0, 0.0, 0.0, 0.0, 1.7297032767168007E9, 0.0, 2024-10-23 22:37:56.716
155.0, -50200.922811141354, -44856.419546177334, -18692.69683273993, -37862.64811308958, -19465.664859493358, -25504.86034212832, -187500.02235174447, -187500.02235174447, -0.084, 0.908, 0.386, 192.0, 0.0, 0.0, 0.0, 0.0, 0.0, 0.0, 0.0, 0.0, 0.0, 1.7297032767208285E9, 0.0, 2024-10-23 22:37:56.720
156.0, -50198.53117448463, -44851.59156937499, -18714.04274869475, -37861.55287761127, -19490.67646153885, -25516.3714905228, -187500.02235174447, -187500.02235174447, -0.084, 0.908, 0.386, 192.0, 0.0, 0.0, 0.0, 0.0, 0.0, 0.0, 0.0, 0.0, 0.0, 1.7297032767238264E9, 0.0, 2024-10-23 22:37:56.723
157.0, -50189.16579355786, -44848.57408387352, -18720.94943773144, -37853.37213914062, -19436.674646934825, -25508.43662124117, -187500.02235174447, -187500.02235174447, -0.084, 0.908, 0.386, 192.0, 0.0, 0.0, 0.0, 0.0, 0.0, 0.0, 0.0, 0.0, 0.0, 1.7297032767278817E9, 0.0, 2024-10-23 22:37:56.727
158.0, -50191.89270638141, -44854.40788917636, -18714.646245795044, -37853.886229263095, -19431.757263154657, -25517.891409145763, -187500.02235174447, -187500.02235174447, -0.084, 0.908, 0.386, 192.0, 0.0, 0.0, 0.0, 0.0, 0.0, 0.0, 0.0, 0.0, 0.0, 1.7297032767309744E9, 0.0, 2024-10-23 22:37:56.730
159.0, -50188.964627857764, -44855.99486303268, -18724.525716844288, -37850.93579899499, -19436.160556812352, -25523.121717348306, -187500.02235174447, -187500.02235174447, -0.09, 0.9, 0.386, 192.0, 253.0, 48.0, 28.0, 32.0, 12.0, 16.0, 0.0, 0.0, 0.0, 1.7297032767339137E9, 0.0, 2024-10-23 22:37:56.733
160.0, -50190.26102903617, -44855.34666244348, -18719.22835340838, -37845.571380325724, -19442.93313538231, -25524.19460108216, -187500.02235174447, -187500.02235174447, -0.09, 0.9, 0.386, 192.0, 0.0, 0.0, 0.0, 0.0, 0.0, 0.0, 0.0, 0.0, 0.0, 1.7297032767379792E9, 0.0, 2024-10-23 22:37:56.737
161.0, -50183.935485355316, -44850.96572053024, -18720.122423186593, -37835.06606043173, -19445.70475169477, -25518.450202757147, -187500.02235174447, -187500.02235174447, -0.09, 0.9, 0.386, 192.0, 0.0, 0.0, 0.0, 0.0, 0.0, 0.0, 0.0, 0.0, 0.0, 1.7297032767428331E9, 0.0, 2024-10-23 22:37:56.742
162.0, -50186.84121213451, -44852.39623217538, -18708.655978281018, -37828.69581326197, -19452.097350608987, -25516.95263587864, -187500.02235174447, -187500.02235174447, -0.09, 0.9, 0.386, 192.0, 0.0, 0.0, 0.0, 0.0, 0.0, 0.0, 0.0, 0.0, 0.0, 1.729703276745886E9, 0.0, 2024-10-23 22:37:56.745
163.0, -50183.42139523285, -44850.429278663316, -18706.398452091034, -37819.352784079645, -19452.633792475914, -25510.403574753236, -187500.02235174447, -187500.02235174447, -0.09, 0.9, 0.386, 192.0, 0.0, 0.0, 0.0, 0.0, 0.0, 0.0, 0.0, 0.0, 0.0, 1.729703276748871E9, 0.0, 2024-10-23 22:37:56.748
164.0, -50184.002540588684, -44849.69167109629, -18682.012698890292, -37812.75901946533, -19454.868966921447, -25503.318071760903, -187500.02235174447, -187500.02235174447, -0.09, 0.9, 0.386, 192.0, 0.0, 0.0, 0.0, 0.0, 0.0, 0.0, 0.0, 0.0, 0.0, 1.729703276753043E9, 0.0, 2024-10-23 22:37:56.753
165.0, -50175.53122944012, -44846.562426872544, -18689.165257115994, -37801.180815837484, -19445.503585994673, -25490.53287393247, -187500.02235174447, -187500.02235174447, -0.09, 0.9, 0.386, 192.0, 0.0, 0.0, 0.0, 0.0, 0.0, 0.0, 0.0, 0.0, 0.0, 1.7297032767558515E9, 0.0, 2024-10-23 22:37:56.755
166.0, -50177.587589930015, -44841.71209832574, -18685.410164047502, -37794.117664589605, -19443.782501671612, -25486.062525041405, -187500.02235174447, -187500.02235174447, -0.09, 0.9, 0.386, 192.0, 0.0, 0.0, 0.0, 0.0, 0.0, 0.0, 0.0, 0.0, 0.0, 1.7297032767588654E9, 0.0, 2024-10-23 22:37:56.758
167.0, -50180.91799985385, -44843.34377567098, -18671.283861551747, -37795.25760355683, -19444.94479238329, -25485.839007596853, -187500.02235174447, -187500.02235174447, -0.09, 0.9, 0.386, 192.0, 0.0, 0.0, 0.0, 0.0, 0.0, 0.0, 0.0, 0.0, 0.0, 1.7297032767629411E9, 0.0, 2024-10-23 22:37:56.762
168.0, -50172.22317126074, -44840.75097331416, -18671.79795167422, -37797.2245570689, -19442.016713859644, -25485.168455263192, -187500.02235174447, -187500.02235174447, -0.09, 0.9, 0.386, 192.0, 0.0, 0.0, 0.0, 0.0, 0.0, 0.0, 0.0, 0.0, 0.0, 1.729703276765911E9, 0.0, 2024-10-23 22:37:56.765
169.0, -50170.68090089332, -44839.25340643566, -18684.06905938018, -37798.744475691856, -19436.495832979184, -25482.128618017272, -187500.02235174447, -187500.02235174447, -0.082, 0.896, 0.388, 192.0, 253.0, 112.0, 28.0, 0.0, 12.0, 32.0, 0.0, 0.0, 0.0, 1.7297032767699573E9, 0.0, 2024-10-23 22:37:56.769
170.0, -50176.84998236299, -44845.44483964978, -18689.500533282822, -37806.7240484624, -19437.814585902048, -25485.32491747438, -187500.02235174447, -187500.02235174447, -0.082, 0.896, 0.388, 192.0, 0.0, 0.0, 0.0, 0.0, 0.0, 0.0, 0.0, 0.0, 0.0, 1.729703276773992E9, 0.0, 2024-10-23 22:37:56.773
171.0, -50193.27851453764, -44861.76161310216, -18682.727954712864, -37825.946548693966, -19450.465673263752, -25499.227702525583, -187500.02235174447, -187500.02235174447, -0.082, 0.896, 0.388, 192.0, 0.0, 0.0, 0.0, 0.0, 0.0, 0.0, 0.0, 0.0, 0.0, 1.7297032767779453E9, 0.0, 2024-10-23 22:37:56.777
172.0, -50198.1511948289, -44870.52349692863, -18675.93302439845, -37832.719127263925, -19450.868004663946, -25497.551321691433, -187500.02235174447, -187500.02235174447, -0.082, 0.896, 0.388, 192.0, 0.0, 0.0, 0.0, 0.0, 0.0, 0.0, 0.0, 0.0, 0.0, 1.7297032767819371E9, 0.0, 2024-10-23 22:37:56.781
173.0, -50198.73234018473, -44866.12020327094, -18678.145847099524, -37830.03691792928, -19453.170234342844, -25490.868150099297, -187500.02235174447, -187500.02235174447, -0.082, 0.896, 0.388, 192.0, 0.0, 0.0, 0.0, 0.0, 0.0, 0.0, 0.0, 0.0, 0.0, 1.7297032767869167E9, 0.0, 2024-10-23 22:37:56.786
174.0, -50199.961686129776, -44863.95208405877, -18707.06900442469, -37827.399412083556, -19448.632830218416, -25488.29769948694, -187500.02235174447, -187500.02235174447, -0.082, 0.896, 0.388, 192.0, 0.0, 0.0, 0.0, 0.0, 0.0, 0.0, 0.0, 0.0, 0.0, 1.7297032767909398E9, 0.0, 2024-10-23 22:37:56.790
175.0, -50203.82853792054, -44865.226133492724, -18707.784260247263, -37832.67442377501, -19460.345144312996, -25493.259786756014, -187500.02235174447, -187500.02235174447, -0.082, 0.896, 0.388, 192.0, 0.0, 0.0, 0.0, 0.0, 0.0, 0.0, 0.0, 0.0, 0.0, 1.729703276794963E9, 0.0, 2024-10-23 22:37:56.794
176.0, -50205.817843177065, -44866.52253467114, -18725.084510455672, -37842.30802563525, -19475.00788867568, -25501.596987437846, -187500.02235174447, -187500.02235174447, -0.082, 0.896, 0.388, 192.0, 0.0, 0.0, 0.0, 0.0, 0.0, 0.0, 0.0, 0.0, 0.0, 1.729703276797978E9, 0.0, 2024-10-23 22:37:56.797
177.0, -50201.101625097, -44857.961816544754, -18747.99504852236, -37839.491705833876, -19463.85436819248, -25497.75248739153, -187500.02235174447, -187500.02235174447, -0.082, 0.896, 0.388, 192.0, 0.0, 0.0, 0.0, 0.0, 0.0, 0.0, 0.0, 0.0, 0.0, 1.7297032768029897E9, 0.0, 2024-10-23 22:37:56.802
178.0, -50195.759558172176, -44849.15522922936, -18744.195251964957, -37830.0816214182, -19439.401559758375, -25484.497902929535, -187500.02235174447, -187500.02235174447, -0.082, 0.896, 0.388, 192.0, 0.0, 0.0, 0.0, 0.0, 0.0, 0.0, 0.0, 0.0, 0.0, 1.7297032768069572E9, 0.0, 2024-10-23 22:37:56.806
179.0, -50193.88201163793, -44848.73054608471, -18736.729769316884, -37831.86976097462, -19448.208147073765, -25493.32684198938, -187500.02235174447, -187500.02235174447, -0.078, 0.894, 0.398, 192.0, 253.0, 144.0, 27.0, 240.0, 12.0, 112.0, 0.0, 0.0, 0.0, 1.7297032768120801E9, 0.0, 2024-10-23 22:37:56.812
180.0, -50194.55256397159, -44849.75872632965, -18729.979542491383, -37835.781316254295, -19449.1916238298, -25505.173266550693, -187500.02235174447, -187500.02235174447, -0.078, 0.894, 0.398, 192.0, 0.0, 0.0, 0.0, 0.0, 0.0, 0.0, 0.0, 0.0, 0.0, 1.72970327681609E9, 0.0, 2024-10-23 22:37:56.816
181.0, -50189.679883680335, -44847.38944141739, -18751.303106701747, -37833.479086575404, -19428.404501486362, -25507.229627040582, -187500.02235174447, -187500.02235174447, -0.078, 0.894, 0.398, 192.0, 0.0, 0.0, 0.0, 0.0, 0.0, 0.0, 0.0, 0.0, 0.0, 1.7297032768190148E9, 0.0, 2024-10-23 22:37:56.819
182.0, -50193.859659893475, -44851.54686588608, -18755.840510826172, -37838.46352558894, -19458.780522201127, -25518.964292879617, -187500.02235174447, -187500.02235174447, -0.078, 0.894, 0.398, 192.0, 0.0, 0.0, 0.0, 0.0, 0.0, 0.0, 0.0, 0.0, 0.0, 1.7297032768230567E9, 0.0, 2024-10-23 22:37:56.823
183.0, -50196.519517483655, -44862.432165435814, -18752.33128694669, -37841.74923202387, -19477.690098010316, -25523.881676659785, -187500.02235174447, -187500.02235174447, -0.078, 0.894, 0.398, 192.0, 0.0, 0.0, 0.0, 0.0, 0.0, 0.0, 0.0, 0.0, 0.0, 1.7297032768260398E9, 0.0, 2024-10-23 22:37:56.826
184.0, -50186.05890107858, -44858.453554922766, -18759.349734705655, -37830.14867665156, -19439.22274580273, -25513.219894554604, -187500.02235174447, -187500.02235174447, -0.078, 0.894, 0.398, 192.0, 0.0, 0.0, 0.0, 0.0, 0.0, 0.0, 0.0, 0.0, 0.0, 1.7297032768289936E9, 0.0, 2024-10-23 22:37:56.828
185.0, -50182.1473457989, -44852.06095600855, -18742.94355427546, -37822.638490514575, -19437.971048113235, -25509.956539864128, -187500.02235174447, -187500.02235174447, -0.078, 0.894, 0.398, 192.0, 0.0, 0.0, 0.0, 0.0, 0.0, 0.0, 0.0, 0.0, 0.0, 1.7297032768330696E9, 0.0, 2024-10-23 22:37:56.833
186.0, -50190.372787758446, -44861.78396484661, -18721.865859254107, -37829.232255128896, -19448.74458894069, -25519.05369985744, -187500.02235174447, -187500.02235174447, -0.078, 0.894, 0.398, 192.0, 0.0, 0.0, 0.0, 0.0, 0.0, 0.0, 0.0, 0.0, 0.0, 1.729703276836118E9, 0.0, 2024-10-23 22:37:56.836
187.0, -50190.596305203, -44866.075499782026, -18710.645283537542, -37827.332356850195, -19448.833995918514, -25519.567789979912, -187500.02235174447, -187500.02235174447, -0.078, 0.894, 0.398, 192.0, 0.0, 0.0, 0.0, 0.0, 0.0, 0.0, 0.0, 0.0, 0.0, 1.7297032768390958E9, 0.0, 2024-10-23 22:37:56.839
188.0, -50187.869392379456, -44863.61680789194, -18701.16814388849, -37819.55394977974, -19449.12456859643, -25514.181019566182, -187500.02235174447, -187500.02235174447, -0.078, 0.894, 0.398, 192.0, 0.0, 0.0, 0.0, 0.0, 0.0, 0.0, 0.0, 0.0, 0.0, 1.7297032768431504E9, 0.0, 2024-10-23 22:37:56.843
189.0, -50180.82859287603, -44859.32527295653, -18703.090393911647, -37809.62977524159, -19444.162481327356, -25503.89921711674, -187500.02235174447, -187500.02235174447, -0.08, 0.89, 0.396, 192.0, 253.0, 128.0, 27.0, 208.0, 12.0, 96.0, 0.0, 0.0, 0.0, 1.7297032768461063E9, 0.0, 2024-10-23 22:37:56.846
190.0, -50183.108470810475, -44860.53226715711, -18692.920350184482, -37805.20412983944, -19445.168309827844, -25500.121772303795, -187500.02235174447, -187500.02235174447, -0.08, 0.89, 0.396, 192.0, 0.0, 0.0, 0.0, 0.0, 0.0, 0.0, 0.0, 0.0, 0.0, 1.7297032768491194E9, 0.0, 2024-10-23 22:37:56.849
191.0, -50176.246485262694, -44857.71594735575, -18703.068042167193, -37794.14001633406, -19435.445300989784, -25488.498865187034, -187500.02235174447, -187500.02235174447, -0.08, 0.89, 0.396, 192.0, 0.0, 0.0, 0.0, 0.0, 0.0, 0.0, 0.0, 0.0, 0.0, 1.7297032768530989E9, 0.0, 2024-10-23 22:37:56.853
192.0, -50179.35337774198, -44857.06774676654, -18709.304178870225, -37790.25081279884, -19432.293705021584, -25480.251071483028, -187500.02235174447, -187500.02235174447, -0.08, 0.89, 0.396, 192.0, 0.0, 0.0, 0.0, 0.0, 0.0, 0.0, 0.0, 0.0, 0.0, 1.729703276856024E9, 0.0, 2024-10-23 22:37:56.856
193.0, -50189.34460751351, -44864.466174181245, -18696.809553719708, -37799.16915883651, -19432.360760254953, -25479.558167404914, -187500.02235174447, -187500.02235174447, -0.08, 0.89, 0.396, 192.0, 0.0, 0.0, 0.0, 0.0, 0.0, 0.0, 0.0, 0.0, 0.0, 1.729703276868066E9, 0.0, 2024-10-23 22:37:56.868
194.0, -50190.68571218082, -44863.572104403036, -18722.08937669866, -37798.96799313641, -19425.722292151724, -25475.7136673586, -187500.02235174447, -187500.02235174447, -0.08, 0.89, 0.396, 192.0, 0.0, 0.0, 0.0, 0.0, 0.0, 0.0, 0.0, 0.0, 0.0, 1.7297032768741477E9, 0.0, 2024-10-23 22:37:56.874
195.0, -50203.26974430916, -44873.898610341384, -18719.541277830755, -37810.56854850871, -19432.1372428104, -25480.742809861043, -187500.02235174447, -187500.02235174447, -0.08, 0.89, 0.396, 192.0, 0.0, 0.0, 0.0, 0.0, 0.0, 0.0, 0.0, 0.0, 0.0, 1.7297032768781188E9, 0.0, 2024-10-23 22:37:56.878
196.0, -50205.30375305459, -44872.62456090743, -18748.464435155922, -37812.803722954246, -19429.79030964259, -25477.434751681656, -187500.02235174447, -187500.02235174447, -0.08, 0.89, 0.396, 192.0, 0.0, 0.0, 0.0, 0.0, 0.0, 0.0, 0.0, 0.0, 0.0, 1.7297032768811378E9, 0.0, 2024-10-23 22:37:56.881
197.0, -50218.35717181649, -44880.760595889165, -18759.461493427934, -37826.95237719445, -19443.715446438247, -25489.48234194307, -187500.02235174447, -187500.02235174447, -0.08, 0.89, 0.396, 192.0, 0.0, 0.0, 0.0, 0.0, 0.0, 0.0, 0.0, 0.0, 0.0, 1.7297032768841076E9, 0.0, 2024-10-23 22:37:56.884
198.0, -50217.70897122729, -44879.46419471076, -18755.81815908172, -37831.40037434106, -19457.685286722815, -25501.596987437846, -187500.02235174447, -187500.02235174447, -0.08, 0.89, 0.396, 192.0, 0.0, 0.0, 0.0, 0.0, 0.0, 0.0, 0.0, 0.0, 0.0, 1.7297032768881602E9, 0.0, 2024-10-23 22:37:56.888
199.0, -50221.352305573506, -44886.25912502517, -18757.71805736042, -37837.05536568825, -19454.868966921447, -25504.48036247258, -187500.02235174447, -187500.02235174447, -0.08, 0.892, 0.388, 192.0, 253.0, 128.0, 27.0, 224.0, 12.0, 32.0, 0.0, 0.0, 0.0, 1.7297032768912673E9, 0.0, 2024-10-23 22:37:56.891
200.0, -50212.679828724846, -44880.626485422436, -18765.451760941956, -37830.126324907105, -19444.497757494184, -25497.350155991335, -187500.02235174447, -187500.02235174447, -0.08, 0.892, 0.388, 192.0, 0.0, 0.0, 0.0, 0.0, 0.0, 0.0, 0.0, 0.0, 0.0, 1.72970327689413E9, 0.0, 2024-10-23 22:37:56.894
201.0, -50206.91307865537, -44870.3893864619, -18755.684048614985, -37824.49368530437, -19446.732931939714, -25498.110115302818, -187500.02235174447, -187500.02235174447, -0.08, 0.892, 0.388, 192.0, 0.0, 0.0, 0.0, 0.0, 0.0, 0.0, 0.0, 0.0, 0.0, 1.7297032768981853E9, 0.0, 2024-10-23 22:37:56.898
202.0, -50208.611811233975, -44868.46713643875, -18755.95226954845, -37829.433420828995, -19460.881586179923, -25510.29181603096, -187500.02235174447, -187500.02235174447, -0.08, 0.892, 0.388, 192.0, 0.0, 0.0, 0.0, 0.0, 0.0, 0.0, 0.0, 0.0, 0.0, 1.7297032769010997E9, 0.0, 2024-10-23 22:37:56.901
203.0, -50210.3999507904, -44866.701348626775, -18761.33903996218, -37832.80853424174, -19464.52492052614, -25517.891409145763, -187500.02235174447, -187500.02235174447, -0.08, 0.892, 0.388, 192.0, 0.0, 0.0, 0.0, 0.0, 0.0, 0.0, 0.0, 0.0, 0.0, 1.729703276904148E9, 0.0, 2024-10-23 22:37:56.904
204.0, -50207.20365133329, -44864.37676720342, -18761.316688217725, -37831.42272608551, -19454.578394243526, -25515.81269691142, -187500.02235174447, -187500.02235174447, -0.08, 0.892, 0.388, 192.0, 0.0, 0.0, 0.0, 0.0, 0.0, 0.0, 0.0, 0.0, 0.0, 1.7297032769071867E9, 0.0, 2024-10-23 22:37:56.907
205.0, -50211.31637231307, -44874.23388650821, -18743.770568820306, -37838.15060116656, -19456.27712682213, -25521.691205703166, -187500.02235174447, -187500.02235174447, -0.08, 0.892, 0.388, 192.0, 0.0, 0.0, 0.0, 0.0, 0.0, 0.0, 0.0, 0.0, 0.0, 1.7297032769110985E9, 0.0, 2024-10-23 22:37:56.911
206.0, -50203.381503031436, -44872.378691718426, -18765.67527838651, -37835.222522642915, -19449.99628663019, -25518.114926590315, -187500.02235174447, -187500.02235174447, -0.08, 0.892, 0.388, 192.0, 0.0, 0.0, 0.0, 0.0, 0.0, 0.0, 0.0, 0.0, 0.0, 1.7297032769141276E9, 0.0, 2024-10-23 22:37:56.914
207.0, -50202.5991919755, -44871.61873240695, -18766.837569098185, -37832.94264470848, -19446.732931939714, -25513.599874210344, -187500.02235174447, -187500.02235174447, -0.08, 0.892, 0.388, 192.0, 0.0, 0.0, 0.0, 0.0, 0.0, 0.0, 0.0, 0.0, 0.0, 1.7297032769171789E9, 0.0, 2024-10-23 22:37:56.917
208.0, -50210.48935776822, -44872.60220916298, -18746.408074666033, -37835.66955753202, -19453.70667620977, -25515.499772489045, -187500.02235174447, -187500.02235174447, -0.08, 0.892, 0.388, 192.0, 0.0, 0.0, 0.0, 0.0, 0.0, 0.0, 0.0, 0.0, 0.0, 1.7297032769212432E9, 0.0, 2024-10-23 22:37:56.921
209.0, -50209.662343223376, -44874.189183019305, -18744.016438009316, -37832.87558947511, -19437.099330079476, -25509.978891608585, -187500.02235174447, -187500.02235174447, -0.08, 0.9, 0.392, 192.0, 253.0, 128.0, 28.0, 32.0, 12.0, 64.0, 0.0, 0.0, 0.0, 1.7297032769241512E9, 0.0, 2024-10-23 22:37:56.924
210.0, -50200.989866374715, -44865.49435442619, -18770.503255188854, -37823.64431901507, -19420.670797904826, -25498.691260658656, -187500.02235174447, -187500.02235174447, -0.08, 0.9, 0.392, 192.0, 0.0, 0.0, 0.0, 0.0, 0.0, 0.0, 0.0, 0.0, 0.0, 1.7297032769273772E9, 0.0, 2024-10-23 22:37:56.927
211.0, -50210.10937811249, -44868.40008120538, -18766.412885953534, -37826.93002545, -19430.974952098724, -25501.6193391823, -187500.02235174447, -187500.02235174447, -0.08, 0.9, 0.392, 192.0, 0.0, 0.0, 0.0, 0.0, 0.0, 0.0, 0.0, 0.0, 0.0, 1.7297032769312105E9, 0.0, 2024-10-23 22:37:56.931
212.0, -50202.35332278649, -44866.902514326874, -18761.897833573563, -37819.03985965727, -19423.285952006096, -25487.694202386643, -187500.02235174447, -187500.02235174447, -0.08, 0.9, 0.392, 192.0, 0.0, 0.0, 0.0, 0.0, 0.0, 0.0, 0.0, 0.0, 0.0, 1.7297032769341629E9, 0.0, 2024-10-23 22:37:56.934
213.0, -50196.6983314393, -44862.76744160264, -18758.209795738436, -37810.45678978643, -19417.89918159237, -25479.513463916002, -187500.02235174447, -187500.02235174447, -0.08, 0.9, 0.392, 192.0, 0.0, 0.0, 0.0, 0.0, 0.0, 0.0, 0.0, 0.0, 0.0, 1.729703276937296E9, 0.0, 2024-10-23 22:37:56.937
214.0, -50199.246430307205, -44864.71204337026, -18752.13012124659, -37806.94756590695, -19420.782556627102, -25475.33368770286, -187500.02235174447, -187500.02235174447, -0.08, 0.9, 0.392, 192.0, 0.0, 0.0, 0.0, 0.0, 0.0, 0.0, 0.0, 0.0, 0.0, 1.7297032769402628E9, 0.0, 2024-10-23 22:37:56.940
215.0, -50200.0510931076, -44865.02496779263, -18753.94061254747, -37802.365458293614, -19416.312207736042, -25467.309411443402, -187500.02235174447, -187500.02235174447, -0.08, 0.9, 0.392, 192.0, 0.0, 0.0, 0.0, 0.0, 0.0, 0.0, 0.0, 0.0, 0.0, 1.7297032769441884E9, 0.0, 2024-10-23 22:37:56.944
216.0, -50197.39123551741, -44862.11924101344, -18758.589775394175, -37797.00103962434, -19406.61155064244, -25457.206422949606, -187500.02235174447, -187500.02235174447, -0.08, 0.9, 0.392, 192.0, 0.0, 0.0, 0.0, 0.0, 0.0, 0.0, 0.0, 0.0, 0.0, 1.7297032769472072E9, 0.0, 2024-10-23 22:37:56.947
217.0, -50205.393160032414, -44870.03175855062, -18738.048522239747, -37802.41016178252, -19416.82629785851, -25460.17920496216, -187500.02235174447, -187500.02235174447, -0.08, 0.9, 0.392, 192.0, 0.0, 0.0, 0.0, 0.0, 0.0, 0.0, 0.0, 0.0, 0.0, 1.729703276950293E9, 0.0, 2024-10-23 22:37:56.950
218.0, -50206.600154233, -44870.50114518418, -18744.977563020893, -37797.559833235726, -19412.244190245176, -25453.876013025765, -187500.02235174447, -187500.02235174447, -0.08, 0.9, 0.392, 192.0, 0.0, 0.0, 0.0, 0.0, 0.0, 0.0, 0.0, 0.0, 0.0, 1.7297032769541984E9, 0.0, 2024-10-23 22:37:56.954
219.0, -50203.62737222044, -44871.28345624012, -18748.218565966912, -37800.46556001491, -19414.680530390804, -25457.139367716238, -187500.02235174447, -187500.02235174447, -0.08, 0.9, 0.392, 192.0, 0.0, 0.0, 0.0, 0.0, 0.0, 0.0, 0.0, 0.0, 0.0, 1.729703276957186E9, 0.0, 2024-10-23 22:37:56.957
220.0, -50196.63127620593, -44868.042453294096, -18762.546034162766, -37800.689077459465, -19411.350120466963, -25455.57474560437, -187500.02235174447, -187500.02235174447, -0.076, 0.888, 0.394, 192.0, 253.0, 160.0, 27.0, 192.0, 12.0, 80.0, 0.0, 0.0, 0.0, 1.7297032769612107E9, 0.0, 2024-10-23 22:37:56.961
221.0, -50190.730415669736, -44856.777174088624, -18779.376897737613, -37801.82901642669, -19405.806887842045, -25454.07717872586, -187500.02235174447, -187500.02235174447, -0.076, 0.888, 0.394, 192.0, 0.0, 0.0, 0.0, 0.0, 0.0, 0.0, 0.0, 0.0, 0.0, 1.7297032769652274E9, 0.0, 2024-10-23 22:37:56.965
222.0, -50204.23086932074, -44865.56140965956, -18763.86478708563, -37819.01750791282, -19415.507544935652, -25471.46683591209, -187500.02235174447, -187500.02235174447, -0.076, 0.888, 0.394, 192.0, 0.0, 0.0, 0.0, 0.0, 0.0, 0.0, 0.0, 0.0, 0.0, 1.7297032769693072E9, 0.0, 2024-10-23 22:37:56.969
223.0, -50207.293058311116, -44865.226133492724, -18761.58490915119, -37824.27016785982, -19420.51433569364, -25479.37935344927, -187500.02235174447, -187500.02235174447, -0.076, 0.888, 0.394, 192.0, 0.0, 0.0, 0.0, 0.0, 0.0, 0.0, 0.0, 0.0, 0.0, 1.7297032769742055E9, 0.0, 2024-10-23 22:37:56.974
224.0, -50213.48449152523, -44867.86363933845, -18754.43235092549, -37837.16712441053, -19436.160556812352, -25493.95269083413, -187500.02235174447, -187500.02235174447, -0.076, 0.888, 0.394, 192.0, 0.0, 0.0, 0.0, 0.0, 0.0, 0.0, 0.0, 0.0, 0.0, 1.729703276978228E9, 0.0, 2024-10-23 22:37:56.978
225.0, -50213.283325825134, -44867.841287594, -18758.969755049915, -37843.336205880194, -19441.480271992717, -25506.179095051182, -187500.02235174447, -187500.02235174447, -0.076, 0.888, 0.394, 192.0, 0.0, 0.0, 0.0, 0.0, 0.0, 0.0, 0.0, 0.0, 0.0, 1.7297032769822507E9, 0.0, 2024-10-23 22:37:56.982
226.0, -50210.13172985694, -44860.062880523554, -18751.437217168477, -37842.777412268806, -19448.9904581297, -25512.996377110052, -187500.02235174447, -187500.02235174447, -0.076, 0.888, 0.394, 192.0, 0.0, 0.0, 0.0, 0.0, 0.0, 0.0, 0.0, 0.0, 0.0, 1.729703276985313E9, 0.0, 2024-10-23 22:37:56.985
227.0, -50211.42813103535, -44860.46521192374, -18761.42844694, -37843.42561285802, -19451.13622559741, -25514.069260843906, -187500.02235174447, -187500.02235174447, -0.076, 0.888, 0.394, 192.0, 0.0, 0.0, 0.0, 0.0, 0.0, 0.0, 0.0, 0.0, 0.0, 1.7297032769892392E9, 0.0, 2024-10-23 22:37:56.989
228.0, -50213.283325825134, -44854.7878688321, -18758.500368416353, -37839.7822785118, -19443.55898422706, -25511.90114163174, -187500.02235174447, -187500.02235174447, -0.076, 0.888, 0.394, 192.0, 0.0, 0.0, 0.0, 0.0, 0.0, 0.0, 0.0, 0.0, 0.0, 1.7297032769932563E9, 0.0, 2024-10-23 22:37:56.993
229.0, -50212.389256046925, -44850.5857408745, -18757.695705615963, -37834.99900519836, -19440.56385047005, -25514.158667821728, -187500.02235174447, -187500.02235174447, -0.076, 0.888, 0.394, 192.0, 0.0, 0.0, 0.0, 0.0, 0.0, 0.0, 0.0, 0.0, 0.0, 1.7297032769972844E9, 0.0, 2024-10-23 22:37:56.997
230.0, -50212.389256046925, -44851.50216239717, -18768.33513597669, -37835.26722613183, -19457.260603578165, -25520.439508013667, -187500.02235174447, -187500.02235174447, -0.078, 0.89, 0.392, 192.0, 253.0, 144.0, 27.0, 208.0, 12.0, 64.0, 0.0, 0.0, 0.0, 1.7297032770004313E9, 0.0, 2024-10-23 22:37:57.000
231.0, -50212.36690430247, -44852.97737753122, -18766.167016764524, -37834.97665345391, -19452.074998864533, -25523.792269681966, -187500.02235174447, -187500.02235174447, -0.078, 0.89, 0.392, 192.0, 0.0, 0.0, 0.0, 0.0, 0.0, 0.0, 0.0, 0.0, 0.0, 1.7297032770043209E9, 0.0, 2024-10-23 22:37:57.004
232.0, -50219.83238695054, -44864.57793290352, -18735.209850693926, -37841.86099074614, -19451.315039553054, -25530.63190348529, -187500.02235174447, -187500.02235174447, -0.078, 0.89, 0.392, 192.0, 0.0, 0.0, 0.0, 0.0, 0.0, 0.0, 0.0, 0.0, 0.0, 1.729703277009267E9, 0.0, 2024-10-23 22:37:57.009
233.0, -50225.30856434209, -44874.01036906366, -18722.826984265685, -37843.135040180096, -19451.51620525315, -25524.127545848794, -187500.02235174447, -187500.02235174447, -0.078, 0.89, 0.392, 192.0, 0.0, 0.0, 0.0, 0.0, 0.0, 0.0, 0.0, 0.0, 0.0, 1.7297032770133133E9, 0.0, 2024-10-23 22:37:57.013
234.0, -50219.251241594706, -44869.9423515728, -18735.3216094162, -37833.23321738639, -19444.43070226082, -25510.962368364617, -187500.02235174447, -187500.02235174447, -0.078, 0.89, 0.392, 192.0, 0.0, 0.0, 0.0, 0.0, 0.0, 0.0, 0.0, 0.0, 0.0, 1.7297032770213225E9, 0.0, 2024-10-23 22:37:57.021
235.0, -50222.402837562906, -44873.004540563175, -18718.267228396802, -37831.91446446353, -19443.13430108241, -25510.448278242147, -187500.02235174447, -187500.02235174447, -0.078, 0.89, 0.392, 192.0, 0.0, 0.0, 0.0, 0.0, 0.0, 0.0, 0.0, 0.0, 0.0, 1.7297032770243075E9, 0.0, 2024-10-23 22:37:57.024
236.0, -50215.250279337204, -44870.70231088428, -18719.876553997583, -37820.693888746966, -19441.03323710361, -25501.529932204478, -187500.02235174447, -187500.02235174447, -0.078, 0.89, 0.392, 192.0, 0.0, 0.0, 0.0, 0.0, 0.0, 0.0, 0.0, 0.0, 0.0, 1.7297032770273092E9, 0.0, 2024-10-23 22:37:57.027
237.0, -50211.897517668905, -44867.21543874925, -18732.304123914735, -37810.14386536406, -19429.65619917586, -25488.767086120497, -187500.02235174447, -187500.02235174447, -0.078, 0.89, 0.392, 192.0, 0.0, 0.0, 0.0, 0.0, 0.0, 0.0, 0.0, 0.0, 0.0, 1.7297032770312948E9, 0.0, 2024-10-23 22:37:57.031
238.0, -50217.17252936036, -44871.12699402893, -18732.639400081564, -37811.172045609004, -19426.817527630035, -25484.43084769617, -187500.02235174447, -187500.02235174447, -0.078, 0.89, 0.392, 192.0, 0.0, 0.0, 0.0, 0.0, 0.0, 0.0, 0.0, 0.0, 0.0, 1.729703277035385E9, 0.0, 2024-10-23 22:37:57.035
239.0, -50227.67784925435, -44879.575953433035, -18701.816344477695, -37819.375135824106, -19436.629943445914, -25489.974080321084, -187500.02235174447, -187500.02235174447, -0.078, 0.89, 0.392, 192.0, 0.0, 0.0, 0.0, 0.0, 0.0, 0.0, 0.0, 0.0, 0.0, 1.72970327703941E9, 0.0, 2024-10-23 22:37:57.039
240.0, -50222.112264884985, -44881.92288660084, -18696.876608953073, -37815.7765049668, -19421.587219427493, -25482.821522095386, -187500.02235174447, -187500.02235174447, -0.078, 0.89, 0.39, 192.0, 253.0, 144.0, 27.0, 208.0, 12.0, 48.0, 0.0, 0.0, 0.0, 1.7297032770423641E9, 0.0, 2024-10-23 22:37:57.042
241.0, -50220.61469800648, -44881.45349996728, -18696.250760108323, -37811.68613573148, -19417.429794958807, -25476.51833015899, -187500.02235174447, -187500.02235174447, -0.078, 0.89, 0.39, 192.0, 0.0, 0.0, 0.0, 0.0, 0.0, 0.0, 0.0, 0.0, 0.0, 1.7297032770453403E9, 0.0, 2024-10-23 22:37:57.045
242.0, -50216.03259039314, -44884.6945029133, -18720.27888539778, -37809.4733130304, -19410.165478010833, -25470.684524856155, -187500.02235174447, -187500.02235174447, -0.078, 0.89, 0.39, 192.0, 0.0, 0.0, 0.0, 0.0, 0.0, 0.0, 0.0, 0.0, 0.0, 1.7297032770493288E9, 0.0, 2024-10-23 22:37:57.049
243.0, -50211.27166882416, -44877.608999920965, -18739.903717029538, -37806.00879263983, -19406.16451575333, -25463.46491139709, -187500.02235174447, -187500.02235174447, -0.078, 0.89, 0.39, 192.0, 0.0, 0.0, 0.0, 0.0, 0.0, 0.0, 0.0, 0.0, 0.0, 1.7297032770533528E9, 0.0, 2024-10-23 22:37:57.053
244.0, -50202.107453597484, -44869.160040516865, -18763.79773185226, -37801.739609448865, -19395.88271330389, -25452.981943247552, -187500.02235174447, -187500.02235174447, -0.078, 0.89, 0.39, 192.0, 0.0, 0.0, 0.0, 0.0, 0.0, 0.0, 0.0, 0.0, 0.0, 1.7297032770564532E9, 0.0, 2024-10-23 22:37:57.056
245.0, -50212.389256046925, -44874.30094174158, -18752.08541775768, -37812.04376364276, -19404.018748285624, -25458.8604520393, -187500.02235174447, -187500.02235174447, -0.078, 0.89, 0.39, 192.0, 0.0, 0.0, 0.0, 0.0, 0.0, 0.0, 0.0, 0.0, 0.0, 1.7297032770623567E9, 0.0, 2024-10-23 22:37:57.062
246.0, -50220.435884050836, -44882.32521800104, -18748.732656089385, -37823.21963587042, -19412.646521645373, -25468.203481221615, -187500.02235174447, -187500.02235174447, -0.078, 0.89, 0.39, 192.0, 0.0, 0.0, 0.0, 0.0, 0.0, 0.0, 0.0, 0.0, 0.0, 1.729703277068348E9, 0.0, 2024-10-23 22:37:57.068
247.0, -50224.81682596407, -44887.890802370406, -18735.589830349665, -37832.54031330828, -19424.09061480649, -25479.781684849466, -187500.02235174447, -187500.02235174447, -0.078, 0.89, 0.39, 192.0, 0.0, 0.0, 0.0, 0.0, 0.0, 0.0, 0.0, 0.0, 0.0, 1.7297032770723736E9, 0.0, 2024-10-23 22:37:57.072
248.0, -50229.08600915504, -44890.7965291496, -18720.83767900916, -37843.336205880194, -19432.003132343667, -25488.968251820595, -187500.02235174447, -187500.02235174447, -0.078, 0.89, 0.39, 192.0, 0.0, 0.0, 0.0, 0.0, 0.0, 0.0, 0.0, 0.0, 0.0, 1.72970327707538E9, 0.0, 2024-10-23 22:37:57.075
249.0, -50232.103494656505, -44891.40002624989, -18727.543202345754, -37852.65688331806, -19432.070187577032, -25501.95461534913, -187500.02235174447, -187500.02235174447, -0.078, 0.89, 0.39, 192.0, 0.0, 0.0, 0.0, 0.0, 0.0, 0.0, 0.0, 0.0, 0.0, 1.7297032770793855E9, 0.0, 2024-10-23 22:37:57.079
250.0, -50223.431017807845, -44882.012293578664, -18741.982429263884, -37850.06408096124, -19438.261620791152, -25511.007071853528, -187500.02235174447, -187500.02235174447, -0.074, 0.894, 0.394, 192.0, 253.0, 176.0, 27.0, 240.0, 12.0, 80.0, 0.0, 0.0, 0.0, 1.729703277082516E9, 0.0, 2024-10-23 22:37:57.082
251.0, -50216.56903226007, -44870.09881378398, -18747.726827588896, -37842.66565354653, -19440.340333025495, -25514.650406199744, -187500.02235174447, -187500.02235174447, -0.074, 0.894, 0.394, 192.0, 0.0, 0.0, 0.0, 0.0, 0.0, 0.0, 0.0, 0.0, 0.0, 1.7297032770864005E9, 0.0, 2024-10-23 22:37:57.086
252.0, -50225.822654464566, -44871.08229054002, -18730.31481865821, -37848.45475536046, -19440.630905703416, -25527.34619705036, -187500.02235174447, -187500.02235174447, -0.074, 0.894, 0.394, 192.0, 0.0, 0.0, 0.0, 0.0, 0.0, 0.0, 0.0, 0.0, 0.0, 1.7297032770894003E9, 0.0, 2024-10-23 22:37:57.089
253.0, -50230.69533475582, -44873.697444641286, -18707.247818380336, -37854.601485085666, -19455.22659483273, -25539.61730475632, -187500.02235174447, -187500.02235174447, -0.074, 0.894, 0.394, 192.0, 0.0, 0.0, 0.0, 0.0, 0.0, 0.0, 0.0, 0.0, 0.0, 1.7297032770933948E9, 0.0, 2024-10-23 22:37:57.093
254.0, -50222.78281721864, -44871.05993879556, -18714.69094928395, -37847.046595459775, -19455.13718785491, -25539.371435567315, -187500.02235174447, -187500.02235174447, -0.074, 0.894, 0.394, 192.0, 0.0, 0.0, 0.0, 0.0, 0.0, 0.0, 0.0, 0.0, 0.0, 1.729703277097432E9, 0.0, 2024-10-23 22:37:57.097
255.0, -50219.6535729949, -44868.75770911667, -18726.716187800906, -37841.6821767905, -19445.168309827844, -25532.755319208543, -187500.02235174447, -187500.02235174447, -0.074, 0.894, 0.394, 192.0, 0.0, 0.0, 0.0, 0.0, 0.0, 0.0, 0.0, 0.0, 0.0, 1.7297032771094863E9, 0.0, 2024-10-23 22:37:57.109
0.0, -50215.02676189265, -44861.538095657605, -18737.33326641718, -37833.92612146451, -19439.155690569365, -25526.4744790166, -187500.02235174447, -187500.02235174447, -0.074, 0.894, 0.394, 192.0, 0.0, 0.0, 0.0, 0.0, 0.0, 0.0, 0.0, 0.0, 0.0, 1.7297032771124527E9, 0.0, 2024-10-23 22:37:57.112
1.0, -50219.83238695054, -44865.807278848566, -18725.732711044875, -37835.15546740955, -19440.385036514406, -25528.62024648431, -187500.02235174447, -187500.02235174447, -0.074, 0.894, 0.394, 192.0, 0.0, 0.0, 0.0, 0.0, 0.0, 0.0, 0.0, 0.0, 0.0, 1.7297032771154952E9, 0.0, 2024-10-23 22:37:57.115
2.0, -50225.73324748674, -44871.05993879556, -18711.315835871203, -37837.033013943794, -19446.621173217438, -25532.308284319435, -187500.02235174447, -187500.02235174447, -0.074, 0.894, 0.394, 192.0, 0.0, 0.0, 0.0, 0.0, 0.0, 0.0, 0.0, 0.0, 0.0, 1.7297032771194763E9, 0.0, 2024-10-23 22:37:57.119
3.0, -50226.47085505377, -44874.72562488623, -18714.93681847296, -37837.41299359954, -19450.063341863555, -25533.180002353194, -187500.02235174447, -187500.02235174447, -0.074, 0.894, 0.394, 192.0, 0.0, 0.0, 0.0, 0.0, 0.0, 0.0, 0.0, 0.0, 0.0, 1.7297032771225767E9, 0.0, 2024-10-23 22:37:57.122
4.0, -50223.36396257448, -44871.954008573775, -18728.973713990894, -37833.36732785313, -19447.805815673568, -25525.178077838194, -187500.02235174447, -187500.02235174447, -0.07, 0.896, 0.386, 192.0, 253.0, 208.0, 28.0, 0.0, 12.0, 16.0, 0.0, 0.0, 0.0, 1.7297032771254582E9, 0.0, 2024-10-23 22:37:57.125
5.0, -50225.30856434209, -44872.93748532981, -18724.525716844288, -37834.77548775381, -19450.108045352466, -25522.80879292593, -187500.02235174447, -187500.02235174447, -0.07, 0.896, 0.386, 192.0, 0.0, 0.0, 0.0, 0.0, 0.0, 0.0, 0.0, 0.0, 0.0, 1.7297032771302E9, 0.0, 2024-10-23 22:37:57.130
6.0, -50223.02868640765, -44877.765462132156, -18713.08162368317, -37833.43438308649, -19440.921478381333, -25512.48228698758, -187500.02235174447, -187500.02235174447, -0.07, 0.896, 0.386, 192.0, 0.0, 0.0, 0.0, 0.0, 0.0, 0.0, 0.0, 0.0, 0.0, 1.7297032771338048E9, 0.0, 2024-10-23 22:37:57.133
7.0, -50217.82072994956, -44876.40200572038, -18720.256533653323, -37823.53256029279, -19437.635771946403, -25501.28406301547, -187500.02235174447, -187500.02235174447, -0.07, 0.896, 0.386, 192.0, 0.0, 0.0, 0.0, 0.0, 0.0, 0.0, 0.0, 0.0, 0.0, 1.729703277135465E9, 0.0, 2024-10-23 22:37:57.135
8.0, -50215.607907248486, -44872.222229507235, -18724.302199399735, -37818.63752825708, -19445.8388621615, -25488.588272164856, -187500.02235174447, -187500.02235174447, -0.07, 0.896, 0.386, 192.0, 0.0, 0.0, 0.0, 0.0, 0.0, 0.0, 0.0, 0.0, 0.0, 1.7297032771384747E9, 0.0, 2024-10-23 22:37:57.138
9.0, -50213.41743629187, -44871.61873240695, -18713.70747252792, -37813.04959214325, -19404.75635585265, -25477.434751681656, -187500.02235174447, -187500.02235174447, -0.07, 0.896, 0.386, 192.0, 0.0, 0.0, 0.0, 0.0, 0.0, 0.0, 0.0, 0.0, 0.0, 1.7297032771424782E9, 0.0, 2024-10-23 22:37:57.142
10.0, -50202.666247208865, -44862.45451718027, -18738.60731585113, -37800.19733908145, -19379.096553217954, -25462.347324174327, -187500.02235174447, -187500.02235174447, -0.07, 0.896, 0.386, 192.0, 0.0, 0.0, 0.0, 0.0, 0.0, 0.0, 0.0, 0.0, 0.0, 1.7297032771454773E9, 0.0, 2024-10-23 22:37:57.145
11.0, -50202.330971042036, -44859.34762470098, -18753.33711544718, -37799.54913849224, -19390.048908001056, -25458.502824128012, -187500.02235174447, -187500.02235174447, -0.07, 0.896, 0.386, 192.0, 0.0, 0.0, 0.0, 0.0, 0.0, 0.0, 0.0, 0.0, 0.0, 1.7297032771487088E9, 0.0, 2024-10-23 22:37:57.148
12.0, -50207.293058311116, -44864.399118947884, -18755.840510826172, -37805.42764728399, -19387.03142249959, -25458.346361916825, -187500.02235174447, -187500.02235174447, -0.07, 0.896, 0.386, 192.0, 0.0, 0.0, 0.0, 0.0, 0.0, 0.0, 0.0, 0.0, 0.0, 1.7297032771526203E9, 0.0, 2024-10-23 22:37:57.152
13.0, -50220.16766311737, -44877.340778987505, -18759.126217261102, -37817.78816196778, -19401.44829767326, -25469.74575158903, -187500.02235174447, -187500.02235174447, -0.07, 0.896, 0.386, 192.0, 0.0, 0.0, 0.0, 0.0, 0.0, 0.0, 0.0, 0.0, 0.0, 1.7297032771565013E9, 0.0, 2024-10-23 22:37:57.156
14.0, -50230.784741733645, -44882.52638370114, -18743.23412695338, -37829.4781243179, -19421.676626405315, -25483.827350595875, -187500.02235174447, -187500.02235174447, -0.07200000000000001, 0.894, 0.39, 192.0, 253.0, 192.0, 27.0, 240.0, 12.0, 48.0, 0.0, 0.0, 0.0, 1.729703277160521E9, 0.0, 2024-10-23 22:37:57.160
15.0, -50228.41545682138, -44880.42531972234, -18742.94355427546, -37837.681214533, -19426.772824141124, -25496.61254842431, -187500.02235174447, -187500.02235174447, -0.07200000000000001, 0.894, 0.39, 192.0, 0.0, 0.0, 0.0, 0.0, 0.0, 0.0, 0.0, 0.0, 0.0, 1.7297032771654985E9, 0.0, 2024-10-23 22:37:57.165
16.0, -50227.923718443366, -44879.710063899765, -18746.206908965934, -37846.912484993045, -19433.36658875544, -25507.877827629785, -187500.02235174447, -187500.02235174447, -0.07200000000000001, 0.894, 0.39, 192.0, 0.0, 0.0, 0.0, 0.0, 0.0, 0.0, 0.0, 0.0, 0.0, 1.7297032771715288E9, 0.0, 2024-10-23 22:37:57.171
17.0, -50223.006334663194, -44873.71979638575, -18759.126217261102, -37848.58886582719, -19435.400597500873, -25516.01386261152, -187500.02235174447, -187500.02235174447, -0.07200000000000001, 0.894, 0.39, 192.0, 0.0, 0.0, 0.0, 0.0, 0.0, 0.0, 0.0, 0.0, 0.0, 1.7297032771745975E9, 0.0, 2024-10-23 22:37:57.174
18.0, -50217.26193633818, -44869.89764808388, -18779.801580882264, -37849.52763909431, -19438.976876613724, -25524.462822015623, -187500.02235174447, -187500.02235174447, -0.07200000000000001, 0.894, 0.39, 192.0, 0.0, 0.0, 0.0, 0.0, 0.0, 0.0, 0.0, 0.0, 0.0, 1.7297032771955607E9, 0.0, 2024-10-23 22:37:57.195
19.0, -50231.27648011166, -44877.899572598886, -18753.851205569652, -37865.64324684659, -19460.456903035272, -25548.848575216365, -187500.02235174447, -187500.02235174447, -0.07200000000000001, 0.894, 0.39, 192.0, 0.0, 0.0, 0.0, 0.0, 0.0, 0.0, 0.0, 0.0, 0.0, 1.7297032771985846E9, 0.0, 2024-10-23 22:37:57.198
20.0, -50234.830407480054, -44883.01812207915, -18747.838586311173, -37871.00766551586, -19466.46952229375, -25559.376246854812, -187500.02235174447, -187500.02235174447, -0.07200000000000001, 0.894, 0.39, 192.0, 0.0, 0.0, 0.0, 0.0, 0.0, 0.0, 0.0, 0.0, 0.0, 1.7297032772025747E9, 0.0, 2024-10-23 22:37:57.202
21.0, -50232.19290163433, -44880.71589240026, -18752.800673580252, -37868.25840094786, -19463.27322283664, -25559.085674176895, -187500.02235174447, -187500.02235174447, -0.07200000000000001, 0.894, 0.39, 192.0, 0.0, 0.0, 0.0, 0.0, 0.0, 0.0, 0.0, 0.0, 0.0, 1.7297032772055676E9, 0.0, 2024-10-23 22:37:57.205
22.0, -50227.767256232175, -44876.849040609486, -18741.021304252303, -37862.268133433834, -19456.07596112203, -25554.30240086346, -187500.02235174447, -187500.02235174447, -0.07200000000000001, 0.894, 0.39, 192.0, 0.0, 0.0, 0.0, 0.0, 0.0, 0.0, 0.0, 0.0, 0.0, 1.7297032772085795E9, 0.0, 2024-10-23 22:37:57.208
23.0, -50230.605927778, -44881.185279033816, -18739.031998995782, -37860.92702876652, -19456.18771984431, -25555.755264253054, -187500.02235174447, -187500.02235174447, -0.07200000000000001, 0.894, 0.39, 192.0, 0.0, 0.0, 0.0, 0.0, 0.0, 0.0, 0.0, 0.0, 0.0, 1.7297032772125957E9, 0.0, 2024-10-23 22:37:57.212
24.0, -50234.696297013325, -44884.62744767994, -18741.66950484151, -37859.9882554994, -19458.266432078653, -25558.97391545462, -187500.02235174447, -187500.02235174447, -0.074, 0.896, 0.384, 192.0, 253.0, 176.0, 28.0, 0.0, 12.0, 0.0, 0.0, 0.0, 0.0, 1.7297032772155983E9, 0.0, 2024-10-23 22:37:57.215
25.0, -50229.77891323315, -44877.92192434334, -18741.89302228606, -37852.992159484886, -19450.868004663946, -25549.452072316657, -187500.02235174447, -187500.02235174447, -0.074, 0.896, 0.384, 192.0, 0.0, 0.0, 0.0, 0.0, 0.0, 0.0, 0.0, 0.0, 0.0, 1.729703277218578E9, 0.0, 2024-10-23 22:37:57.218
26.0, -50225.241509108724, -44872.244581251696, -18748.62089736711, -37845.59373207018, -19443.80485341607, -25542.791252468975, -187500.02235174447, -187500.02235174447, -0.074, 0.896, 0.384, 192.0, 0.0, 0.0, 0.0, 0.0, 0.0, 0.0, 0.0, 0.0, 0.0, 1.7297032772225692E9, 0.0, 2024-10-23 22:37:57.222
27.0, -50223.07338989656, -44871.37286321793, -18742.09418798616, -37839.223484900416, -19442.150824326378, -25535.504583776546, -187500.02235174447, -187500.02235174447, -0.074, 0.896, 0.384, 192.0, 0.0, 0.0, 0.0, 0.0, 0.0, 0.0, 0.0, 0.0, 0.0, 1.7297032772256134E9, 0.0, 2024-10-23 22:37:57.225
28.0, -50232.103494656505, -44881.36409298946, -18718.17782141898, -37841.8833424906, -19453.70667620977, -25539.86317394533, -187500.02235174447, -187500.02235174447, -0.074, 0.896, 0.384, 192.0, 0.0, 0.0, 0.0, 0.0, 0.0, 0.0, 0.0, 0.0, 0.0, 1.729703277228632E9, 0.0, 2024-10-23 22:37:57.228
29.0, -50237.15498890341, -44886.281476769625, -18698.620045020587, -37838.39647035557, -19458.713466967758, -25537.739758222076, -187500.02235174447, -187500.02235174447, -0.074, 0.896, 0.384, 192.0, 0.0, 0.0, 0.0, 0.0, 0.0, 0.0, 0.0, 0.0, 0.0, 1.7297032772316165E9, 0.0, 2024-10-23 22:37:57.231
30.0, -50226.18028237585, -44883.95689534627, -18710.13119341507, -37824.78425798229, -19436.540536468096, -25519.836010913376, -187500.02235174447, -187500.02235174447, -0.074, 0.896, 0.384, 192.0, 0.0, 0.0, 0.0, 0.0, 0.0, 0.0, 0.0, 0.0, 0.0, 1.7297032772356265E9, 0.0, 2024-10-23 22:37:57.235
31.0, -50208.43299727834, -44872.11047078496, -18722.75992903232, -37803.23717632737, -19419.150879281864, -25501.127600804284, -187500.02235174447, -187500.02235174447, -0.074, 0.896, 0.384, 192.0, 0.0, 0.0, 0.0, 0.0, 0.0, 0.0, 0.0, 0.0, 0.0, 1.7297032772386289E9, 0.0, 2024-10-23 22:37:57.238
32.0, -50193.05499709309, -44858.07357526703, -18738.830833295684, -37781.80185339473, -19414.32290247952, -25475.981888292063, -187500.02235174447, -187500.02235174447, -0.074, 0.896, 0.384, 192.0, 0.0, 0.0, 0.0, 0.0, 0.0, 0.0, 0.0, 0.0, 0.0, 1.7297032772416153E9, 0.0, 2024-10-23 22:37:57.241
33.0, -50205.57197398806, -44860.39815669038, -18725.732711044875, -37783.366475506606, -19407.505620420652, -25472.740885346044, -187500.02235174447, -187500.02235174447, -0.074, 0.896, 0.384, 192.0, 0.0, 0.0, 0.0, 0.0, 0.0, 0.0, 0.0, 0.0, 0.0, 1.729703277248647E9, 0.0, 2024-10-23 22:37:57.248
34.0, -50211.38342754644, -44863.39329044739, -18703.671539267485, -37784.86404238511, -19395.189809225776, -25469.835158566853, -187500.02235174447, -187500.02235174447, -0.078, 0.892, 0.388, 192.0, 253.0, 144.0, 27.0, 224.0, 12.0, 32.0, 0.0, 0.0, 0.0, 1.7297032772516737E9, 0.0, 2024-10-23 22:37:57.251
35.0, -50211.58459324653, -44862.20864799126, -18702.62100727809, -37782.785330150764, -19390.11596323442, -25468.963440533098, -187500.02235174447, -187500.02235174447, -0.078, 0.892, 0.388, 192.0, 0.0, 0.0, 0.0, 0.0, 0.0, 0.0, 0.0, 0.0, 0.0, 1.7297032772556672E9, 0.0, 2024-10-23 22:37:57.255
36.0, -50216.74784621571, -44871.17169751784, -18680.872759923073, -37795.034086112275, -19398.56492263853, -25480.22871973857, -187500.02235174447, -187500.02235174447, -0.078, 0.892, 0.388, 192.0, 0.0, 0.0, 0.0, 0.0, 0.0, 0.0, 0.0, 0.0, 0.0, 1.7297032772586515E9, 0.0, 2024-10-23 22:37:57.258
37.0, -50215.71966597076, -44877.810165621064, -18683.59967274662, -37804.31006006122, -19409.830201844, -25483.067391284396, -187500.02235174447, -187500.02235174447, -0.078, 0.892, 0.388, 192.0, 0.0, 0.0, 0.0, 0.0, 0.0, 0.0, 0.0, 0.0, 0.0, 1.7297032772616653E9, 0.0, 2024-10-23 22:37:57.261
38.0, -50218.58068926104, -44885.61092443597, -18703.537428800755, -37812.89312993206, -19404.51048666364, -25488.23064425357, -187500.02235174447, -187500.02235174447, -0.078, 0.892, 0.388, 192.0, 0.0, 0.0, 0.0, 0.0, 0.0, 0.0, 0.0, 0.0, 0.0, 1.729703277265684E9, 0.0, 2024-10-23 22:37:57.265
39.0, -50227.29786959862, -44894.28340128463, -18708.432460836466, -37827.42176382802, -19433.299533522073, -25507.073164829395, -187500.02235174447, -187500.02235174447, -0.078, 0.892, 0.388, 192.0, 0.0, 0.0, 0.0, 0.0, 0.0, 0.0, 0.0, 0.0, 0.0, 1.7297032772686489E9, 0.0, 2024-10-23 22:37:57.268
40.0, -50225.84500620902, -44890.64006693841, -18713.08162368317, -37831.91446446353, -19429.007998586654, -25509.263635786014, -187500.02235174447, -187500.02235174447, -0.078, 0.892, 0.388, 192.0, 0.0, 0.0, 0.0, 0.0, 0.0, 0.0, 0.0, 0.0, 0.0, 1.7297032772717092E9, 0.0, 2024-10-23 22:37:57.271
41.0, -50219.69827648381, -44882.92871510133, -18723.18461217697, -37829.411069084534, -19415.775765869115, -25513.264598043515, -187500.02235174447, -187500.02235174447, -0.078, 0.892, 0.388, 192.0, 0.0, 0.0, 0.0, 0.0, 0.0, 0.0, 0.0, 0.0, 0.0, 1.7297032772747476E9, 0.0, 2024-10-23 22:37:57.274
42.0, -50228.5048637992, -44887.93550585932, -18713.953341716926, -37837.23417964389, -19428.22568753072, -25531.660083730232, -187500.02235174447, -187500.02235174447, -0.078, 0.892, 0.388, 192.0, 0.0, 0.0, 0.0, 0.0, 0.0, 0.0, 0.0, 0.0, 0.0, 1.7297032772787516E9, 0.0, 2024-10-23 22:37:57.278
43.0, -50239.881901726956, -44897.36794201946, -18701.458716566412, -37851.00285422836, -19448.789292429603, -25549.72029325012, -187500.02235174447, -187500.02235174447, -0.078, 0.892, 0.388, 192.0, 0.0, 0.0, 0.0, 0.0, 0.0, 0.0, 0.0, 0.0, 0.0, 1.72970327728171E9, 0.0, 2024-10-23 22:37:57.281
44.0, -50235.6574220249, -44893.83636639552, -18693.36738507359, -37851.27107516183, -19455.673629721838, -25552.62602002931, -187500.02235174447, -187500.02235174447, -0.07200000000000001, 0.888, 0.392, 192.0, 253.0, 192.0, 27.0, 192.0, 12.0, 64.0, 0.0, 0.0, 0.0, 1.7297032772846868E9, 0.0, 2024-10-23 22:37:57.284
45.0, -50224.12392188596, -44887.35436050348, -18695.155524630016, -37842.03980470179, -19452.007943631168, -25549.519127550022, -187500.02235174447, -187500.02235174447, -0.07200000000000001, 0.888, 0.392, 192.0, 0.0, 0.0, 0.0, 0.0, 0.0, 0.0, 0.0, 0.0, 0.0, 1.729703277288658E9, 0.0, 2024-10-23 22:37:57.288
46.0, -50218.37952356095, -44885.02977908013, -18699.69292875444, -37838.10589767765, -19450.599783730482, -25547.842746715876, -187500.02235174447, -187500.02235174447, -0.07200000000000001, 0.888, 0.392, 192.0, 0.0, 0.0, 0.0, 0.0, 0.0, 0.0, 0.0, 0.0, 0.0, 1.7297032772916996E9, 0.0, 2024-10-23 22:37:57.291
47.0, -50221.28525034014, -44882.88401161242, -18711.22642889338, -37834.14963890906, -19459.89810942389, -25545.96520018163, -187500.02235174447, -187500.02235174447, -0.07200000000000001, 0.888, 0.392, 192.0, 0.0, 0.0, 0.0, 0.0, 0.0, 0.0, 0.0, 0.0, 0.0, 1.7297032772947242E9, 0.0, 2024-10-23 22:37:57.294
48.0, -50231.23177662275, -44886.66145642537, -18705.862010224108, -37838.26235988884, -19465.106065881977, -25551.19550838417, -187500.02235174447, -187500.02235174447, -0.07200000000000001, 0.888, 0.392, 192.0, 0.0, 0.0, 0.0, 0.0, 0.0, 0.0, 0.0, 0.0, 0.0, 1.7297032773197818E9, 0.0, 2024-10-23 22:37:57.319
49.0, -50223.721590485766, -44886.147366302896, -18691.534542028254, -37836.138944165585, -19450.152748841378, -25549.385017083292, -187500.02235174447, -187500.02235174447, -0.07200000000000001, 0.888, 0.392, 192.0, 0.0, 0.0, 0.0, 0.0, 0.0, 0.0, 0.0, 0.0, 0.0, 1.7297032773227687E9, 0.0, 2024-10-23 22:37:57.322
50.0, -50218.02189564966, -44882.97341859024, -18693.881475196064, -37830.70747026295, -19451.091522108498, -25544.95937168114, -187500.02235174447, -187500.02235174447, -0.07200000000000001, 0.888, 0.392, 192.0, 0.0, 0.0, 0.0, 0.0, 0.0, 0.0, 0.0, 0.0, 0.0, 1.7297032773267343E9, 0.0, 2024-10-23 22:37:57.326
51.0, -50222.78281721864, -44886.1920697918, -18689.83580944965, -37833.277920875305, -19454.176062843333, -25545.786386225987, -187500.02235174447, -187500.02235174447, -0.07200000000000001, 0.888, 0.392, 192.0, 0.0, 0.0, 0.0, 0.0, 0.0, 0.0, 0.0, 0.0, 0.0, 1.7297032773297436E9, 0.0, 2024-10-23 22:37:57.329
52.0, -50220.05590439509, -44882.32521800104, -18689.74640247183, -37829.92515920701, -19461.306269324574, -25541.24898210156, -187500.02235174447, -187500.02235174447, -0.07200000000000001, 0.888, 0.392, 192.0, 0.0, 0.0, 0.0, 0.0, 0.0, 0.0, 0.0, 0.0, 0.0, 1.729703277333724E9, 0.0, 2024-10-23 22:37:57.333
53.0, -50214.51267177018, -44880.38061623342, -18694.79789671873, -37821.520903291814, -19460.702772224282, -25530.76601395202, -187500.02235174447, -187500.02235174447, -0.07200000000000001, 0.888, 0.392, 192.0, 0.0, 0.0, 0.0, 0.0, 0.0, 0.0, 0.0, 0.0, 0.0, 1.729703277336769E9, 0.0, 2024-10-23 22:37:57.336
54.0, -50206.91307865537, -44876.424357464835, -18692.205094361914, -37807.86398742962, -19416.22280075822, -25512.638749198766, -187500.02235174447, -187500.02235174447, -0.076, 0.89, 0.39, 192.0, 253.0, 160.0, 27.0, 208.0, 12.0, 48.0, 0.0, 0.0, 0.0, 1.7297032773397832E9, 0.0, 2024-10-23 22:37:57.339
55.0, -50192.98794185972, -44867.08132828252, -18707.27017012479, -37792.173062821996, -19390.719460334716, -25498.445391469646, -187500.02235174447, -187500.02235174447, -0.076, 0.89, 0.39, 192.0, 0.0, 0.0, 0.0, 0.0, 0.0, 0.0, 0.0, 0.0, 0.0, 1.729703277342767E9, 0.0, 2024-10-23 22:37:57.342
56.0, -50191.758595914675, -44864.51087767016, -18715.450908595434, -37787.121568575094, -19403.482306418697, -25493.23743501156, -187500.02235174447, -187500.02235174447, -0.076, 0.89, 0.39, 192.0, 0.0, 0.0, 0.0, 0.0, 0.0, 0.0, 0.0, 0.0, 0.0, 1.7297032773467553E9, 0.0, 2024-10-23 22:37:57.346
57.0, -50198.97820937374, -44865.91903757084, -18728.32551340169, -37788.08269358667, -19455.427760532828, -25493.528007689478, -187500.02235174447, -187500.02235174447, -0.076, 0.89, 0.39, 192.0, 0.0, 0.0, 0.0, 0.0, 0.0, 0.0, 0.0, 0.0, 0.0, 1.7297032773497956E9, 0.0, 2024-10-23 22:37:57.349
58.0, -50217.82072994956, -44873.85390685248, -18709.99708294834, -37796.777522179786, -19463.049705392088, -25501.95461534913, -187500.02235174447, -187500.02235174447, -0.076, 0.89, 0.39, 192.0, 0.0, 0.0, 0.0, 0.0, 0.0, 0.0, 0.0, 0.0, 0.0, 1.7297032773528056E9, 0.0, 2024-10-23 22:37:57.352
59.0, -50209.595287990014, -44865.00261604817, -18687.712393726397, -37782.33829526166, -19371.116980447412, -25483.693240129145, -187500.02235174447, -187500.02235174447, -0.076, 0.89, 0.39, 192.0, 0.0, 0.0, 0.0, 0.0, 0.0, 0.0, 0.0, 0.0, 0.0, 1.7297032773557537E9, 0.0, 2024-10-23 22:37:57.355
60.0, -50209.729398456744, -44865.00261604817, -18665.427704504455, -37779.3208097602, -19364.389105366365, -25478.150007504228, -187500.02235174447, -187500.02235174447, -0.076, 0.89, 0.39, 192.0, 0.0, 0.0, 0.0, 0.0, 0.0, 0.0, 0.0, 0.0, 0.0, 1.7297032773598285E9, 0.0, 2024-10-23 22:37:57.359
61.0, -50213.708008969785, -44867.77423236063, -18675.01660287578, -37781.77950165028, -19388.238416700176, -25479.80403659392, -187500.02235174447, -187500.02235174447, -0.076, 0.89, 0.39, 192.0, 0.0, 0.0, 0.0, 0.0, 0.0, 0.0, 0.0, 0.0, 0.0, 1.7297032773628385E9, 0.0, 2024-10-23 22:37:57.362
62.0, -50223.54277653012, -44873.49627894119, -18675.12836159806, -37784.975801107386, -19396.866190059925, -25490.53287393247, -187500.02235174447, -187500.02235174447, -0.076, 0.89, 0.39, 192.0, 0.0, 0.0, 0.0, 0.0, 0.0, 0.0, 0.0, 0.0, 0.0, 1.7297032773658206E9, 0.0, 2024-10-23 22:37:57.365
63.0, -50222.402837562906, -44882.571087190045, -18683.756134957806, -37791.30134478824, -19409.02553904361, -25492.298661744437, -187500.02235174447, -187500.02235174447, -0.076, 0.89, 0.39, 192.0, 0.0, 0.0, 0.0, 0.0, 0.0, 0.0, 0.0, 0.0, 0.0, 1.729703277369792E9, 0.0, 2024-10-23 22:37:57.369
64.0, -50223.60983176349, -44884.98507559122, -18682.83971343514, -37799.97382163689, -19423.17419328382, -25500.211179281614, -187500.02235174447, -187500.02235174447, -0.078, 0.886, 0.392, 192.0, 253.0, 144.0, 27.0, 176.0, 12.0, 64.0, 0.0, 0.0, 0.0, 1.7297032773728244E9, 0.0, 2024-10-23 22:37:57.372
65.0, -50226.24733760922, -44889.16485180436, -18692.763887973295, -37809.070981630204, -19425.65523691836, -25512.86226664332, -187500.02235174447, -187500.02235174447, -0.078, 0.886, 0.392, 192.0, 0.0, 0.0, 0.0, 0.0, 0.0, 0.0, 0.0, 0.0, 0.0, 1.729703277375832E9, 0.0, 2024-10-23 22:37:57.375
66.0, -50228.03547716564, -44896.138596074416, -18697.502457797822, -37819.844522457664, -19436.65229519037, -25525.71451970512, -187500.02235174447, -187500.02235174447, -0.078, 0.886, 0.392, 192.0, 0.0, 0.0, 0.0, 0.0, 0.0, 0.0, 0.0, 0.0, 0.0, 1.7297032773788235E9, 0.0, 2024-10-23 22:37:57.378
67.0, -50236.68560226984, -44897.56910771956, -18686.818323948184, -37829.232255128896, -19450.71154245276, -25542.366569324324, -187500.02235174447, -187500.02235174447, -0.078, 0.886, 0.392, 192.0, 0.0, 0.0, 0.0, 0.0, 0.0, 0.0, 0.0, 0.0, 0.0, 1.7297032773828497E9, 0.0, 2024-10-23 22:37:57.382
68.0, -50236.81971273658, -44896.85385189699, -18690.863989694597, -37831.735650507886, -19457.014734389155, -25548.446243816168, -187500.02235174447, -187500.02235174447, -0.078, 0.886, 0.392, 192.0, 0.0, 0.0, 0.0, 0.0, 0.0, 0.0, 0.0, 0.0, 0.0, 1.729703277385806E9, 0.0, 2024-10-23 22:37:57.385
69.0, -50239.099590671016, -44895.423340251844, -18660.59972770211, -37837.52475232181, -19465.62015600445, -25557.29753462047, -187500.02235174447, -187500.02235174447, -0.078, 0.886, 0.392, 192.0, 0.0, 0.0, 0.0, 0.0, 0.0, 0.0, 0.0, 0.0, 0.0, 1.7297032773898084E9, 0.0, 2024-10-23 22:37:57.389
70.0, -50221.41936080687, -44881.45349996728, -18692.406260062013, -37822.079696903194, -19445.928269139324, -25539.974932667606, -187500.02235174447, -187500.02235174447, -0.078, 0.886, 0.392, 192.0, 0.0, 0.0, 0.0, 0.0, 0.0, 0.0, 0.0, 0.0, 0.0, 1.7297032773928108E9, 0.0, 2024-10-23 22:37:57.392
71.0, -50227.43198006535, -44884.71685465775, -18699.22354212088, -37825.54421729377, -19456.18771984431, -25543.059473402438, -187500.02235174447, -187500.02235174447, -0.078, 0.886, 0.392, 192.0, 0.0, 0.0, 0.0, 0.0, 0.0, 0.0, 0.0, 0.0, 0.0, 1.7297032773958597E9, 0.0, 2024-10-23 22:37:57.395
72.0, -50229.935375444344, -44891.55648846108, -18700.229370621368, -37832.361499352635, -19464.211996103764, -25544.110005391838, -187500.02235174447, -187500.02235174447, -0.078, 0.886, 0.392, 192.0, 0.0, 0.0, 0.0, 0.0, 0.0, 0.0, 0.0, 0.0, 0.0, 1.7297032773998268E9, 0.0, 2024-10-23 22:37:57.399
73.0, -50233.19873013481, -44897.79262516411, -18690.349899572124, -37837.189476154985, -19453.773731443136, -25545.853441459352, -187500.02235174447, -187500.02235174447, -0.078, 0.886, 0.392, 192.0, 0.0, 0.0, 0.0, 0.0, 0.0, 0.0, 0.0, 0.0, 0.0, 1.729703277402992E9, 0.0, 2024-10-23 22:37:57.402
74.0, -50229.42128532187, -44893.56814546206, -18686.41599254799, -37834.037880186785, -19459.674591979336, -25547.127490893305, -187500.02235174447, -187500.02235174447, -0.074, 0.888, 0.392, 192.0, 253.0, 176.0, 27.0, 192.0, 12.0, 64.0, 0.0, 0.0, 0.0, 1.7297032774068544E9, 0.0, 2024-10-23 22:37:57.406
75.0, -50215.674962481855, -44882.727549401236, -18702.93393170046, -37821.69971724746, -19435.7358736677, -25534.834031442886, -187500.02235174447, -187500.02235174447, -0.074, 0.888, 0.392, 192.0, 0.0, 0.0, 0.0, 0.0, 0.0, 0.0, 0.0, 0.0, 0.0, 1.729703277409839E9, 0.0, 2024-10-23 22:37:57.409
76.0, -50196.31835178356, -44865.5390579151, -18741.133062974583, -37801.247871070846, -19410.165478010833, -25515.56682772241, -187500.02235174447, -187500.02235174447, -0.074, 0.888, 0.392, 192.0, 0.0, 0.0, 0.0, 0.0, 0.0, 0.0, 0.0, 0.0, 0.0, 1.729703277412841E9, 0.0, 2024-10-23 22:37:57.412
77.0, -50201.79452917511, -44864.35441545897, -18745.983391521382, -37801.96312689342, -19416.84864960297, -25517.779650423487, -187500.02235174447, -187500.02235174447, -0.074, 0.888, 0.392, 192.0, 0.0, 0.0, 0.0, 0.0, 0.0, 0.0, 0.0, 0.0, 0.0, 1.729703277416912E9, 0.0, 2024-10-23 22:37:57.416
78.0, -50208.544756000614, -44869.76353761715, -18719.496574341843, -37805.2711850728, -19426.437547974296, -25526.452127272147, -187500.02235174447, -187500.02235174447, -0.074, 0.888, 0.392, 192.0, 0.0, 0.0, 0.0, 0.0, 0.0, 0.0, 0.0, 0.0, 0.0, 1.7297032774199164E9, 0.0, 2024-10-23 22:37:57.419
79.0, -50210.087026368026, -44869.31650272805, -18691.64630075053, -37802.656030971535, -19428.56096369755, -25523.836973170874, -187500.02235174447, -187500.02235174447, -0.074, 0.888, 0.392, 192.0, 0.0, 0.0, 0.0, 0.0, 0.0, 0.0, 0.0, 0.0, 0.0, 1.72970327742288E9, 0.0, 2024-10-23 22:37:57.422
80.0, -50218.535985772134, -44875.06090105306, -18660.44326549092, -37805.96408915092, -19432.65133293287, -25524.06049061543, -187500.02235174447, -187500.02235174447, -0.074, 0.888, 0.392, 192.0, 0.0, 0.0, 0.0, 0.0, 0.0, 0.0, 0.0, 0.0, 0.0, 1.7297032774269133E9, 0.0, 2024-10-23 22:37:57.426
81.0, -50213.23862233623, -44869.49531668369, -18669.45101850641, -37795.9728593794, -19426.75047239667, -25510.358871264325, -187500.02235174447, -187500.02235174447, -0.074, 0.888, 0.392, 192.0, 0.0, 0.0, 0.0, 0.0, 0.0, 0.0, 0.0, 0.0, 0.0, 1.72970327742987E9, 0.0, 2024-10-23 22:37:57.429
82.0, -50218.401875305404, -44866.008444548665, -18658.58807070113, -37791.70367618843, -19431.04200733209, -25500.90408335973, -187500.02235174447, -187500.02235174447, -0.074, 0.888, 0.392, 192.0, 0.0, 0.0, 0.0, 0.0, 0.0, 0.0, 0.0, 0.0, 0.0, 1.7297032774329321E9, 0.0, 2024-10-23 22:37:57.432
83.0, -50219.27359333916, -44867.617770149445, -18667.484064994343, -37787.278030786285, -19425.051739818067, -25490.354059976824, -187500.02235174447, -187500.02235174447, -0.074, 0.888, 0.392, 192.0, 0.0, 0.0, 0.0, 0.0, 0.0, 0.0, 0.0, 0.0, 0.0, 1.7297032774368646E9, 0.0, 2024-10-23 22:37:57.436
84.0, -50227.074352154064, -44865.96374105975, -18668.154617328004, -37787.43449299747, -19428.471556719727, -25487.358926219815, -187500.02235174447, -187500.02235174447, -0.074, 0.888, 0.392, 192.0, 0.0, 0.0, 0.0, 0.0, 0.0, 0.0, 0.0, 0.0, 0.0, 1.7297032774418936E9, 0.0, 2024-10-23 22:37:57.441
85.0, -50235.61271853599, -44867.70717712727, -18676.827094176664, -37794.18471982297, -19424.93998109579, -25487.67185064219, -187500.02235174447, -187500.02235174447, -0.074, 0.894, 0.386, 192.0, 253.0, 176.0, 27.0, 240.0, 12.0, 16.0, 0.0, 0.0, 0.0, 1.7297032774449112E9, 0.0, 2024-10-23 22:37:57.444
86.0, -50239.032535437655, -44865.7402236152, -18680.537483756245, -37795.39171402356, -19414.99345481318, -25487.38127796427, -187500.02235174447, -187500.02235174447, -0.074, 0.894, 0.386, 192.0, 0.0, 0.0, 0.0, 0.0, 0.0, 0.0, 0.0, 0.0, 0.0, 1.7297032774489205E9, 0.0, 2024-10-23 22:37:57.448
87.0, -50252.35417513301, -44881.43114822282, -18664.3548207706, -37817.63169975659, -19431.444338732283, -25504.90504561723, -187500.02235174447, -187500.02235174447, -0.074, 0.894, 0.386, 192.0, 0.0, 0.0, 0.0, 0.0, 0.0, 0.0, 0.0, 0.0, 0.0, 1.7297032774529407E9, 0.0, 2024-10-23 22:37:57.452
88.0, -50254.075259456076, -44889.61188669347, -18680.895111667527, -37835.73661276539, -19452.85730992047, -25520.305397546937, -187500.02235174447, -187500.02235174447, -0.074, 0.894, 0.386, 192.0, 0.0, 0.0, 0.0, 0.0, 0.0, 0.0, 0.0, 0.0, 0.0, 1.72970327745696E9, 0.0, 2024-10-23 22:37:57.456
89.0, -50258.255035669215, -44898.105549586486, -18663.952489370407, -37855.94258975299, -19447.001152873177, -25538.6785314892, -187500.02235174447, -187500.02235174447, -0.074, 0.894, 0.386, 192.0, 0.0, 0.0, 0.0, 0.0, 0.0, 0.0, 0.0, 0.0, 0.0, 1.7297032774609673E9, 0.0, 2024-10-23 22:37:57.460
90.0, -50256.936282746356, -44908.0520758691, -18659.146864312515, -37868.6383806036, -19425.94580959628, -25561.00792420005, -187500.02235174447, -187500.02235174447, -0.074, 0.894, 0.386, 192.0, 0.0, 0.0, 0.0, 0.0, 0.0, 0.0, 0.0, 0.0, 0.0, 1.729703277464997E9, 0.0, 2024-10-23 22:37:57.464
91.0, -50254.388183878444, -44911.78481719313, -18661.35968701359, -37877.19909872998, -19434.595934700483, -25573.72606679512, -187500.02235174447, -187500.02235174447, -0.074, 0.894, 0.386, 192.0, 0.0, 0.0, 0.0, 0.0, 0.0, 0.0, 0.0, 0.0, 0.0, 1.72970327747005E9, 0.0, 2024-10-23 22:37:57.470
92.0, -50249.80607626511, -44908.40970378038, -18674.03312611975, -37879.63543887561, -19448.23049881822, -25580.275127920526, -187500.02235174447, -187500.02235174447, -0.074, 0.894, 0.386, 192.0, 0.0, 0.0, 0.0, 0.0, 0.0, 0.0, 0.0, 0.0, 0.0, 1.7297032774730139E9, 0.0, 2024-10-23 22:37:57.473
93.0, -50247.72736403077, -44904.45344501179, -18691.176914116968, -37877.802595830275, -19453.147882598387, -25582.979688999618, -187500.02235174447, -187500.02235174447, -0.074, 0.894, 0.386, 192.0, 0.0, 0.0, 0.0, 0.0, 0.0, 0.0, 0.0, 0.0, 0.0, 1.7297032774769874E9, 0.0, 2024-10-23 22:37:57.476
94.0, -50242.92173897287, -44895.37863676294, -18687.332414070657, -37869.33128468171, -19454.936022154812, -25582.465598877145, -187500.02235174447, -187500.02235174447, -0.074, 0.894, 0.386, 192.0, 0.0, 0.0, 0.0, 0.0, 0.0, 0.0, 0.0, 0.0, 0.0, 1.7297032774809935E9, 0.0, 2024-10-23 22:37:57.480
95.0, -50237.13263715895, -44888.27078202615, -18689.165257115994, -37860.4352903885, -19458.780522201127, -25575.87183426283, -187500.02235174447, -187500.02235174447, -0.076, 0.898, 0.384, 192.0, 253.0, 160.0, 28.0, 16.0, 12.0, 0.0, 0.0, 0.0, 0.0, 1.729703277485032E9, 0.0, 2024-10-23 22:37:57.485
96.0, -50232.77404699016, -44883.15223254589, -18678.101143610616, -37852.47806936241, -19445.123606338933, -25565.947659724672, -187500.02235174447, -187500.02235174447, -0.076, 0.898, 0.384, 192.0, 0.0, 0.0, 0.0, 0.0, 0.0, 0.0, 0.0, 0.0, 0.0, 1.7297032774889927E9, 0.0, 2024-10-23 22:37:57.488
97.0, -50210.86933742397, -44869.76353761715, -18695.35669033011, -37834.06023193124, -19417.541553681083, -25540.86900244582, -187500.02235174447, -187500.02235174447, -0.076, 0.898, 0.384, 192.0, 0.0, 0.0, 0.0, 0.0, 0.0, 0.0, 0.0, 0.0, 0.0, 1.7297032774951773E9, 0.0, 2024-10-23 22:37:57.495
98.0, -50200.02874136314, -44861.605150890966, -18714.020396950295, -37827.28765336128, -19419.664969404337, -25527.681473217188, -187500.02235174447, -187500.02235174447, -0.076, 0.898, 0.384, 192.0, 0.0, 0.0, 0.0, 0.0, 0.0, 0.0, 0.0, 0.0, 0.0, 1.7297032774980197E9, 0.0, 2024-10-23 22:37:57.498
99.0, -50199.60405821849, -44866.23196199322, -18709.50534457032, -37826.281824860795, -19423.64357991738, -25520.23834231357, -187500.02235174447, -187500.02235174447, -0.076, 0.898, 0.384, 192.0, 0.0, 0.0, 0.0, 0.0, 0.0, 0.0, 0.0, 0.0, 0.0, 1.7297032775021589E9, 0.0, 2024-10-23 22:37:57.502
100.0, -50201.280439052636, -44868.377729460924, -18710.488821326355, -37828.74051675088, -19425.007036329156, -25518.316092290414, -187500.02235174447, -187500.02235174447, -0.076, 0.898, 0.384, 192.0, 0.0, 0.0, 0.0, 0.0, 0.0, 0.0, 0.0, 0.0, 0.0, 1.729703277505012E9, 0.0, 2024-10-23 22:37:57.505
101.0, -50204.499090254205, -44874.1444795304, -18709.393585848044, -37832.40620284155, -19432.003132343667, -25516.3714905228, -187500.02235174447, -187500.02235174447, -0.076, 0.898, 0.384, 192.0, 0.0, 0.0, 0.0, 0.0, 0.0, 0.0, 0.0, 0.0, 0.0, 1.7297032775090387E9, 0.0, 2024-10-23 22:37:57.509
102.0, -50207.18129958884, -44876.26789525365, -18713.551010316733, -37830.685118518486, -19436.249963790175, -25511.029423597985, -187500.02235174447, -187500.02235174447, -0.076, 0.898, 0.384, 192.0, 0.0, 0.0, 0.0, 0.0, 0.0, 0.0, 0.0, 0.0, 0.0, 1.7297032775131629E9, 0.0, 2024-10-23 22:37:57.513
103.0, -50203.06857860906, -44876.20084002028, -18721.061196453717, -37828.71816500642, -19432.204298043765, -25503.742754905554, -187500.02235174447, -187500.02235174447, -0.076, 0.898, 0.384, 192.0, 0.0, 0.0, 0.0, 0.0, 0.0, 0.0, 0.0, 0.0, 0.0, 1.7297032775170116E9, 0.0, 2024-10-23 22:37:57.517
104.0, -50189.881049380434, -44868.35537771647, -18724.12338544409, -37817.78816196778, -19423.66593166184, -25487.493036686545, -187500.02235174447, -187500.02235174447, -0.076, 0.898, 0.384, 192.0, 0.0, 0.0, 0.0, 0.0, 0.0, 0.0, 0.0, 0.0, 0.0, 1.7297032775210104E9, 0.0, 2024-10-23 22:37:57.521
105.0, -50181.16386904286, -44861.113412512954, -18723.586943577164, -37807.93104266299, -19423.956504339756, -25478.507635415514, -187500.02235174447, -187500.02235174447, -0.08, 0.906, 0.384, 192.0, 253.0, 128.0, 28.0, 80.0, 12.0, 0.0, 0.0, 0.0, 0.0, 1.729703277525133E9, 0.0, 2024-10-23 22:37:57.525
106.0, -50180.158040542374, -44862.990959047194, -18711.204077148926, -37806.94756590695, -19428.963295097747, -25476.250109225526, -187500.02235174447, -187500.02235174447, -0.08, 0.906, 0.384, 192.0, 0.0, 0.0, 0.0, 0.0, 0.0, 0.0, 0.0, 0.0, 0.0, 1.7297032775341268E9, 0.0, 2024-10-23 22:37:57.534
107.0, -50177.83345911902, -44865.11437477045, -18709.4159375925, -37803.214824582916, -19427.55513519706, -25470.013972522494, -187500.02235174447, -187500.02235174447, -0.08, 0.906, 0.384, 192.0, 0.0, 0.0, 0.0, 0.0, 0.0, 0.0, 0.0, 0.0, 0.0, 1.7297032775371022E9, 0.0, 2024-10-23 22:37:57.537
108.0, -50185.7459766562, -44871.37286321793, -18695.200228118923, -37804.44417052796, -19438.574545213527, -25471.511539401003, -187500.02235174447, -187500.02235174447, -0.08, 0.906, 0.384, 192.0, 0.0, 0.0, 0.0, 0.0, 0.0, 0.0, 0.0, 0.0, 0.0, 1.7297032775410964E9, 0.0, 2024-10-23 22:37:57.541
109.0, -50197.79356691761, -44878.19014527681, -18656.93404161144, -37809.58507175268, -19460.36749605745, -25475.065466769396, -187500.02235174447, -187500.02235174447, -0.08, 0.906, 0.384, 192.0, 0.0, 0.0, 0.0, 0.0, 0.0, 0.0, 0.0, 0.0, 0.0, 1.7297032775441191E9, 0.0, 2024-10-23 22:37:57.544
110.0, -50196.2960000391, -44874.12212778594, -18652.59780318711, -37802.74543794936, -19434.975914356222, -25460.13450147325, -187500.02235174447, -187500.02235174447, -0.08, 0.906, 0.384, 192.0, 0.0, 0.0, 0.0, 0.0, 0.0, 0.0, 0.0, 0.0, 0.0, 1.7297032775913115E9, 0.0, 2024-10-23 22:37:57.591
111.0, -50205.86254666597, -44874.45740395277, -18645.177024027947, -37803.90772866103, -19414.59112341298, -25462.906117785707, -187500.02235174447, -187500.02235174447, -0.08, 0.906, 0.384, 192.0, 0.0, 0.0, 0.0, 0.0, 0.0, 0.0, 0.0, 0.0, 0.0, 1.729703277595147E9, 0.0, 2024-10-23 22:37:57.595
112.0, -50215.29498282611, -44878.12309004344, -18656.442303233423, -37810.5238450198, -19432.003132343667, -25473.076161512872, -187500.02235174447, -187500.02235174447, -0.08, 0.906, 0.384, 192.0, 0.0, 0.0, 0.0, 0.0, 0.0, 0.0, 0.0, 0.0, 0.0, 1.729703277598146E9, 0.0, 2024-10-23 22:37:57.598
113.0, -50211.78575894663, -44872.512802185156, -18667.64052720553, -37808.802760696744, -19429.969123598235, -25475.33368770286, -187500.02235174447, -187500.02235174447, -0.08, 0.906, 0.384, 192.0, 0.0, 0.0, 0.0, 0.0, 0.0, 0.0, 0.0, 0.0, 0.0, 1.729703277602126E9, 0.0, 2024-10-23 22:37:57.602
114.0, -50219.094779383515, -44876.31259874256, -18665.383001015547, -37818.168141623515, -19436.7864056571, -25492.030440810973, -187500.02235174447, -187500.02235174447, -0.08, 0.906, 0.384, 192.0, 0.0, 0.0, 0.0, 0.0, 0.0, 0.0, 0.0, 0.0, 0.0, 1.7297032776052144E9, 0.0, 2024-10-23 22:37:57.605
115.0, -50223.296907341115, -44880.44767146679, -18663.72897192585, -37830.193380140474, -19453.70667620977, -25512.884618387776, -187500.02235174447, -187500.02235174447, -0.084, 0.894, 0.376, 192.0, 253.0, 96.0, 27.0, 240.0, 11.0, 192.0, 0.0, 0.0, 0.0, 1.7297032776083603E9, 0.0, 2024-10-23 22:37:57.608
116.0, -50227.36492483198, -44887.6449331814, -18648.462730462878, -37847.85125826016, -19471.34220258501, -25536.28689483248, -187500.02235174447, -187500.02235174447, -0.084, 0.894, 0.376, 192.0, 0.0, 0.0, 0.0, 0.0, 0.0, 0.0, 0.0, 0.0, 0.0, 1.7297032776121783E9, 0.0, 2024-10-23 22:37:57.612
117.0, -50222.89457594092, -44889.142500059905, -18666.58999521613, -37856.99312174239, -19505.138040201433, -25550.614363028333, -187500.02235174447, -187500.02235174447, -0.084, 0.894, 0.376, 192.0, 0.0, 0.0, 0.0, 0.0, 0.0, 0.0, 0.0, 0.0, 0.0, 1.7297032776151783E9, 0.0, 2024-10-23 22:37:57.615
118.0, -50212.948049658306, -44880.67118891134, -18683.666727979988, -37851.24872341737, -19481.936929456824, -25544.735854236587, -187500.02235174447, -187500.02235174447, -0.084, 0.894, 0.376, 192.0, 0.0, 0.0, 0.0, 0.0, 0.0, 0.0, 0.0, 0.0, 0.0, 1.7297032776191876E9, 0.0, 2024-10-23 22:37:57.619
119.0, -50195.35722677198, -44865.941389315296, -18687.17595185947, -37832.58501679719, -19429.052702075565, -25524.686339460175, -187500.02235174447, -187500.02235174447, -0.084, 0.894, 0.376, 192.0, 0.0, 0.0, 0.0, 0.0, 0.0, 0.0, 0.0, 0.0, 0.0, 1.729703277622288E9, 0.0, 2024-10-23 22:37:57.622
120.0, -50192.07152033705, -44862.90155206937, -18685.14194311404, -37828.76286849533, -19438.66395219135, -25526.608589483334, -187500.02235174447, -187500.02235174447, -0.084, 0.894, 0.376, 192.0, 0.0, 0.0, 0.0, 0.0, 0.0, 0.0, 0.0, 0.0, 0.0, 1.7297032776251545E9, 0.0, 2024-10-23 22:37:57.625
121.0, -50191.71389242577, -44862.47686892472, -18685.857198936606, -37828.4275923285, -19449.884527907914, -25526.407423783236, -187500.02235174447, -187500.02235174447, -0.084, 0.894, 0.376, 192.0, 0.0, 0.0, 0.0, 0.0, 0.0, 0.0, 0.0, 0.0, 0.0, 1.7297032776282456E9, 0.0, 2024-10-23 22:37:57.628
122.0, -50203.56031698708, -44871.8422498515, -18688.114725126594, -37832.652072030556, -19462.535615269615, -25527.793231939464, -187500.02235174447, -187500.02235174447, -0.084, 0.894, 0.376, 192.0, 0.0, 0.0, 0.0, 0.0, 0.0, 0.0, 0.0, 0.0, 0.0, 1.7297032776323588E9, 0.0, 2024-10-23 22:37:57.632
123.0, -50214.95970665928, -44882.45932846777, -18681.23038783436, -37837.256531388346, -19464.591975759504, -25528.419080784213, -187500.02235174447, -187500.02235174447, -0.084, 0.894, 0.376, 192.0, 0.0, 0.0, 0.0, 0.0, 0.0, 0.0, 0.0, 0.0, 0.0, 1.729703277635296E9, 0.0, 2024-10-23 22:37:57.635
124.0, -50213.439788036325, -44885.25329652468, -18670.769771429274, -37833.32262436421, -19454.71250471026, -25522.38410978128, -187500.02235174447, -187500.02235174447, -0.084, 0.894, 0.376, 192.0, 0.0, 0.0, 0.0, 0.0, 0.0, 0.0, 0.0, 0.0, 0.0, 1.7297032776383226E9, 0.0, 2024-10-23 22:37:57.638
125.0, -50207.51657575567, -44884.02395057964, -18680.291614567235, -37829.54517955127, -19452.119702353444, -25518.964292879617, -187500.02235174447, -187500.02235174447, -0.078, 0.894, 0.378, 192.0, 253.0, 144.0, 27.0, 240.0, 11.0, 208.0, 0.0, 0.0, 0.0, 1.7297032776422992E9, 0.0, 2024-10-23 22:37:57.642
126.0, -50210.48935776822, -44890.84123263851, -18672.826131919162, -37831.802705741255, -19455.427760532828, -25519.47838300209, -187500.02235174447, -187500.02235174447, -0.078, 0.894, 0.378, 192.0, 0.0, 0.0, 0.0, 0.0, 0.0, 0.0, 0.0, 0.0, 0.0, 1.7297032776452317E9, 0.0, 2024-10-23 22:37:57.645
127.0, -50205.12493909895, -44884.672151168845, -18680.828056434162, -37821.14092363607, -19445.592992972495, -25506.96140610712, -187500.02235174447, -187500.02235174447, -0.078, 0.894, 0.378, 192.0, 0.0, 0.0, 0.0, 0.0, 0.0, 0.0, 0.0, 0.0, 0.0, 1.729703277648306E9, 0.0, 2024-10-23 22:37:57.648
128.0, -50214.44561653681, -44887.756691903676, -18661.382038758045, -37826.19241788297, -19453.99724888769, -25508.61543519681, -187500.02235174447, -187500.02235174447, -0.078, 0.894, 0.378, 192.0, 0.0, 0.0, 0.0, 0.0, 0.0, 0.0, 0.0, 0.0, 0.0, 1.729703277652262E9, 0.0, 2024-10-23 22:37:57.652
129.0, -50208.209479833786, -44887.533174459124, -18654.11772181007, -37821.85617945864, -19449.169272085343, -25496.009051324017, -187500.02235174447, -187500.02235174447, -0.078, 0.894, 0.378, 192.0, 0.0, 0.0, 0.0, 0.0, 0.0, 0.0, 0.0, 0.0, 0.0, 1.7297032776553197E9, 0.0, 2024-10-23 22:37:57.655
130.0, -50205.34845654351, -44882.21345927876, -18654.83297763264, -37813.988365410376, -19445.302420294574, -25482.08391452836, -187500.02235174447, -187500.02235174447, -0.078, 0.894, 0.378, 192.0, 0.0, 0.0, 0.0, 0.0, 0.0, 0.0, 0.0, 0.0, 0.0, 1.7297032776584628E9, 0.0, 2024-10-23 22:37:57.658
131.0, -50203.67207570936, -44883.95689534627, -18647.88158510704, -37814.03306889928, -19445.637696461403, -25485.526083174478, -187500.02235174447, -187500.02235174447, -0.078, 0.894, 0.378, 192.0, 0.0, 0.0, 0.0, 0.0, 0.0, 0.0, 0.0, 0.0, 0.0, 1.729703277662315E9, 0.0, 2024-10-23 22:37:57.662
132.0, -50196.96655237276, -44877.050206309585, -18643.858271105084, -37806.969917651404, -19439.84859464748, -25476.160702247704, -187500.02235174447, -187500.02235174447, -0.078, 0.894, 0.378, 192.0, 0.0, 0.0, 0.0, 0.0, 0.0, 0.0, 0.0, 0.0, 0.0, 1.7297032776652572E9, 0.0, 2024-10-23 22:37:57.665
133.0, -50192.07152033705, -44872.60220916298, -18652.284878764734, -37802.790141438265, -19435.355894011962, -25477.054772025916, -187500.02235174447, -187500.02235174447, -0.078, 0.894, 0.378, 192.0, 0.0, 0.0, 0.0, 0.0, 0.0, 0.0, 0.0, 0.0, 0.0, 1.7297032776684537E9, 0.0, 2024-10-23 22:37:57.668
134.0, -50200.4981279967, -44878.659531910365, -18638.69501813591, -37814.815379955224, -19442.41904525984, -25485.168455263192, -187500.02235174447, -187500.02235174447, -0.078, 0.894, 0.378, 192.0, 0.0, 0.0, 0.0, 0.0, 0.0, 0.0, 0.0, 0.0, 0.0, 1.72970327767128E9, 0.0, 2024-10-23 22:37:57.671
135.0, -50203.381503031436, -44883.80043313509, -18637.152747768494, -37818.57047302371, -19435.89233587889, -25484.877882585275, -187500.02235174447, -187500.02235174447, -0.068, 0.9, 0.384, 192.0, 253.0, 224.0, 28.0, 32.0, 12.0, 0.0, 0.0, 0.0, 0.0, 1.729703277675334E9, 0.0, 2024-10-23 22:37:57.675
136.0, -50201.36984603046, -44888.717816915254, -18648.149806040503, -37822.28086260329, -19438.21691730224, -25484.09557152934, -187500.02235174447, -187500.02235174447, -0.068, 0.9, 0.384, 192.0, 0.0, 0.0, 0.0, 0.0, 0.0, 0.0, 0.0, 0.0, 0.0, 1.7297032776783972E9, 0.0, 2024-10-23 22:37:57.678
137.0, -50192.0938720815, -44889.05309308208, -18653.782445643243, -37821.655013758544, -19432.09253932149, -25485.32491747438, -187500.02235174447, -187500.02235174447, -0.068, 0.9, 0.384, 192.0, 0.0, 0.0, 0.0, 0.0, 0.0, 0.0, 0.0, 0.0, 0.0, 1.7297032776812916E9, 0.0, 2024-10-23 22:37:57.681
138.0, -50200.9004593969, -44891.4447297388, -18644.193547271916, -37830.34984235166, -19433.32188526653, -25496.769010635497, -187500.02235174447, -187500.02235174447, -0.068, 0.9, 0.384, 192.0, 0.0, 0.0, 0.0, 0.0, 0.0, 0.0, 0.0, 0.0, 0.0, 1.7297032776854544E9, 0.0, 2024-10-23 22:37:57.685
139.0, -50201.32514254155, -44889.47777622673, -18673.295518552724, -37832.54031330828, -19429.298571264575, -25499.58533043687, -187500.02235174447, -187500.02235174447, -0.068, 0.9, 0.384, 192.0, 0.0, 0.0, 0.0, 0.0, 0.0, 0.0, 0.0, 0.0, 0.0, 1.729703277688268E9, 0.0, 2024-10-23 22:37:57.688
140.0, -50202.330971042036, -44880.78294763362, -18709.57239980369, -37832.070926674714, -19430.773786398626, -25501.79815313794, -187500.02235174447, -187500.02235174447, -0.068, 0.9, 0.384, 192.0, 0.0, 0.0, 0.0, 0.0, 0.0, 0.0, 0.0, 0.0, 0.0, 1.7297032776914148E9, 0.0, 2024-10-23 22:37:57.691
141.0, -50213.05980838058, -44881.78877613411, -18705.28086486827, -37841.101031434664, -19450.778597686123, -25518.00316786804, -187500.02235174447, -187500.02235174447, -0.068, 0.9, 0.384, 192.0, 0.0, 0.0, 0.0, 0.0, 0.0, 0.0, 0.0, 0.0, 0.0, 1.7297032776952884E9, 0.0, 2024-10-23 22:37:57.695
142.0, -50215.674962481855, -44886.46029072527, -18699.111783398603, -37848.365348382635, -19459.56283325706, -25527.614417983823, -187500.02235174447, -187500.02235174447, -0.068, 0.9, 0.384, 192.0, 0.0, 0.0, 0.0, 0.0, 0.0, 0.0, 0.0, 0.0, 0.0, 1.7297032776982694E9, 0.0, 2024-10-23 22:37:57.698
143.0, -50207.31541005557, -44878.16779353235, -18700.050556665727, -37839.357595367146, -19437.546364968584, -25525.602760982845, -187500.02235174447, -187500.02235174447, -0.068, 0.9, 0.384, 192.0, 0.0, 0.0, 0.0, 0.0, 0.0, 0.0, 0.0, 0.0, 0.0, 1.7297032777012908E9, 0.0, 2024-10-23 22:37:57.701
144.0, -50216.54668051561, -44880.78294763362, -18681.297443067724, -37843.693833791476, -19444.162481327356, -25529.983702896083, -187500.02235174447, -187500.02235174447, -0.068, 0.9, 0.384, 192.0, 0.0, 0.0, 0.0, 0.0, 0.0, 0.0, 0.0, 0.0, 0.0, 1.7297032777042751E9, 0.0, 2024-10-23 22:37:57.704
145.0, -50212.880994424944, -44879.55360168858, -18689.388774560546, -37837.56945581072, -19448.74458894069, -25522.875848159296, -187500.02235174447, -187500.02235174447, -0.074, 0.898, 0.38, 192.0, 253.0, 176.0, 28.0, 16.0, 11.0, 224.0, 0.0, 0.0, 0.0, 1.7297032777083588E9, 0.0, 2024-10-23 22:37:57.708
