%OpenBCI Raw EXG Data
%Number of channels = 8
%Sample Rate = 250 Hz
%Board = OpenBCI_GUI$BoardCytonSerial
Sample Index, EXG Channel 0, EXG Channel 1, EXG Channel 2, EXG Channel 3, EXG Channel 4, EXG Channel 5, EXG Channel 6, EXG Channel 7, Accel Channel 0, Accel Channel 1, Accel Channel 2, Other, Other, Other, Other, Other, Other, Other, Analog Channel 0, Analog Channel 1, Analog Channel 2, Timestamp, Other, Timestamp (Formatted)
0.0, 0.0, 0.0, 0.0, 0.0, 0.0, 0.0, 0.0, 0.0, 0.0, 0.0, 0.0, 192.0, 0.0, 0.0, 0.0, 0.0, 0.0, 0.0, 0.0, 0.0, 0.0, 1.7296904266561368E9, 0.0, 2024-10-23 19:03:46.656
1.0, 41653.43691747629, -238.02372670456492, 26668.0451235825, 16151.035267238054, 15822.866955145235, 16208.456898743738, -187500.02235174447, -169910.4511631073, 0.22, 0.968, -0.032, 192.0, 6.0, 224.0, 30.0, 64.0, 255.0, 0.0, 0.0, 0.0, 0.0, 1.7296904266728437E9, 0.0, 2024-10-23 19:03:46.672
2.0, 41864.54914385667, -426.11365629597384, 26654.65642865377, 16190.150820034842, 15810.394681739173, 16196.25284627114, -187500.02235174447, -169921.58233184606, 0.22, 0.968, -0.032, 192.0, 0.0, 0.0, 0.0, 0.0, 0.0, 0.0, 0.0, 0.0, 0.0, 1.72969042667681E9, 0.0, 2024-10-23 19:03:46.676
3.0, 42265.20416321804, 142.84999881386744, 26645.402806449274, 16276.786181543612, 15802.482164201996, 16213.262523801628, -187500.02235174447, -169816.6855951173, 0.22, 0.968, -0.032, 192.0, 0.0, 0.0, 0.0, 0.0, 0.0, 0.0, 0.0, 0.0, 0.0, 1.7296904266798587E9, 0.0, 2024-10-23 19:03:46.679
4.0, 42361.8978097317, 1040.2278352055355, 26643.301742470474, 16294.779335830133, 15800.246989756464, 16212.435509256782, -187500.02235174447, -169670.7957590575, 0.22, 0.968, -0.032, 192.0, 0.0, 0.0, 0.0, 0.0, 0.0, 0.0, 0.0, 0.0, 0.0, 1.7296904266838458E9, 0.0, 2024-10-23 19:03:46.683
5.0, 41941.72971746084, 838.9950798744059, 26649.493175684594, 16190.620206668402, 15808.293617760375, 16200.29851201755, -187500.02235174447, -169735.43700402224, 0.22, 0.968, -0.032, 192.0, 0.0, 0.0, 0.0, 0.0, 0.0, 0.0, 0.0, 0.0, 0.0, 1.7296904266869411E9, 0.0, 2024-10-23 19:03:46.686
6.0, 41634.23676898918, -248.64080532083577, 26662.70305665768, 16138.317124642985, 15819.290676032386, 16189.05558455653, -187500.02235174447, -169918.56484634458, 0.22, 0.968, -0.032, 192.0, 0.0, 0.0, 0.0, 0.0, 0.0, 0.0, 0.0, 0.0, 0.0, 1.729690426691964E9, 0.0, 2024-10-23 19:03:46.691
7.0, 41846.95832097034, -443.9279966268536, 26660.154957789775, 16181.076011785986, 15817.41312949814, 16199.337387005973, -187500.02235174447, -169940.3130936996, 0.22, 0.968, -0.032, 192.0, 0.0, 0.0, 0.0, 0.0, 0.0, 0.0, 0.0, 0.0, 0.0, 1.729690426695888E9, 0.0, 2024-10-23 19:03:46.695
8.0, 42254.31886366831, 137.6420423557809, 26652.13068153032, 16274.193379186796, 15803.08566130229, 16212.077881345498, -187500.02235174447, -169832.60003716947, 0.216, 0.964, -0.032, 192.0, 6.0, 192.0, 30.0, 32.0, 255.0, 0.0, 0.0, 0.0, 0.0, 1.7296904267003384E9, 0.0, 2024-10-23 19:03:46.700
9.0, 42345.60338802378, 1034.1481607136918, 26651.08014954092, 16287.917350282354, 15800.537562434383, 16222.024407628109, -187500.02235174447, -169686.19611098722, 0.216, 0.964, -0.032, 192.0, 0.0, 0.0, 0.0, 0.0, 0.0, 0.0, 0.0, 0.0, 0.0, 1.7296904267029185E9, 0.0, 2024-10-23 19:03:46.702
10.0, 41925.479999241834, 819.3255447537357, 26664.37943749183, 16183.601758909435, 15817.390777753686, 16208.63571269938, -187500.02235174447, -169755.30770484303, 0.216, 0.964, -0.032, 192.0, 0.0, 0.0, 0.0, 0.0, 0.0, 0.0, 0.0, 0.0, 0.0, 1.729690426707081E9, 0.0, 2024-10-23 19:03:46.707
11.0, 41629.25232997565, -258.2520554366178, 26663.239498524606, 16130.561069316993, 15808.60654218275, 16199.96323585072, -187500.02235174447, -169932.13235522897, 0.216, 0.964, -0.032, 192.0, 0.0, 0.0, 0.0, 0.0, 0.0, 0.0, 0.0, 0.0, 0.0, 1.729690426710918E9, 0.0, 2024-10-23 19:03:46.710
12.0, 41840.968053456316, -444.3079762825938, 26661.853690368378, 16169.766029091601, 15808.137155549188, 16198.376261994394, -187500.02235174447, -169945.94573330233, 0.216, 0.964, -0.032, 192.0, 0.0, 0.0, 0.0, 0.0, 0.0, 0.0, 0.0, 0.0, 0.0, 1.7296904267150333E9, 0.0, 2024-10-23 19:03:46.715
13.0, 42243.34415714075, 124.74508580506871, 26660.445530467696, 16264.269204648639, 15789.36169020673, 16209.060395844032, -187500.02235174447, -169854.05771184657, 0.216, 0.964, -0.032, 192.0, 0.0, 0.0, 0.0, 0.0, 0.0, 0.0, 0.0, 0.0, 0.0, 1.7296904267189286E9, 0.0, 2024-10-23 19:03:46.718
14.0, 42347.68210025813, 1018.2560704059686, 26670.235594539117, 16286.039803748108, 15799.084699044788, 16216.749395936657, -187500.02235174447, -169691.76169535657, 0.216, 0.964, -0.032, 192.0, 0.0, 0.0, 0.0, 0.0, 0.0, 0.0, 0.0, 0.0, 0.0, 1.729690426723889E9, 0.0, 2024-10-23 19:03:46.723
15.0, 41931.000880122294, 801.8688323341408, 26681.41146676677, 16175.622186138891, 15806.952513093058, 16196.096384059952, -187500.02235174447, -169743.55068725953, 0.216, 0.964, -0.032, 192.0, 0.0, 0.0, 0.0, 0.0, 0.0, 0.0, 0.0, 0.0, 0.0, 1.729690426728043E9, 0.0, 2024-10-23 19:03:46.728
16.0, 41637.90245507985, -275.55230564502546, 26683.601937723393, 16124.168470402774, 15807.243085770975, 16191.223703768695, -187500.02235174447, -169931.28298893967, 0.216, 0.964, -0.032, 192.0, 0.0, 0.0, 0.0, 0.0, 0.0, 0.0, 0.0, 0.0, 0.0, 1.7296904267309282E9, 0.0, 2024-10-23 19:03:46.730
17.0, 41859.52000135422, -453.33808104253785, 26676.158806819774, 16158.43369465276, 15796.89422808817, 16155.662078340303, -187500.02235174447, -169955.17700376236, 0.216, 0.964, -0.032, 192.0, 0.0, 0.0, 0.0, 0.0, 0.0, 0.0, 0.0, 0.0, 0.0, 1.7296904267349143E9, 0.0, 2024-10-23 19:03:46.734
18.0, 42283.42083494912, 167.32515899242867, 26682.506702245082, 16263.732762781712, 15805.0302630699, 16202.06429982952, -187500.02235174447, -169835.99750232667, 0.21, 0.964, -0.036000000000000004, 192.0, 6.0, 144.0, 30.0, 32.0, 254.0, 224.0, 0.0, 0.0, 0.0, 1.7296904267390113E9, 0.0, 2024-10-23 19:03:46.739
19.0, 42368.60333306829, 1054.3317859568342, 26684.33954529042, 16286.911521781865, 15802.303350246353, 16240.509300292648, -187500.02235174447, -169673.63443060333, 0.21, 0.964, -0.036000000000000004, 192.0, 0.0, 0.0, 0.0, 0.0, 0.0, 0.0, 0.0, 0.0, 0.0, 1.7296904267430377E9, 0.0, 2024-10-23 19:03:46.743
20.0, 41944.568389006665, 819.0126203313614, 26681.23265281113, 16168.179055235274, 15803.309178746842, 16204.232419041684, -187500.02235174447, -169723.12119282738, 0.21, 0.964, -0.036000000000000004, 192.0, 0.0, 0.0, 0.0, 0.0, 0.0, 0.0, 0.0, 0.0, 0.0, 1.7296904267470164E9, 0.0, 2024-10-23 19:03:46.747
21.0, 41656.8343826335, -247.1432384423302, 26688.742838948114, 16122.76031050209, 15813.076891073812, 16204.21006729723, -187500.02235174447, -169893.30737511007, 0.21, 0.964, -0.036000000000000004, 192.0, 0.0, 0.0, 0.0, 0.0, 0.0, 0.0, 0.0, 0.0, 0.0, 1.7296904267520792E9, 0.0, 2024-10-23 19:03:46.752
22.0, 41867.99131250278, -436.88719712343186, 26679.913899888266, 16163.373430177384, 15806.952513093058, 16197.661006171824, -187500.02235174447, -169933.7640325742, 0.21, 0.964, -0.036000000000000004, 192.0, 0.0, 0.0, 0.0, 0.0, 0.0, 0.0, 0.0, 0.0, 0.0, 1.729690426756034E9, 0.0, 2024-10-23 19:03:46.756
23.0, 42291.48981469749, 192.3591127823726, 26667.28516427102, 16255.97670745572, 15790.300463473854, 16204.120660319408, -187500.02235174447, -169819.97130155223, 0.21, 0.964, -0.036000000000000004, 192.0, 0.0, 0.0, 0.0, 0.0, 0.0, 0.0, 0.0, 0.0, 0.0, 1.729690426760152E9, 0.0, 2024-10-23 19:03:46.760
24.0, 42349.00085318099, 1029.1190182112477, 26667.03929508201, 16268.180759928318, 15788.735841361982, 16203.941846363765, -187500.02235174447, -169692.11932326786, 0.21, 0.964, -0.036000000000000004, 192.0, 0.0, 0.0, 0.0, 0.0, 0.0, 0.0, 0.0, 0.0, 0.0, 1.7296904267630205E9, 0.0, 2024-10-23 19:03:46.763
25.0, 41917.858054382574, 757.9029509905519, 26662.770111891048, 16158.813674308502, 15792.535637919384, 16183.579407164982, -187500.02235174447, -169762.81789098, 0.21, 0.964, -0.036000000000000004, 192.0, 0.0, 0.0, 0.0, 0.0, 0.0, 0.0, 0.0, 0.0, 0.0, 1.729690426770084E9, 0.0, 2024-10-23 19:03:46.770
26.0, 41638.9753388137, -305.4142362373157, 26663.37360899134, 16120.94981920121, 15801.118707790221, 16182.752392620134, -187500.02235174447, -169942.5706198896, 0.21, 0.964, -0.036000000000000004, 192.0, 0.0, 0.0, 0.0, 0.0, 0.0, 0.0, 0.0, 0.0, 0.0, 1.7296904267715266E9, 0.0, 2024-10-23 19:03:46.771
27.0, 41870.539411370686, -445.559673972091, 26662.814815379956, 16176.873883828388, 15809.679425916604, 16209.798003411057, -187500.02235174447, -169949.65612288192, 0.21, 0.964, -0.036000000000000004, 192.0, 0.0, 0.0, 0.0, 0.0, 0.0, 0.0, 0.0, 0.0, 0.0, 1.729690426774994E9, 0.0, 2024-10-23 19:03:46.774
28.0, 42287.75707337345, 203.8702611768557, 26655.41638796525, 16279.133114711418, 15798.794126366869, 16227.612343741936, -187500.02235174447, -169830.74484237967, 0.20800000000000002, 0.962, -0.046, 192.0, 6.0, 128.0, 30.0, 16.0, 254.0, 144.0, 0.0, 0.0, 0.0, 1.7296904267812872E9, 0.0, 2024-10-23 19:03:46.781
29.0, 42345.02224266795, 1062.244303494013, 26647.03448379451, 16291.158353228373, 15794.659053642637, 16226.45005303026, -187500.02235174447, -169646.05237794548, 0.20800000000000002, 0.962, -0.046, 192.0, 0.0, 0.0, 0.0, 0.0, 0.0, 0.0, 0.0, 0.0, 0.0, 1.7296904267840111E9, 0.0, 2024-10-23 19:03:46.784
30.0, 41891.95238255887, 764.3402533936803, 26652.64477165279, 16181.210122252718, 15810.104109061254, 16215.944733136266, -187500.02235174447, -169715.1639718013, 0.20800000000000002, 0.962, -0.046, 192.0, 0.0, 0.0, 0.0, 0.0, 0.0, 0.0, 0.0, 0.0, 0.0, 1.7296904267880104E9, 0.0, 2024-10-23 19:03:46.788
31.0, 41624.178483984295, -285.27531448308406, 26650.878983840823, 16139.43471186575, 15807.55601019335, 16211.809660412035, -187500.02235174447, -169897.06246817857, 0.20800000000000002, 0.962, -0.046, 192.0, 0.0, 0.0, 0.0, 0.0, 0.0, 0.0, 0.0, 0.0, 0.0, 1.7296904267910216E9, 0.0, 2024-10-23 19:03:46.791
32.0, 41851.56278032813, -405.25947871917236, 26637.64675112328, 16174.415191938306, 15786.053632027344, 16176.046869283542, -187500.02235174447, -169908.01482296168, 0.20800000000000002, 0.962, -0.046, 192.0, 0.0, 0.0, 0.0, 0.0, 0.0, 0.0, 0.0, 0.0, 0.0, 1.7296904267962527E9, 0.0, 2024-10-23 19:03:46.796
33.0, 42261.27025619391, 250.6301105773581, 26638.339655201395, 16268.627794817425, 15785.092507015766, 16190.508447946126, -187500.02235174447, -169810.71767934773, 0.20800000000000002, 0.962, -0.046, 192.0, 0.0, 0.0, 0.0, 0.0, 0.0, 0.0, 0.0, 0.0, 0.0, 1.7296904267993653E9, 0.0, 2024-10-23 19:03:46.799
34.0, 42303.73857065899, 1051.627224877742, 26646.65450413877, 16276.383850143417, 15796.402489710152, 16207.115794076419, -187500.02235174447, -169678.37300042785, 0.20800000000000002, 0.962, -0.046, 192.0, 0.0, 0.0, 0.0, 0.0, 0.0, 0.0, 0.0, 0.0, 0.0, 1.7296904268156905E9, 0.0, 2024-10-23 19:03:46.815
35.0, 41868.81832704763, 732.5337210337784, 26655.528146687528, 16164.088685999954, 15810.148812550166, 16201.237285284673, -187500.02235174447, -169756.09001589895, 0.20800000000000002, 0.962, -0.046, 192.0, 0.0, 0.0, 0.0, 0.0, 0.0, 0.0, 0.0, 0.0, 0.0, 1.7296904268157256E9, 0.0, 2024-10-23 19:03:46.815
36.0, 41617.4729606477, -319.4287800107932, 26668.290992771508, 16133.109168184897, 15810.729957906004, 16225.555983252048, -187500.02235174447, -169943.1741169899, 0.20800000000000002, 0.962, -0.046, 192.0, 0.0, 0.0, 0.0, 0.0, 0.0, 0.0, 0.0, 0.0, 0.0, 1.7296904268157408E9, 0.0, 2024-10-23 19:03:46.815
37.0, 41852.72507103981, -456.5790839885574, 26665.005286336578, 16176.136276261364, 15795.396661209663, 16195.20231428174, -187500.02235174447, -169965.23528876726, 0.20800000000000002, 0.962, -0.046, 192.0, 0.0, 0.0, 0.0, 0.0, 0.0, 0.0, 0.0, 0.0, 0.0, 1.729690426815755E9, 0.0, 2024-10-23 19:03:46.815
38.0, 42268.57927663079, 196.02479887304293, 26657.338637988407, 16265.610309315958, 15781.337413947274, 16180.405459452328, -187500.02235174447, -169863.35603753998, 0.218, 0.9580000000000001, -0.05, 192.0, 6.0, 208.0, 29.0, 240.0, 254.0, 112.0, 0.0, 0.0, 0.0, 1.729690426819878E9, 0.0, 2024-10-23 19:03:46.819
39.0, 42308.857120139255, 986.4048345571559, 26664.245327025095, 16272.762867541656, 15781.717393603016, 16214.201297068752, -187500.02235174447, -169724.819925406, 0.218, 0.9580000000000001, -0.05, 192.0, 0.0, 0.0, 0.0, 0.0, 0.0, 0.0, 0.0, 0.0, 0.0, 1.729690426823459E9, 0.0, 2024-10-23 19:03:46.823
40.0, 41876.64143760699, 662.5951126331225, 26668.626268938337, 16159.886558042355, 15792.200361752555, 16211.407329011838, -187500.02235174447, -169799.56415886452, 0.218, 0.9580000000000001, -0.05, 192.0, 0.0, 0.0, 0.0, 0.0, 0.0, 0.0, 0.0, 0.0, 0.0, 1.7296904268270893E9, 0.0, 2024-10-23 19:03:46.827
41.0, 41647.469001706726, -329.0400301265753, 26667.8439578824, 16123.989656447133, 15799.196457767066, 16206.311131276028, -187500.02235174447, -169942.3247507006, 0.218, 0.9580000000000001, -0.05, 192.0, 0.0, 0.0, 0.0, 0.0, 0.0, 0.0, 0.0, 0.0, 0.0, 1.7296904268312368E9, 0.0, 2024-10-23 19:03:46.831
42.0, 41876.194402717876, -434.67437442235644, 26669.721504416648, 16164.468665655693, 15797.810649610836, 16208.881581888389, -187500.02235174447, -169943.84466932353, 0.218, 0.9580000000000001, -0.05, 192.0, 0.0, 0.0, 0.0, 0.0, 0.0, 0.0, 0.0, 0.0, 0.0, 1.729690426835809E9, 0.0, 2024-10-23 19:03:46.835
43.0, 42297.01069557795, 250.51835185508156, 26666.391094492807, 16264.492722093193, 15783.147905248155, 16208.769823166112, -187500.02235174447, -169823.39111845387, 0.218, 0.9580000000000001, -0.05, 192.0, 0.0, 0.0, 0.0, 0.0, 0.0, 0.0, 0.0, 0.0, 0.0, 1.7296904268401763E9, 0.0, 2024-10-23 19:03:46.840
44.0, 42318.870701655236, 1033.4105531466666, 26667.486329971118, 16270.55004484058, 15786.32185296081, 16207.78634641008, -187500.02235174447, -169696.38850645884, 0.218, 0.9580000000000001, -0.05, 192.0, 0.0, 0.0, 0.0, 0.0, 0.0, 0.0, 0.0, 0.0, 0.0, 1.7296904268442037E9, 0.0, 2024-10-23 19:03:46.844
45.0, 41860.10114671006, 661.4104701769913, 26668.581565449425, 16159.57363361998, 15792.669748386115, 16195.649349170846, -187500.02235174447, -169815.29978696106, 0.218, 0.9580000000000001, -0.05, 192.0, 0.0, 0.0, 0.0, 0.0, 0.0, 0.0, 0.0, 0.0, 0.0, 1.7296904268482952E9, 0.0, 2024-10-23 19:03:46.848
46.0, 41627.66535611932, -364.71341427724536, 26665.385265992318, 16127.565935559982, 15791.350995463252, 16198.77859339459, -187500.02235174447, -169991.74445769127, 0.218, 0.9580000000000001, -0.05, 192.0, 0.0, 0.0, 0.0, 0.0, 0.0, 0.0, 0.0, 0.0, 0.0, 1.7296904268512237E9, 0.0, 2024-10-23 19:03:46.851
47.0, 41864.54914385667, -482.0600726676074, 26660.691399656702, 16175.19750299424, 15788.780544850892, 16204.433584741782, -187500.02235174447, -169997.7347252053, 0.218, 0.9580000000000001, -0.05, 192.0, 0.0, 0.0, 0.0, 0.0, 0.0, 0.0, 0.0, 0.0, 0.0, 1.7296904268551068E9, 0.0, 2024-10-23 19:03:46.855
48.0, 42292.160367031145, 221.68460150773544, 26657.271582755042, 16270.281823907117, 15790.814553596325, 16218.246962815163, -187500.02235174447, -169855.2423543027, 0.218, 0.9480000000000001, -0.052000000000000005, 192.0, 6.0, 208.0, 29.0, 160.0, 254.0, 96.0, 0.0, 0.0, 0.0, 1.729690426861334E9, 0.0, 2024-10-23 19:03:46.861
49.0, 42322.357573790265, 1028.4261141331333, 26656.243402510096, 16269.901844251377, 15801.655149657148, 16215.609456969436, -187500.02235174447, -169703.36225072888, 0.218, 0.9480000000000001, -0.052000000000000005, 192.0, 0.0, 0.0, 0.0, 0.0, 0.0, 0.0, 0.0, 0.0, 0.0, 1.7296904268651574E9, 0.0, 2024-10-23 19:03:46.865
50.0, 41870.47235613732, 696.4356537384574, 26653.71765538665, 16156.891424285344, 15807.399547982162, 16209.149802821852, -187500.02235174447, -169780.05108595506, 0.218, 0.9480000000000001, -0.052000000000000005, 192.0, 0.0, 0.0, 0.0, 0.0, 0.0, 0.0, 0.0, 0.0, 0.0, 1.7296904268681304E9, 0.0, 2024-10-23 19:03:46.868
51.0, 41618.009402514625, -355.3927368393823, 26647.50387042807, 16122.492089568626, 15800.246989756464, 16188.854418856434, -187500.02235174447, -169988.3246407896, 0.218, 0.9480000000000001, -0.052000000000000005, 192.0, 0.0, 0.0, 0.0, 0.0, 0.0, 0.0, 0.0, 0.0, 0.0, 1.7296904268712552E9, 0.0, 2024-10-23 19:03:46.871
52.0, 41853.21680941783, -479.9813604332639, 26637.065605767442, 16166.905005801322, 15797.74359437747, 16190.799020624045, -187500.02235174447, -170001.35570780703, 0.218, 0.9480000000000001, -0.052000000000000005, 192.0, 0.0, 0.0, 0.0, 0.0, 0.0, 0.0, 0.0, 0.0, 0.0, 1.729690426875187E9, 0.0, 2024-10-23 19:03:46.875
53.0, 42276.424738934606, 224.09858990890862, 26625.420346906227, 16265.096219193485, 15777.537617389873, 16220.839765171977, -187500.02235174447, -169859.66799970486, 0.218, 0.9480000000000001, -0.052000000000000005, 192.0, 0.0, 0.0, 0.0, 0.0, 0.0, 0.0, 0.0, 0.0, 0.0, 1.7296904268791735E9, 0.0, 2024-10-23 19:03:46.879
54.0, 42308.61125095025, 1034.6175473472533, 26621.0841084819, 16270.706507051767, 15775.704774344538, 16201.147878306852, -187500.02235174447, -169695.56149191398, 0.218, 0.9480000000000001, -0.052000000000000005, 192.0, 0.0, 0.0, 0.0, 0.0, 0.0, 0.0, 0.0, 0.0, 0.0, 1.729690426883468E9, 0.0, 2024-10-23 19:03:46.883
55.0, 41858.916504253924, 699.2966770287368, 26638.786690090503, 16173.923453560288, 15798.905885089147, 16229.311076320539, -187500.02235174447, -169767.91408871583, 0.218, 0.9480000000000001, -0.052000000000000005, 192.0, 0.0, 0.0, 0.0, 0.0, 0.0, 0.0, 0.0, 0.0, 0.0, 1.7296904268871517E9, 0.0, 2024-10-23 19:03:46.887
56.0, 41619.082286248486, -328.39182953737134, 26641.580658147417, 16142.899232256323, 15793.943797820068, 16205.30530277554, -187500.02235174447, -169953.14299501694, 0.218, 0.9480000000000001, -0.052000000000000005, 192.0, 0.0, 0.0, 0.0, 0.0, 0.0, 0.0, 0.0, 0.0, 0.0, 1.7296904268911872E9, 0.0, 2024-10-23 19:03:46.891
57.0, 41845.46075409183, -462.9940346472305, 26640.239553480096, 16187.893293844856, 15802.280998501898, 16227.232364086196, -187500.02235174447, -169977.8640243845, 0.218, 0.9480000000000001, -0.052000000000000005, 192.0, 0.0, 0.0, 0.0, 0.0, 0.0, 0.0, 0.0, 0.0, 0.0, 1.7296904268951771E9, 0.0, 2024-10-23 19:03:46.895
58.0, 42266.36645392972, 216.1413688828193, 26642.072396525433, 16288.565550871559, 15797.833001355291, 16265.677364549323, -187500.02235174447, -169861.7467119392, 0.218, 0.9420000000000001, -0.052000000000000005, 192.0, 6.0, 208.0, 29.0, 112.0, 254.0, 96.0, 0.0, 0.0, 0.0, 1.7296904269001915E9, 0.0, 2024-10-23 19:03:46.900
59.0, 42294.59670717677, 984.2367153449912, 26648.867326839845, 16290.152524727884, 15793.60852165324, 16251.059323675552, -187500.02235174447, -169731.03371036454, 0.218, 0.9420000000000001, -0.052000000000000005, 192.0, 0.0, 0.0, 0.0, 0.0, 0.0, 0.0, 0.0, 0.0, 0.0, 1.7296904269033058E9, 0.0, 2024-10-23 19:03:46.903
60.0, 41857.57539958661, 646.3006909252038, 26654.11998678684, 16173.297604715539, 15796.491896687974, 16227.478233275204, -187500.02235174447, -169802.67105134382, 0.218, 0.9420000000000001, -0.052000000000000005, 192.0, 0.0, 0.0, 0.0, 0.0, 0.0, 0.0, 0.0, 0.0, 0.0, 1.7296904269071956E9, 0.0, 2024-10-23 19:03:46.907
61.0, 41645.01030981664, -324.2344050686842, 26660.13260604532, 16141.088740955442, 15803.935027591591, 16216.659988958836, -187500.02235174447, -169943.4199861789, 0.218, 0.9420000000000001, -0.052000000000000005, 192.0, 0.0, 0.0, 0.0, 0.0, 0.0, 0.0, 0.0, 0.0, 0.0, 1.7296904269111817E9, 0.0, 2024-10-23 19:03:46.911
62.0, 41874.24980095027, -440.93286286984244, 26655.57285017644, 16175.979814050177, 15796.827172854802, 16208.501602232649, -187500.02235174447, -169956.00401830723, 0.218, 0.9420000000000001, -0.052000000000000005, 192.0, 0.0, 0.0, 0.0, 0.0, 0.0, 0.0, 0.0, 0.0, 0.0, 1.729690426915177E9, 0.0, 2024-10-23 19:03:46.915
63.0, 42287.17592801761, 240.01303196108725, 26649.35906521786, 16262.07873369202, 15783.661995370627, 16206.713462676224, -187500.02235174447, -169849.76617691116, 0.218, 0.9420000000000001, -0.052000000000000005, 192.0, 0.0, 0.0, 0.0, 0.0, 0.0, 0.0, 0.0, 0.0, 0.0, 1.7296904269191992E9, 0.0, 2024-10-23 19:03:46.919
64.0, 42309.39356200619, 1006.6331632892088, 26660.84786186789, 16262.257547647661, 15789.629911140193, 16208.658064443836, -187500.02235174447, -169727.50213474061, 0.218, 0.9420000000000001, -0.052000000000000005, 192.0, 0.0, 0.0, 0.0, 0.0, 0.0, 0.0, 0.0, 0.0, 0.0, 1.7296904269251187E9, 0.0, 2024-10-23 19:03:46.925
65.0, 41867.65603633595, 658.3482811866143, 26666.256984026073, 16147.8613195254, 15797.117745532722, 16197.459840471727, -187500.02235174447, -169802.089905988, 0.218, 0.9420000000000001, -0.052000000000000005, 192.0, 0.0, 0.0, 0.0, 0.0, 0.0, 0.0, 0.0, 0.0, 0.0, 1.7296904269272375E9, 0.0, 2024-10-23 19:03:46.927
66.0, 41646.86550460643, -334.00211739565344, 26668.536861960514, 16116.479470310149, 15797.050690299357, 16197.146916049353, -187500.02235174447, -169959.28972474215, 0.218, 0.9420000000000001, -0.052000000000000005, 192.0, 0.0, 0.0, 0.0, 0.0, 0.0, 0.0, 0.0, 0.0, 0.0, 1.7296904269302003E9, 0.0, 2024-10-23 19:03:46.930
67.0, 41873.04280674968, -456.06499386608533, 26666.771074148546, 16158.254880697117, 15791.350995463252, 16195.783459637578, -187500.02235174447, -169965.34704748954, 0.218, 0.9420000000000001, -0.052000000000000005, 192.0, 0.0, 0.0, 0.0, 0.0, 0.0, 0.0, 0.0, 0.0, 0.0, 1.7296904269352157E9, 0.0, 2024-10-23 19:03:46.935
68.0, 42273.16138424414, 214.30852583748413, 26655.908126343267, 16243.750303238667, 15774.833056310781, 16197.817468383011, -187500.02235174447, -169864.27245906263, 0.224, 0.9500000000000001, -0.052000000000000005, 192.0, 7.0, 0.0, 29.0, 176.0, 254.0, 96.0, 0.0, 0.0, 0.0, 1.7296904269392395E9, 0.0, 2024-10-23 19:03:46.939
69.0, 42297.2342130225, 979.6769594761086, 26652.622419908337, 16245.337277094994, 15773.424896410097, 16196.230494526684, -187500.02235174447, -169738.85682092392, 0.224, 0.9500000000000001, -0.052000000000000005, 192.0, 0.0, 0.0, 0.0, 0.0, 0.0, 0.0, 0.0, 0.0, 0.0, 1.72969042694326E9, 0.0, 2024-10-23 19:03:46.943
70.0, 41860.36936764352, 634.5660250861675, 26658.679742655724, 16135.590211819437, 15786.612425638728, 16189.994357823654, -187500.02235174447, -169803.94510077778, 0.224, 0.9500000000000001, -0.052000000000000005, 192.0, 0.0, 0.0, 0.0, 0.0, 0.0, 0.0, 0.0, 0.0, 0.0, 1.7296904269472191E9, 0.0, 2024-10-23 19:03:46.947
71.0, 41648.25131276266, -353.91752170533204, 26661.585469434915, 16110.75742372959, 15787.797068094858, 16195.135259048375, -187500.02235174447, -169971.44907372585, 0.224, 0.9500000000000001, -0.052000000000000005, 192.0, 0.0, 0.0, 0.0, 0.0, 0.0, 0.0, 0.0, 0.0, 0.0, 1.7296904269522197E9, 0.0, 2024-10-23 19:03:46.952
72.0, 41882.85522256556, -456.8920084109317, 26653.22591700863, 16154.142159717341, 15779.772791835403, 16195.761107893124, -187500.02235174447, -169971.18085279237, 0.224, 0.9500000000000001, -0.052000000000000005, 192.0, 0.0, 0.0, 0.0, 0.0, 0.0, 0.0, 0.0, 0.0, 0.0, 1.7296904269552767E9, 0.0, 2024-10-23 19:03:46.955
73.0, 42305.95139336007, 262.6106456054027, 26651.147204774286, 16252.35572485396, 15775.50360864444, 16201.39374749586, -187500.02235174447, -169838.54560119458, 0.224, 0.9500000000000001, -0.052000000000000005, 192.0, 0.0, 0.0, 0.0, 0.0, 0.0, 0.0, 0.0, 0.0, 0.0, 1.7296904269582999E9, 0.0, 2024-10-23 19:03:46.958
74.0, 42326.47029477004, 1053.1247917562475, 26656.75749263257, 16258.189530156797, 15786.0759837718, 16211.720253434212, -187500.02235174447, -169691.82875058995, 0.224, 0.9500000000000001, -0.052000000000000005, 192.0, 0.0, 0.0, 0.0, 0.0, 0.0, 0.0, 0.0, 0.0, 0.0, 1.7296904269632568E9, 0.0, 2024-10-23 19:03:46.963
75.0, 41869.198306703365, 688.970171090385, 26662.256021768575, 16151.23643293815, 15800.515210689928, 16216.369416280917, -187500.02235174447, -169765.50010031465, 0.224, 0.9500000000000001, -0.052000000000000005, 192.0, 0.0, 0.0, 0.0, 0.0, 0.0, 0.0, 0.0, 0.0, 0.0, 1.7296904269673297E9, 0.0, 2024-10-23 19:03:46.967
76.0, 41653.21340003174, -296.98762857766496, 26660.110254300864, 16128.504708827104, 15801.632797912695, 16220.616247727425, -187500.02235174447, -169919.3471574005, 0.224, 0.9500000000000001, -0.052000000000000005, 192.0, 0.0, 0.0, 0.0, 0.0, 0.0, 0.0, 0.0, 0.0, 0.0, 1.72969042697125E9, 0.0, 2024-10-23 19:03:46.971
77.0, 41858.916504253924, -444.71030768278933, 26646.22982099412, 16165.519197645093, 15785.427783182597, 16217.799927926057, -187500.02235174447, -169948.38207344795, 0.224, 0.9500000000000001, -0.052000000000000005, 192.0, 0.0, 0.0, 0.0, 0.0, 0.0, 0.0, 0.0, 0.0, 0.0, 1.729690426975312E9, 0.0, 2024-10-23 19:03:46.975
78.0, 42283.3314279713, 274.3676631888942, 26629.913047541744, 16262.704582536768, 15762.40548639363, 16200.522029462103, -187500.02235174447, -169825.11220277695, 0.23800000000000002, 0.968, -0.054, 192.0, 7.0, 112.0, 30.0, 64.0, 254.0, 80.0, 0.0, 0.0, 0.0, 1.72969042697929E9, 0.0, 2024-10-23 19:03:46.979
79.0, 42302.55392820286, 1061.8419720938173, 26635.053948766465, 16266.45967560526, 15773.938986532568, 16191.782497380078, -187500.02235174447, -169693.01339304607, 0.23800000000000002, 0.968, -0.054, 192.0, 0.0, 0.0, 0.0, 0.0, 0.0, 0.0, 0.0, 0.0, 0.0, 1.7296904269832833E9, 0.0, 2024-10-23 19:03:46.983
80.0, 41843.538504068674, 671.3569964596029, 26650.901335585277, 16166.614433123403, 15797.631835655195, 16230.942753665777, -187500.02235174447, -169791.00344073813, 0.23800000000000002, 0.968, -0.054, 192.0, 0.0, 0.0, 0.0, 0.0, 0.0, 0.0, 0.0, 0.0, 0.0, 1.7296904269863064E9, 0.0, 2024-10-23 19:03:46.986
81.0, 41637.90245507985, -322.8038934235446, 26650.521355929537, 16149.358886403907, 15806.393719481674, 16234.720198478724, -187500.02235174447, -169956.94279157434, 0.23800000000000002, 0.968, -0.054, 192.0, 0.0, 0.0, 0.0, 0.0, 0.0, 0.0, 0.0, 0.0, 0.0, 1.729690426991294E9, 0.0, 2024-10-23 19:03:46.991
82.0, 41857.262475164236, -455.5062002547026, 26645.983951805112, 16185.702822888235, 15806.684292159593, 16194.420003225805, -187500.02235174447, -169971.20320453684, 0.23800000000000002, 0.968, -0.054, 192.0, 0.0, 0.0, 0.0, 0.0, 0.0, 0.0, 0.0, 0.0, 0.0, 1.7296904269953043E9, 0.0, 2024-10-23 19:03:46.995
83.0, 42292.160367031145, 269.9196660422881, 26641.37949244732, 16290.264283450162, 15796.804821110347, 16231.412140299339, -187500.02235174447, -169837.42801397183, 0.23800000000000002, 0.968, -0.054, 192.0, 0.0, 0.0, 0.0, 0.0, 0.0, 0.0, 0.0, 0.0, 0.0, 1.7296904269992948E9, 0.0, 2024-10-23 19:03:46.999
84.0, 42314.55681497536, 1060.7020331265967, 26641.580658147417, 16293.326472440538, 15787.327681461298, 16260.514111580147, -187500.02235174447, -169697.57314891496, 0.23800000000000002, 0.968, -0.054, 192.0, 0.0, 0.0, 0.0, 0.0, 0.0, 0.0, 0.0, 0.0, 0.0, 1.7296904270033016E9, 0.0, 2024-10-23 19:03:47.003
85.0, 41849.19349541587, 666.0372812792399, 26643.525259915026, 16177.432677439772, 15788.400565195152, 16246.521919551125, -187500.02235174447, -169788.58945233698, 0.23800000000000002, 0.968, -0.054, 192.0, 0.0, 0.0, 0.0, 0.0, 0.0, 0.0, 0.0, 0.0, 0.0, 1.7296904270073292E9, 0.0, 2024-10-23 19:03:47.007
86.0, 41640.316443481024, -333.01864063961995, 26649.582582662417, 16149.67181082628, 15792.490934430472, 16238.743512480678, -187500.02235174447, -169970.71146615883, 0.23800000000000002, 0.968, -0.054, 192.0, 0.0, 0.0, 0.0, 0.0, 0.0, 0.0, 0.0, 0.0, 0.0, 1.729690427011328E9, 0.0, 2024-10-23 19:03:47.011
87.0, 41853.66384430693, -492.1407094169509, 26654.07528329793, 16180.718383874702, 15798.391794966674, 16225.220707085218, -187500.02235174447, -170019.77354523822, 0.23800000000000002, 0.968, -0.054, 192.0, 0.0, 0.0, 0.0, 0.0, 0.0, 0.0, 0.0, 0.0, 0.0, 1.7296904270143225E9, 0.0, 2024-10-23 19:03:47.014
88.0, 42296.54130894438, 231.698183023713, 26650.56605941845, 16270.08065820702, 15783.974919793001, 16210.222686555708, -187500.02235174447, -169897.82242749006, 0.23800000000000002, 0.968, -0.054, 192.0, 0.0, 0.0, 0.0, 0.0, 0.0, 0.0, 0.0, 0.0, 0.0, 1.7296904270203395E9, 0.0, 2024-10-23 19:03:47.020
89.0, 42326.24677732549, 1043.5135416404655, 26651.393073963296, 16260.514111580147, 15783.773754092903, 16190.39668922385, -187500.02235174447, -169743.50598377062, 0.23800000000000002, 0.968, -0.056, 192.0, 7.0, 112.0, 30.0, 64.0, 254.0, 64.0, 0.0, 0.0, 0.0, 1.729690427023356E9, 0.0, 2024-10-23 19:03:47.023
90.0, 41855.51903909672, 633.9178244969636, 26675.957641119676, 16151.839930038444, 15815.08854807479, 16215.788270925079, -187500.02235174447, -169840.51255470666, 0.23800000000000002, 0.968, -0.056, 192.0, 0.0, 0.0, 0.0, 0.0, 0.0, 0.0, 0.0, 0.0, 0.0, 1.7296904270273633E9, 0.0, 2024-10-23 19:03:47.027
91.0, 41655.73914715519, -359.75132700816715, 26685.166559835263, 16132.818595506978, 15818.061330087345, 16226.584163496991, -187500.02235174447, -170009.67055674442, 0.23800000000000002, 0.968, -0.056, 192.0, 0.0, 0.0, 0.0, 0.0, 0.0, 0.0, 0.0, 0.0, 0.0, 1.7296904270313475E9, 0.0, 2024-10-23 19:03:47.031
92.0, 41874.741539328286, -500.2543926542274, 26679.936251632724, 16163.351078432928, 15806.706643904048, 16208.434546999282, -187500.02235174447, -170028.51307732024, 0.23800000000000002, 0.968, -0.056, 192.0, 0.0, 0.0, 0.0, 0.0, 0.0, 0.0, 0.0, 0.0, 0.0, 1.7296904270353503E9, 0.0, 2024-10-23 19:03:47.035
93.0, 42307.739532916494, 232.9498807132102, 26664.62530668084, 16255.306155122062, 15776.442381911564, 16201.237285284673, -187500.02235174447, -169897.75537225668, 0.23800000000000002, 0.968, -0.056, 192.0, 0.0, 0.0, 0.0, 0.0, 0.0, 0.0, 0.0, 0.0, 0.0, 1.7296904270393648E9, 0.0, 2024-10-23 19:03:47.039
94.0, 42325.79974243638, 1027.5543960993764, 26659.931440345223, 16249.047666674576, 15768.194588207554, 16199.270331772606, -187500.02235174447, -169758.59341127795, 0.23800000000000002, 0.968, -0.056, 192.0, 0.0, 0.0, 0.0, 0.0, 0.0, 0.0, 0.0, 0.0, 0.0, 1.7296904270423567E9, 0.0, 2024-10-23 19:03:47.042
95.0, 41854.937893740884, 623.2560423917821, 26671.8449201399, 16133.57855481846, 15790.702794874049, 16192.25188401364, -187500.02235174447, -169843.79826114158, 0.23800000000000002, 0.968, -0.056, 192.0, 0.0, 0.0, 0.0, 0.0, 0.0, 0.0, 0.0, 0.0, 0.0, 1.7296904270473876E9, 0.0, 2024-10-23 19:03:47.047
96.0, 41647.42429821781, -372.7600422811559, 26674.86240564137, 16109.438670806727, 15793.988501308979, 16189.234398512173, -187500.02235174447, -170023.50628656225, 0.23800000000000002, 0.968, -0.056, 192.0, 0.0, 0.0, 0.0, 0.0, 0.0, 0.0, 0.0, 0.0, 0.0, 1.729690427051372E9, 0.0, 2024-10-23 19:03:47.051
97.0, 41873.84746955007, -500.2767443986827, 26666.949888104187, 16151.370543404884, 15780.286881957876, 16196.923398604798, -187500.02235174447, -170030.30121687666, 0.23800000000000002, 0.968, -0.056, 192.0, 0.0, 0.0, 0.0, 0.0, 0.0, 0.0, 0.0, 0.0, 0.0, 1.7296904270554068E9, 0.0, 2024-10-23 19:03:47.055
98.0, 42322.33522204581, 257.9167792697882, 26664.75941714757, 16261.519940080636, 15773.089620243267, 16215.363587780428, -187500.02235174447, -169878.33170632503, 0.23800000000000002, 0.968, -0.056, 192.0, 0.0, 0.0, 0.0, 0.0, 0.0, 0.0, 0.0, 0.0, 0.0, 1.7296904270593889E9, 0.0, 2024-10-23 19:03:47.059
99.0, 42336.43917279711, 1049.3920504322114, 26659.88673685631, 16258.144826667885, 15772.374364420697, 16178.371450706894, -187500.02235174447, -169737.2251435787, 0.234, 0.966, -0.052000000000000005, 192.0, 7.0, 80.0, 30.0, 48.0, 254.0, 96.0, 0.0, 0.0, 0.0, 1.729690427063421E9, 0.0, 2024-10-23 19:03:47.063
100.0, 41855.25081816326, 620.7079435238771, 26671.889623628813, 16149.850624781922, 15804.337358991786, 16211.295570289562, -187500.02235174447, -169840.75842389566, 0.234, 0.966, -0.052000000000000005, 192.0, 0.0, 0.0, 0.0, 0.0, 0.0, 0.0, 0.0, 0.0, 0.0, 1.72969042706742E9, 0.0, 2024-10-23 19:03:47.067
101.0, 41664.791603659585, -365.7639462666448, 26669.632097438825, 16140.597002577426, 15796.35778622124, 16241.73864623769, -187500.02235174447, -170009.1788183664, 0.234, 0.966, -0.052000000000000005, 192.0, 0.0, 0.0, 0.0, 0.0, 0.0, 0.0, 0.0, 0.0, 0.0, 1.7296904270704784E9, 0.0, 2024-10-23 19:03:47.070
102.0, 41884.6880656109, -496.4769478412805, 26661.9430973462, 16176.9185873173, 15798.905885089147, 16224.818375685023, -187500.02235174447, -170014.92321669142, 0.234, 0.966, -0.052000000000000005, 192.0, 0.0, 0.0, 0.0, 0.0, 0.0, 0.0, 0.0, 0.0, 0.0, 1.7296904270744805E9, 0.0, 2024-10-23 19:03:47.074
103.0, 42320.07769585582, 261.13543047135244, 26655.75166413208, 16280.407164145372, 15792.1780100081, 16235.726026979213, -187500.02235174447, -169870.68740972131, 0.234, 0.966, -0.052000000000000005, 192.0, 0.0, 0.0, 0.0, 0.0, 0.0, 0.0, 0.0, 0.0, 0.0, 1.729690427079403E9, 0.0, 2024-10-23 19:03:47.079
104.0, 42318.96010863306, 1044.0723352518482, 26644.866364582347, 16270.818265774044, 15783.88551281518, 16219.900991904855, -187500.02235174447, -169734.23000982168, 0.234, 0.966, -0.052000000000000005, 192.0, 0.0, 0.0, 0.0, 0.0, 0.0, 0.0, 0.0, 0.0, 0.0, 1.7296904270834353E9, 0.0, 2024-10-23 19:03:47.083
105.0, 41818.05751538963, 576.4291377579138, 26644.933419815712, 16150.163549204297, 15791.686271630082, 16205.171192308808, -187500.02235174447, -169861.92552589483, 0.234, 0.966, -0.052000000000000005, 192.0, 0.0, 0.0, 0.0, 0.0, 0.0, 0.0, 0.0, 0.0, 0.0, 1.7296904270874116E9, 0.0, 2024-10-23 19:03:47.087
106.0, 41629.140571253374, -414.42369394584824, 26640.105443013366, 16135.009066463599, 15779.303405201843, 16200.522029462103, -187500.02235174447, -170040.65007455947, 0.234, 0.966, -0.052000000000000005, 192.0, 0.0, 0.0, 0.0, 0.0, 0.0, 0.0, 0.0, 0.0, 0.0, 1.729690427091447E9, 0.0, 2024-10-23 19:03:47.091
107.0, 41860.43642287689, -533.7596575927327, 26647.727387872626, 16185.702822888235, 15806.281960759397, 16219.20808782674, -187500.02235174447, -170044.49457460578, 0.234, 0.966, -0.052000000000000005, 192.0, 0.0, 0.0, 0.0, 0.0, 0.0, 0.0, 0.0, 0.0, 0.0, 1.7296904270944648E9, 0.0, 2024-10-23 19:03:47.094
108.0, 42311.49462598498, 257.00035774712063, 26648.55440241747, 16301.70837661128, 15797.296559488364, 16258.591861556992, -187500.02235174447, -169884.2549186057, 0.234, 0.966, -0.052000000000000005, 192.0, 0.0, 0.0, 0.0, 0.0, 0.0, 0.0, 0.0, 0.0, 0.0, 1.7296904270985067E9, 0.0, 2024-10-23 19:03:47.098
109.0, 42319.09421909979, 1054.175323745647, 26645.916896571744, 16299.540257399114, 15785.248969226954, 16259.463579590749, -187500.02235174447, -169723.4564689942, 0.222, 0.96, -0.046, 192.0, 6.0, 240.0, 30.0, 0.0, 254.0, 144.0, 0.0, 0.0, 0.0, 1.7296904271024623E9, 0.0, 2024-10-23 19:03:47.102
110.0, 41825.925329437894, 602.9606584263634, 26649.537879173506, 16174.48224717167, 15794.144963520166, 16232.328561822005, -187500.02235174447, -169819.36780445193, 0.222, 0.96, -0.046, 192.0, 0.0, 0.0, 0.0, 0.0, 0.0, 0.0, 0.0, 0.0, 0.0, 1.729690427107495E9, 0.0, 2024-10-23 19:03:47.107
111.0, 41650.35237674146, -360.10895491945206, 26653.404730964274, 16160.668869098292, 15792.379175708196, 16237.670628746824, -187500.02235174447, -169976.05353308364, 0.222, 0.96, -0.046, 192.0, 0.0, 0.0, 0.0, 0.0, 0.0, 0.0, 0.0, 0.0, 0.0, 1.7296904271114771E9, 0.0, 2024-10-23 19:03:47.111
112.0, 41869.01949274773, -490.9337152163643, 26656.60103042138, 16194.10707880343, 15789.585207651284, 16226.204183841252, -187500.02235174447, -170001.7356874628, 0.222, 0.96, -0.046, 192.0, 0.0, 0.0, 0.0, 0.0, 0.0, 0.0, 0.0, 0.0, 0.0, 1.7296904271154704E9, 0.0, 2024-10-23 19:03:47.115
113.0, 42305.83963463779, 262.3200729274837, 26648.196774506185, 16283.134076968918, 15767.568739362807, 16216.324712792006, -187500.02235174447, -169888.52410179665, 0.222, 0.96, -0.046, 192.0, 0.0, 0.0, 0.0, 0.0, 0.0, 0.0, 0.0, 0.0, 0.0, 1.7296904271194828E9, 0.0, 2024-10-23 19:03:47.119
114.0, 42302.59863169177, 1019.82069251784, 26645.0898820269, 16259.083599935007, 15757.801027035837, 16199.717366661713, -187500.02235174447, -169750.39032106285, 0.222, 0.96, -0.046, 192.0, 0.0, 0.0, 0.0, 0.0, 0.0, 0.0, 0.0, 0.0, 0.0, 1.7296904271225348E9, 0.0, 2024-10-23 19:03:47.122
115.0, 41809.69796296334, 540.1299047624951, 26656.332809487918, 16126.090720425931, 15770.206245208532, 16182.350061219939, -187500.02235174447, -169865.25593581868, 0.222, 0.96, -0.046, 192.0, 0.0, 0.0, 0.0, 0.0, 0.0, 0.0, 0.0, 0.0, 0.0, 1.729690427129543E9, 0.0, 2024-10-23 19:03:47.129
116.0, 41645.23382726119, -415.72009512425603, 26665.631135181327, 16108.656359750792, 15777.0235272674, 16180.517218174604, -187500.02235174447, -170032.9834262113, 0.222, 0.96, -0.046, 192.0, 0.0, 0.0, 0.0, 0.0, 0.0, 0.0, 0.0, 0.0, 0.0, 1.729690427132498E9, 0.0, 2024-10-23 19:03:47.132
117.0, 41878.362521930045, -509.73153230327756, 26668.51451021606, 16143.838005523445, 15779.638681368671, 16178.48320942917, -187500.02235174447, -170036.22442915733, 0.222, 0.96, -0.046, 192.0, 0.0, 0.0, 0.0, 0.0, 0.0, 0.0, 0.0, 0.0, 0.0, 1.7296904271365511E9, 0.0, 2024-10-23 19:03:47.136
118.0, 42320.27886155592, 302.5308612025811, 26663.17244329124, 16240.68811424829, 15768.21693995201, 16186.239264755162, -187500.02235174447, -169876.4094563019, 0.222, 0.96, -0.046, 192.0, 0.0, 0.0, 0.0, 0.0, 0.0, 0.0, 0.0, 0.0, 0.0, 1.729690427139508E9, 0.0, 2024-10-23 19:03:47.139
119.0, 42287.064169295336, 1019.7089337955636, 26668.6933241717, 16226.427701285804, 15770.966204520013, 16184.696994387747, -187500.02235174447, -169748.51277452862, 0.216, 0.9580000000000001, -0.046, 192.0, 6.0, 192.0, 29.0, 240.0, 254.0, 144.0, 0.0, 0.0, 0.0, 1.7296904271445951E9, 0.0, 2024-10-23 19:03:47.144
120.0, 41799.84084365855, 514.4477503833474, 26681.322059788952, 16110.936237685233, 15786.455963427541, 16178.863189084912, -187500.02235174447, -169864.51832825164, 0.216, 0.9580000000000001, -0.046, 192.0, 0.0, 0.0, 0.0, 0.0, 0.0, 0.0, 0.0, 0.0, 0.0, 1.7296904271485653E9, 0.0, 2024-10-23 19:03:47.148
121.0, 41658.04137683408, -401.012647272664, 26679.33275453243, 16100.073289879954, 15784.310195959832, 16178.192636751251, -187500.02235174447, -170000.66280372892, 0.216, 0.9580000000000001, -0.046, 192.0, 0.0, 0.0, 0.0, 0.0, 0.0, 0.0, 0.0, 0.0, 0.0, 1.7296904271515763E9, 0.0, 2024-10-23 19:03:47.151
122.0, 41886.29739121168, -480.0707674110851, 26673.968335863156, 16134.338514129939, 15774.855408055237, 16166.189749978752, -187500.02235174447, -170001.48981827378, 0.216, 0.9580000000000001, -0.046, 192.0, 0.0, 0.0, 0.0, 0.0, 0.0, 0.0, 0.0, 0.0, 0.0, 1.7296904271545486E9, 0.0, 2024-10-23 19:03:47.154
123.0, 42305.39259974869, 298.1499192893409, 26673.141321318308, 16237.380056068905, 15764.528902116885, 16184.920511832299, -187500.02235174447, -169880.9468604263, 0.216, 0.9580000000000001, -0.046, 192.0, 0.0, 0.0, 0.0, 0.0, 0.0, 0.0, 0.0, 0.0, 0.0, 1.729690427158544E9, 0.0, 2024-10-23 19:03:47.158
124.0, 42272.26731446592, 981.1968780990694, 26672.068437584454, 16228.685227475791, 15773.335489432275, 16190.77666887959, -187500.02235174447, -169770.3727806059, 0.216, 0.9580000000000001, -0.046, 192.0, 0.0, 0.0, 0.0, 0.0, 0.0, 0.0, 0.0, 0.0, 0.0, 1.7296904271635575E9, 0.0, 2024-10-23 19:03:47.163
125.0, 41797.404503512924, 491.93954371685317, 26675.018867852556, 16114.244295864619, 15783.259663970432, 16199.180924794786, -187500.02235174447, -169862.66313346187, 0.216, 0.9580000000000001, -0.046, 192.0, 0.0, 0.0, 0.0, 0.0, 0.0, 0.0, 0.0, 0.0, 0.0, 1.7296904271675496E9, 0.0, 2024-10-23 19:03:47.167
126.0, 41664.34456877048, -401.03499901711933, 26673.543652718505, 16114.624275520358, 15779.862198813225, 16207.898105132355, -187500.02235174447, -169992.2808995582, 0.216, 0.9580000000000001, -0.046, 192.0, 0.0, 0.0, 0.0, 0.0, 0.0, 0.0, 0.0, 0.0, 0.0, 1.7296904271716611E9, 0.0, 2024-10-23 19:03:47.171
127.0, 41890.47716742482, -477.8579447100097, 26662.56894619095, 16156.600851607425, 15764.439495139062, 16211.49673598966, -187500.02235174447, -170001.64628048497, 0.216, 0.9580000000000001, -0.046, 192.0, 0.0, 0.0, 0.0, 0.0, 0.0, 0.0, 0.0, 0.0, 0.0, 1.7296904271755996E9, 0.0, 2024-10-23 19:03:47.175
128.0, 42315.160312075655, 325.3519922914496, 26654.410559464763, 16259.508283079658, 15761.73493405997, 16227.567640253024, -187500.02235174447, -169867.35699979748, 0.216, 0.9580000000000001, -0.046, 192.0, 0.0, 0.0, 0.0, 0.0, 0.0, 0.0, 0.0, 0.0, 0.0, 1.7296904271795685E9, 0.0, 2024-10-23 19:03:47.179
129.0, 42267.685206852584, 994.3844073277006, 26660.28906825651, 16251.014620186643, 15777.068230756311, 16223.432567528793, -187500.02235174447, -169772.18327190678, 0.214, 0.9580000000000001, -0.048, 192.0, 6.0, 176.0, 29.0, 240.0, 254.0, 128.0, 0.0, 0.0, 0.0, 1.7296904271837368E9, 0.0, 2024-10-23 19:03:47.183
130.0, 41781.75828239421, 468.2913980831383, 26666.949888104187, 16132.460967595694, 15791.1274780187, 16210.222686555708, -187500.02235174447, -169894.98375594424, 0.214, 0.9580000000000001, -0.048, 192.0, 0.0, 0.0, 0.0, 0.0, 0.0, 0.0, 0.0, 0.0, 0.0, 1.729690427186598E9, 0.0, 2024-10-23 19:03:47.186
131.0, 41645.6808621503, -444.0174036046748, 26655.863422854356, 16117.306484854995, 15774.050745254845, 16195.828163126489, -187500.02235174447, -170045.96978973984, 0.214, 0.9580000000000001, -0.048, 192.0, 0.0, 0.0, 0.0, 0.0, 0.0, 0.0, 0.0, 0.0, 0.0, 1.729690427190676E9, 0.0, 2024-10-23 19:03:47.190
132.0, 41867.47722238031, -540.6439948849672, 26642.02769303652, 16157.919604530289, 15759.745628803448, 16203.651273685846, -187500.02235174447, -170067.31570569467, 0.214, 0.9580000000000001, -0.048, 192.0, 0.0, 0.0, 0.0, 0.0, 0.0, 0.0, 0.0, 0.0, 0.0, 1.7296904271956735E9, 0.0, 2024-10-23 19:03:47.195
133.0, 42304.07384682582, 278.9050673133215, 26634.80807957746, 16265.699716293779, 15751.855463010725, 16214.8271459135, -187500.02235174447, -169912.97691023076, 0.214, 0.9580000000000001, -0.048, 192.0, 0.0, 0.0, 0.0, 0.0, 0.0, 0.0, 0.0, 0.0, 0.0, 1.7296904271996245E9, 0.0, 2024-10-23 19:03:47.199
134.0, 42274.390730189174, 986.0695583903264, 26636.260942967052, 16259.150655168374, 15756.146997946144, 16209.038044099576, -187500.02235174447, -169781.45924585572, 0.214, 0.9580000000000001, -0.048, 192.0, 0.0, 0.0, 0.0, 0.0, 0.0, 0.0, 0.0, 0.0, 0.0, 1.7296904272026265E9, 0.0, 2024-10-23 19:03:47.202
135.0, 41778.71844514828, 477.9697034322862, 26643.41350119275, 16140.842871766434, 15774.967166777513, 16200.343215506462, -187500.02235174447, -169888.83702621903, 0.214, 0.9580000000000001, -0.048, 192.0, 0.0, 0.0, 0.0, 0.0, 0.0, 0.0, 0.0, 0.0, 0.0, 1.729690427206643E9, 0.0, 2024-10-23 19:03:47.206
136.0, 41640.316443481024, -430.4498947203034, 26639.56900114644, 16138.920621743277, 15772.26260569842, 16219.744529693668, -187500.02235174447, -170041.85706876006, 0.214, 0.9580000000000001, -0.048, 192.0, 0.0, 0.0, 0.0, 0.0, 0.0, 0.0, 0.0, 0.0, 0.0, 1.729690427210812E9, 0.0, 2024-10-23 19:03:47.210
137.0, 41872.59577186058, -524.0590004991294, 26642.966466303646, 16181.277177486085, 15778.69990810155, 16220.280971560594, -187500.02235174447, -170055.40222589998, 0.214, 0.9580000000000001, -0.048, 192.0, 0.0, 0.0, 0.0, 0.0, 0.0, 0.0, 0.0, 0.0, 0.0, 1.7296904272146363E9, 0.0, 2024-10-23 19:03:47.214
138.0, 42308.723009672525, 277.29574171253944, 26637.22206797863, 16272.807571030567, 15761.869044526702, 16208.59100921047, -187500.02235174447, -169916.7096515548, 0.214, 0.9580000000000001, -0.048, 192.0, 0.0, 0.0, 0.0, 0.0, 0.0, 0.0, 0.0, 0.0, 0.0, 1.72969042721863E9, 0.0, 2024-10-23 19:03:47.218
139.0, 42275.93300055659, 975.4524797740555, 26638.496117412582, 16255.954355711265, 15749.888509498658, 16207.272256287606, -187500.02235174447, -169797.4854466302, 0.214, 0.9380000000000001, -0.046, 192.0, 6.0, 176.0, 29.0, 80.0, 254.0, 144.0, 0.0, 0.0, 0.0, 1.729690427223758E9, 0.0, 2024-10-23 19:03:47.223
140.0, 41769.55422992161, 430.4498947203034, 26650.83428035191, 16131.253973395107, 15762.78546604937, 16198.331558505484, -187500.02235174447, -169942.70473035632, 0.214, 0.9380000000000001, -0.046, 192.0, 0.0, 0.0, 0.0, 0.0, 0.0, 0.0, 0.0, 0.0, 0.0, 1.729690427227649E9, 0.0, 2024-10-23 19:03:47.227
141.0, 41633.610920144434, -491.13488091646207, 26649.157899517766, 16121.821537234968, 15760.885567770669, 16179.19846525174, -187500.02235174447, -170111.7509736718, 0.214, 0.9380000000000001, -0.046, 192.0, 0.0, 0.0, 0.0, 0.0, 0.0, 0.0, 0.0, 0.0, 0.0, 1.7296904272306235E9, 0.0, 2024-10-23 19:03:47.230
142.0, 41863.677425822905, -586.1968500848831, 26646.587448905404, 16153.471607383683, 15751.810759521815, 16153.762180061602, -187500.02235174447, -170125.78786918975, 0.214, 0.9380000000000001, -0.046, 192.0, 0.0, 0.0, 0.0, 0.0, 0.0, 0.0, 0.0, 0.0, 0.0, 1.7296904272346728E9, 0.0, 2024-10-23 19:03:47.234
143.0, 42316.546120231884, 253.8040582900117, 26644.933419815712, 16265.83382676051, 15749.39677112064, 16208.009863854631, -187500.02235174447, -169954.4170444509, 0.214, 0.9380000000000001, -0.046, 192.0, 0.0, 0.0, 0.0, 0.0, 0.0, 0.0, 0.0, 0.0, 0.0, 1.7296904272386632E9, 0.0, 2024-10-23 19:03:47.238
144.0, 42280.80568084785, 947.7363166494748, 26659.171481033743, 16257.094294678485, 15756.124646201688, 16205.595875453459, -187500.02235174447, -169834.16465928135, 0.214, 0.9380000000000001, -0.046, 192.0, 0.0, 0.0, 0.0, 0.0, 0.0, 0.0, 0.0, 0.0, 0.0, 1.7296904272426836E9, 0.0, 2024-10-23 19:03:47.242
145.0, 41785.22280278478, 414.75897011267784, 26672.582527706927, 16135.679618797258, 15781.963262792024, 16207.78634641008, -187500.02235174447, -169958.99915206424, 0.214, 0.9380000000000001, -0.046, 192.0, 0.0, 0.0, 0.0, 0.0, 0.0, 0.0, 0.0, 0.0, 0.0, 1.7296904272466657E9, 0.0, 2024-10-23 19:03:47.246
146.0, 41662.824650147515, -470.6383312509455, 26674.817702152457, 16132.505671084604, 15784.89134131567, 16215.676512202803, -187500.02235174447, -170098.71990665435, 0.214, 0.9380000000000001, -0.046, 192.0, 0.0, 0.0, 0.0, 0.0, 0.0, 0.0, 0.0, 0.0, 0.0, 1.729690427250792E9, 0.0, 2024-10-23 19:03:47.250
147.0, 41892.19825174788, -555.9549398368525, 26672.98485910712, 16169.318994202495, 15788.400565195152, 16208.456898743738, -187500.02235174447, -170100.19512178842, 0.214, 0.9380000000000001, -0.046, 192.0, 0.0, 0.0, 0.0, 0.0, 0.0, 0.0, 0.0, 0.0, 0.0, 1.7296904272557209E9, 0.0, 2024-10-23 19:03:47.255
148.0, 42302.82214913632, 222.19869163020752, 26660.46788221215, 16261.229367402717, 15763.366611405208, 16209.954465622242, -187500.02235174447, -169987.609384967, 0.214, 0.9380000000000001, -0.046, 192.0, 0.0, 0.0, 0.0, 0.0, 0.0, 0.0, 0.0, 0.0, 0.0, 1.729690427259787E9, 0.0, 2024-10-23 19:03:47.259
149.0, 42272.69199761057, 917.2261854679806, 26651.862460596858, 16240.799872970567, 15752.526015344385, 16191.15664853533, -187500.02235174447, -169861.09851135, 0.218, 0.9400000000000001, -0.046, 192.0, 6.0, 208.0, 29.0, 96.0, 254.0, 144.0, 0.0, 0.0, 0.0, 1.7296904272626853E9, 0.0, 2024-10-23 19:03:47.262
150.0, 41782.5629451946, 398.33043793802716, 26659.439701967207, 16117.440595321727, 15776.621195867205, 16189.793192123556, -187500.02235174447, -169961.86017535452, 0.218, 0.9400000000000001, -0.046, 192.0, 0.0, 0.0, 0.0, 0.0, 0.0, 0.0, 0.0, 0.0, 0.0, 1.7296904272677188E9, 0.0, 2024-10-23 19:03:47.267
151.0, 41659.20366754576, -481.2554098672164, 26661.205489779175, 16117.060615665987, 15778.007004023435, 16211.07205284501, -187500.02235174447, -170105.26896777976, 0.218, 0.9400000000000001, -0.046, 192.0, 0.0, 0.0, 0.0, 0.0, 0.0, 0.0, 0.0, 0.0, 0.0, 1.7296904272717524E9, 0.0, 2024-10-23 19:03:47.271
152.0, 41879.345998686076, -580.0501203596735, 26643.815832592947, 16147.324877658473, 15742.82535825078, 16179.623148396391, -187500.02235174447, -170128.6935959689, 0.218, 0.9400000000000001, -0.046, 192.0, 0.0, 0.0, 0.0, 0.0, 0.0, 0.0, 0.0, 0.0, 0.0, 1.7296904272747645E9, 0.0, 2024-10-23 19:03:47.274
153.0, 42313.8862626417, 244.6174913188805, 26636.395053433786, 16252.579242298514, 15750.424951365585, 16199.560904450525, -187500.02235174447, -169979.13807381847, 0.218, 0.9400000000000001, -0.046, 192.0, 0.0, 0.0, 0.0, 0.0, 0.0, 0.0, 0.0, 0.0, 0.0, 1.7296904272797463E9, 0.0, 2024-10-23 19:03:47.279
154.0, 42283.71140762704, 950.150305050648, 26655.148167031788, 16251.26048937565, 15785.561893649328, 16226.07007337452, -187500.02235174447, -169853.6330287019, 0.218, 0.9400000000000001, -0.046, 192.0, 0.0, 0.0, 0.0, 0.0, 0.0, 0.0, 0.0, 0.0, 0.0, 1.7296904272847433E9, 0.0, 2024-10-23 19:03:47.284
155.0, 41794.58818371155, 438.2953570241162, 26660.445530467696, 16125.084891925442, 15793.139135019677, 16196.96810209371, -187500.02235174447, -169948.5608874036, 0.218, 0.9400000000000001, -0.046, 192.0, 0.0, 0.0, 0.0, 0.0, 0.0, 0.0, 0.0, 0.0, 0.0, 1.7296904272887468E9, 0.0, 2024-10-23 19:03:47.288
156.0, 41660.27655127961, -458.300168311616, 26657.78567287751, 16114.199592375708, 15795.731937376493, 16203.338349263473, -187500.02235174447, -170106.63242419154, 0.218, 0.9400000000000001, -0.046, 192.0, 0.0, 0.0, 0.0, 0.0, 0.0, 0.0, 0.0, 0.0, 0.0, 1.7296904272917821E9, 0.0, 2024-10-23 19:03:47.291
157.0, 41884.06221676615, -550.7693351232214, 26651.21426000765, 16153.359848661406, 15789.69696637356, 16211.58614296748, -187500.02235174447, -170110.83455214914, 0.218, 0.9400000000000001, -0.046, 192.0, 0.0, 0.0, 0.0, 0.0, 0.0, 0.0, 0.0, 0.0, 0.0, 1.729690427294821E9, 0.0, 2024-10-23 19:03:47.294
158.0, 42295.55783218835, 235.36386911438336, 26643.59231514839, 16247.952431196265, 15768.12753297419, 16203.58421845248, -187500.02235174447, -169990.69392570187, 0.218, 0.9400000000000001, -0.046, 192.0, 0.0, 0.0, 0.0, 0.0, 0.0, 0.0, 0.0, 0.0, 0.0, 1.7296904272990625E9, 0.0, 2024-10-23 19:03:47.299
159.0, 42256.97872125849, 916.8238540677851, 26640.79834709148, 16236.374227568416, 15772.150846976145, 16191.648386913346, -187500.02235174447, -169884.92547093934, 0.224, 0.9460000000000001, -0.044, 192.0, 7.0, 0.0, 29.0, 144.0, 254.0, 160.0, 0.0, 0.0, 0.0, 1.7296904273027513E9, 0.0, 2024-10-23 19:03:47.302
160.0, 41764.43568044135, 391.5355076236138, 26649.448472195683, 16118.424072077762, 15793.139135019677, 16191.96131133572, -187500.02235174447, -169990.35864953502, 0.224, 0.9460000000000001, -0.044, 192.0, 0.0, 0.0, 0.0, 0.0, 0.0, 0.0, 0.0, 0.0, 0.0, 1.7296904273076067E9, 0.0, 2024-10-23 19:03:47.307
161.0, 41657.10260356696, -470.07953763956283, 26651.482480941115, 16128.370598360372, 15787.104164016744, 16200.834953884478, -187500.02235174447, -170125.2961308117, 0.224, 0.9460000000000001, -0.044, 192.0, 0.0, 0.0, 0.0, 0.0, 0.0, 0.0, 0.0, 0.0, 0.0, 1.7296904273117306E9, 0.0, 2024-10-23 19:03:47.311
162.0, 41888.75608310176, -532.7761808366992, 26645.000475049077, 16167.776723835079, 15780.108068002233, 16183.49000018716, -187500.02235174447, -170111.46040099388, 0.224, 0.9460000000000001, -0.044, 192.0, 0.0, 0.0, 0.0, 0.0, 0.0, 0.0, 0.0, 0.0, 0.0, 1.7296904273147233E9, 0.0, 2024-10-23 19:03:47.314
163.0, 42305.95139336007, 302.03912282456434, 26635.769204589036, 16265.766771527145, 15766.78642830687, 16173.834046582468, -187500.02235174447, -169958.28389624166, 0.224, 0.9460000000000001, -0.044, 192.0, 0.0, 0.0, 0.0, 0.0, 0.0, 0.0, 0.0, 0.0, 0.0, 1.7296904273187332E9, 0.0, 2024-10-23 19:03:47.318
164.0, 42265.4276806626, 996.7313404955079, 26644.821661093436, 16268.65014656188, 15779.035184268378, 16220.795061683068, -187500.02235174447, -169839.26085701716, 0.224, 0.9460000000000001, -0.044, 192.0, 0.0, 0.0, 0.0, 0.0, 0.0, 0.0, 0.0, 0.0, 0.0, 1.729690427322742E9, 0.0, 2024-10-23 19:03:47.322
165.0, 41773.644599156934, 473.92403768587565, 26652.354198974874, 16152.689296327746, 15796.156620521144, 16214.87184940241, -187500.02235174447, -169934.8592680525, 0.224, 0.9460000000000001, -0.044, 192.0, 0.0, 0.0, 0.0, 0.0, 0.0, 0.0, 0.0, 0.0, 0.0, 1.7296904273268683E9, 0.0, 2024-10-23 19:03:47.326
166.0, 41664.81395540404, -378.95147549527593, 26651.728350130124, 16150.588232348948, 15797.251855999453, 16208.076919087998, -187500.02235174447, -170067.6956853504, 0.224, 0.9460000000000001, -0.044, 192.0, 0.0, 0.0, 0.0, 0.0, 0.0, 0.0, 0.0, 0.0, 0.0, 1.7296904273308616E9, 0.0, 2024-10-23 19:03:47.330
167.0, 41871.500536382264, -493.7947385066436, 26653.605896664372, 16185.076974043486, 15794.994329809468, 16202.846610885455, -187500.02235174447, -170104.41960149046, 0.224, 0.9460000000000001, -0.044, 192.0, 0.0, 0.0, 0.0, 0.0, 0.0, 0.0, 0.0, 0.0, 0.0, 1.7296904273348043E9, 0.0, 2024-10-23 19:03:47.334
168.0, 42302.151596802665, 308.23055603868437, 26655.528146687528, 16290.666614850357, 15790.233408240487, 16212.25669530114, -187500.02235174447, -169987.18470182238, 0.224, 0.9460000000000001, -0.044, 192.0, 0.0, 0.0, 0.0, 0.0, 0.0, 0.0, 0.0, 0.0, 0.0, 1.729690427339888E9, 0.0, 2024-10-23 19:03:47.339
169.0, 42271.037968520875, 999.145328896681, 26659.88673685631, 16276.987347243708, 15790.50162917395, 16212.144936578863, -187500.02235174447, -169876.43180804633, 0.23, 0.97, -0.044, 192.0, 7.0, 48.0, 30.0, 80.0, 254.0, 160.0, 0.0, 0.0, 0.0, 1.7296904273438065E9, 0.0, 2024-10-23 19:03:47.343
170.0, 41762.1558025069, 429.24290051971684, 26669.073303827445, 16149.20242419272, 15802.862143857736, 16187.267445000107, -187500.02235174447, -170008.35180382154, 0.23, 0.97, -0.044, 192.0, 0.0, 0.0, 0.0, 0.0, 0.0, 0.0, 0.0, 0.0, 0.0, 1.7296904273469276E9, 0.0, 2024-10-23 19:03:47.346
171.0, 41665.95389437126, -422.8950050944096, 26667.441626482207, 16154.030400995065, 15797.78829786638, 16186.753354877634, -187500.02235174447, -170138.1036803846, 0.23, 0.97, -0.044, 192.0, 0.0, 0.0, 0.0, 0.0, 0.0, 0.0, 0.0, 0.0, 0.0, 1.7296904273508773E9, 0.0, 2024-10-23 19:03:47.350
172.0, 41885.47037666683, -498.98034322027485, 26656.84689961039, 16182.081840286475, 15779.459867413028, 16168.670793613292, -187500.02235174447, -170127.57600874617, 0.23, 0.97, -0.044, 192.0, 0.0, 0.0, 0.0, 0.0, 0.0, 0.0, 0.0, 0.0, 0.0, 1.729690427354908E9, 0.0, 2024-10-23 19:03:47.354
173.0, 42303.85032938127, 323.2062248237401, 26648.666161139747, 16270.572396585036, 15762.763114304915, 16143.726246801169, -187500.02235174447, -169996.23715832678, 0.23, 0.97, -0.044, 192.0, 0.0, 0.0, 0.0, 0.0, 0.0, 0.0, 0.0, 0.0, 0.0, 1.729690427359086E9, 0.0, 2024-10-23 19:03:47.359
174.0, 42270.81445107632, 1032.4941316239992, 26656.46691995465, 16265.83382676051, 15769.222768452499, 16193.414174725316, -187500.02235174447, -169875.91771792385, 0.23, 0.97, -0.044, 192.0, 0.0, 0.0, 0.0, 0.0, 0.0, 0.0, 0.0, 0.0, 0.0, 1.7296904273629603E9, 0.0, 2024-10-23 19:03:47.362
175.0, 41769.77774736616, 471.3759388179706, 26667.955716604676, 16143.279211912062, 15792.468582686019, 16202.310169018529, -187500.02235174447, -169987.43057101138, 0.23, 0.97, -0.044, 192.0, 0.0, 0.0, 0.0, 0.0, 0.0, 0.0, 0.0, 0.0, 0.0, 1.7296904273678515E9, 0.0, 2024-10-23 19:03:47.367
176.0, 41661.43884199129, -405.6171066304573, 26680.830321410933, 16144.419150879283, 15816.921391120124, 16184.808753110023, -187500.02235174447, -170130.68290122546, 0.23, 0.97, -0.044, 192.0, 0.0, 0.0, 0.0, 0.0, 0.0, 0.0, 0.0, 0.0, 0.0, 1.7296904273709657E9, 0.0, 2024-10-23 19:03:47.370
177.0, 41859.29648390967, -570.4388702438915, 26674.28126028553, 16172.224720981685, 15807.734824148993, 16181.008956552621, -187500.02235174447, -170197.04523051326, 0.23, 0.97, -0.044, 192.0, 0.0, 0.0, 0.0, 0.0, 0.0, 0.0, 0.0, 0.0, 0.0, 1.7296904273738573E9, 0.0, 2024-10-23 19:03:47.373
178.0, 42316.61317546525, 282.50369817062597, 26656.55632693247, 16270.818265774044, 15781.627986625193, 16189.949654334743, -187500.02235174447, -170043.4887461053, 0.23, 0.97, -0.044, 192.0, 0.0, 0.0, 0.0, 0.0, 0.0, 0.0, 0.0, 0.0, 0.0, 1.7296904273789628E9, 0.0, 2024-10-23 19:03:47.378
179.0, 42291.601573419764, 1031.9353380126165, 26659.015018822556, 16255.64143128889, 15783.259663970432, 16196.990453838165, -187500.02235174447, -169896.30250886708, 0.226, 0.966, -0.054, 192.0, 7.0, 16.0, 30.0, 48.0, 254.0, 80.0, 0.0, 0.0, 0.0, 1.7296904273828263E9, 0.0, 2024-10-23 19:03:47.382
180.0, 41773.912820090394, 463.4187177918813, 26667.32986775993, 16128.57176406047, 15800.403451967652, 16194.799982881545, -187500.02235174447, -170009.84937070005, 0.226, 0.966, -0.054, 192.0, 0.0, 0.0, 0.0, 0.0, 0.0, 0.0, 0.0, 0.0, 0.0, 1.7296904273889964E9, 0.0, 2024-10-23 19:03:47.388
181.0, 41673.26291480815, -387.28867617710546, 26654.790539120502, 16119.698121511714, 15792.066251285822, 16186.261616499618, -187500.02235174447, -170129.58766574712, 0.226, 0.966, -0.054, 192.0, 0.0, 0.0, 0.0, 0.0, 0.0, 0.0, 0.0, 0.0, 0.0, 1.729690427391924E9, 0.0, 2024-10-23 19:03:47.391
182.0, 41876.21675446234, -511.76554104871053, 26658.255059511073, 16146.229642180162, 15806.974864837512, 16188.317976989507, -187500.02235174447, -170152.2076311359, 0.226, 0.966, -0.054, 192.0, 0.0, 0.0, 0.0, 0.0, 0.0, 0.0, 0.0, 0.0, 0.0, 1.7296904273959029E9, 0.0, 2024-10-23 19:03:47.395
183.0, 42324.74921044698, 334.918538918321, 26649.38141696232, 16252.69100102079, 15788.55702740634, 16184.562883921015, -187500.02235174447, -170005.06609738662, 0.226, 0.966, -0.054, 192.0, 0.0, 0.0, 0.0, 0.0, 0.0, 0.0, 0.0, 0.0, 0.0, 1.7296904274003584E9, 0.0, 2024-10-23 19:03:47.400
184.0, 42304.23030903701, 1087.658236939697, 26642.921762814734, 16237.06713164653, 15778.744611590459, 16182.841799597956, -187500.02235174447, -169848.71564492176, 0.226, 0.966, -0.054, 192.0, 0.0, 0.0, 0.0, 0.0, 0.0, 0.0, 0.0, 0.0, 0.0, 1.7296904274028988E9, 0.0, 2024-10-23 19:03:47.402
185.0, 41768.99543631023, 488.8997064709314, 26650.297838484985, 16104.208362604186, 15790.0769460293, 16183.0206135536, -187500.02235174447, -169984.99423086576, 0.226, 0.966, -0.054, 192.0, 0.0, 0.0, 0.0, 0.0, 0.0, 0.0, 0.0, 0.0, 0.0, 1.729690427406952E9, 0.0, 2024-10-23 19:03:47.406
186.0, 41666.19976356027, -393.7036268357786, 26647.660332639258, 16116.658284265792, 15788.758193106438, 16181.992433308655, -187500.02235174447, -170141.5011455418, 0.226, 0.966, -0.054, 192.0, 0.0, 0.0, 0.0, 0.0, 0.0, 0.0, 0.0, 0.0, 0.0, 1.7296904274149392E9, 0.0, 2024-10-23 19:03:47.414
187.0, 41887.4373301789, -509.64212532545633, 26651.258963496563, 16166.413267423306, 15795.016681553923, 16182.707689131224, -187500.02235174447, -170155.64979978203, 0.226, 0.966, -0.054, 192.0, 0.0, 0.0, 0.0, 0.0, 0.0, 0.0, 0.0, 0.0, 0.0, 1.7296904274189095E9, 0.0, 2024-10-23 19:03:47.418
188.0, 42347.23506536902, 372.91650449234305, 26646.49804192758, 16282.418821146348, 15785.137210504678, 16190.575503179492, -187500.02235174447, -169977.19347205086, 0.226, 0.966, -0.054, 192.0, 0.0, 0.0, 0.0, 0.0, 0.0, 0.0, 0.0, 0.0, 0.0, 1.7296904274219165E9, 0.0, 2024-10-23 19:03:47.421
189.0, 42296.56366068884, 1082.3832252482446, 26640.396015691284, 16265.207977915763, 15777.64937611215, 16185.635767654869, -187500.02235174447, -169858.81863341556, 0.226, 0.9540000000000001, -0.042, 192.0, 7.0, 16.0, 29.0, 208.0, 254.0, 176.0, 0.0, 0.0, 0.0, 1.7296904274250205E9, 0.0, 2024-10-23 19:03:47.425
190.0, 41762.736947862744, 457.78607818914395, 26649.60493440687, 16146.967249747187, 15790.814553596325, 16180.62897689688, -187500.02235174447, -170009.60350151104, 0.226, 0.9540000000000001, -0.042, 192.0, 0.0, 0.0, 0.0, 0.0, 0.0, 0.0, 0.0, 0.0, 0.0, 1.729690427428938E9, 0.0, 2024-10-23 19:03:47.428
191.0, 41678.78379568861, -390.03794074510824, 26647.99560880609, 16163.90987204431, 15790.479277429497, 16188.228570011684, -187500.02235174447, -170135.1979536054, 0.226, 0.9540000000000001, -0.042, 192.0, 0.0, 0.0, 0.0, 0.0, 0.0, 0.0, 0.0, 0.0, 0.0, 1.7296904274323509E9, 0.0, 2024-10-23 19:03:47.432
192.0, 41891.34888545858, -498.64506705344525, 26645.782786105014, 16201.952541107243, 15791.88743733018, 16193.570636936503, -187500.02235174447, -170146.8208607222, 0.226, 0.9540000000000001, -0.042, 192.0, 0.0, 0.0, 0.0, 0.0, 0.0, 0.0, 0.0, 0.0, 0.0, 1.7296904274360392E9, 0.0, 2024-10-23 19:03:47.436
193.0, 42331.05240238338, 376.2469144161838, 26637.534992401004, 16308.123327269952, 15777.247044711954, 16200.834953884478, -187500.02235174447, -169987.05059135566, 0.226, 0.9540000000000001, -0.042, 192.0, 0.0, 0.0, 0.0, 0.0, 0.0, 0.0, 0.0, 0.0, 0.0, 1.7296904274400537E9, 0.0, 2024-10-23 19:03:47.440
194.0, 42277.09529126827, 1069.5086204419877, 26645.335751215905, 16291.873609050943, 15785.27132097141, 16198.39861373885, -187500.02235174447, -169877.01295340215, 0.226, 0.9540000000000001, -0.042, 192.0, 0.0, 0.0, 0.0, 0.0, 0.0, 0.0, 0.0, 0.0, 0.0, 1.7296904274430304E9, 0.0, 2024-10-23 19:03:47.443
195.0, 41745.749622076706, 442.2069123037949, 26653.47178619764, 16164.021630766587, 15802.79508862437, 16193.525933447592, -187500.02235174447, -170017.51601904823, 0.226, 0.9540000000000001, -0.042, 192.0, 0.0, 0.0, 0.0, 0.0, 0.0, 0.0, 0.0, 0.0, 0.0, 1.7296904274470417E9, 0.0, 2024-10-23 19:03:47.447
196.0, 41665.126879826414, -397.7269408377339, 26653.047103052988, 16172.336479703961, 15794.994329809468, 16193.525933447592, -187500.02235174447, -170148.2737241118, 0.226, 0.9540000000000001, -0.042, 192.0, 0.0, 0.0, 0.0, 0.0, 0.0, 0.0, 0.0, 0.0, 0.0, 1.7296904274530444E9, 0.0, 2024-10-23 19:03:47.453
197.0, 41885.26921096673, -478.01440692119684, 26648.107367528366, 16201.326692262495, 15787.439440183574, 16186.10515428843, -187500.02235174447, -170142.3058083422, 0.226, 0.9540000000000001, -0.042, 192.0, 0.0, 0.0, 0.0, 0.0, 0.0, 0.0, 0.0, 0.0, 0.0, 1.7296904274570384E9, 0.0, 2024-10-23 19:03:47.457
198.0, 42311.315812029345, 382.17012669684016, 26651.303666985474, 16301.998949289198, 15792.401527452652, 16213.240172057174, -187500.02235174447, -169999.0311263837, 0.226, 0.9540000000000001, -0.042, 192.0, 0.0, 0.0, 0.0, 0.0, 0.0, 0.0, 0.0, 0.0, 0.0, 1.7296904274600115E9, 0.0, 2024-10-23 19:03:47.460
199.0, 42240.50548559493, 1034.2822711804238, 26652.533012930515, 16273.209902430763, 15792.870914086214, 16203.651273685846, -187500.02235174447, -169900.03525019114, 0.228, 0.9560000000000001, -0.046, 192.0, 7.0, 32.0, 29.0, 224.0, 254.0, 144.0, 0.0, 0.0, 0.0, 1.729690427464126E9, 0.0, 2024-10-23 19:03:47.464
200.0, 41718.97223221925, 396.1846704703177, 26661.808986879467, 16141.535775844548, 15806.728995648504, 16196.342253248962, -187500.02235174447, -170033.54221982267, 0.228, 0.9560000000000001, -0.046, 192.0, 0.0, 0.0, 0.0, 0.0, 0.0, 0.0, 0.0, 0.0, 0.0, 1.729690427467011E9, 0.0, 2024-10-23 19:03:47.467
201.0, 41657.43787973379, -417.4858829362253, 26657.78567287751, 16151.77287480508, 15800.60461766775, 16193.928264847787, -187500.02235174447, -170155.8733172266, 0.228, 0.9560000000000001, -0.046, 192.0, 0.0, 0.0, 0.0, 0.0, 0.0, 0.0, 0.0, 0.0, 0.0, 1.7296904274710138E9, 0.0, 2024-10-23 19:03:47.471
202.0, 41885.3362662001, -472.1582498739064, 26649.98491406261, 16182.171247264296, 15789.227579739998, 16182.752392620134, -187500.02235174447, -170153.70519801442, 0.228, 0.9560000000000001, -0.046, 192.0, 0.0, 0.0, 0.0, 0.0, 0.0, 0.0, 0.0, 0.0, 0.0, 1.7296904274750645E9, 0.0, 2024-10-23 19:03:47.475
203.0, 42314.489759742, 427.85709236348777, 26647.772091361534, 16281.122419967942, 15782.320890703308, 16187.781535122578, -187500.02235174447, -169994.29255655917, 0.228, 0.9560000000000001, -0.046, 192.0, 0.0, 0.0, 0.0, 0.0, 0.0, 0.0, 0.0, 0.0, 0.0, 1.7296904274790256E9, 0.0, 2024-10-23 19:03:47.479
204.0, 42225.194540643046, 1041.3454224283007, 26650.36489371835, 16250.589937041992, 15779.817495324314, 16176.180979750274, -187500.02235174447, -169911.3005293966, 0.228, 0.9560000000000001, -0.046, 192.0, 0.0, 0.0, 0.0, 0.0, 0.0, 0.0, 0.0, 0.0, 0.0, 1.7296904274830673E9, 0.0, 2024-10-23 19:03:47.483
205.0, 41712.4455228383, 386.32755116552727, 26652.957696075166, 16120.18985988973, 15787.752364605949, 16172.895273315344, -187500.02235174447, -170043.15346993846, 0.228, 0.9560000000000001, -0.046, 192.0, 0.0, 0.0, 0.0, 0.0, 0.0, 0.0, 0.0, 0.0, 0.0, 1.7296904274859843E9, 0.0, 2024-10-23 19:03:47.485
206.0, 41652.45344072026, -427.2982987521051, 26644.70990237116, 16125.084891925442, 15773.35784117673, 16164.692183100247, -187500.02235174447, -170172.23479416786, 0.228, 0.9560000000000001, -0.046, 192.0, 0.0, 0.0, 0.0, 0.0, 0.0, 0.0, 0.0, 0.0, 0.0, 1.7296904274900217E9, 0.0, 2024-10-23 19:03:47.490
207.0, 41889.38193194651, -477.12033714298457, 26636.327998200417, 16161.361773176406, 15772.620233609705, 16166.323860445484, -187500.02235174447, -170171.18426217846, 0.228, 0.9560000000000001, -0.046, 192.0, 0.0, 0.0, 0.0, 0.0, 0.0, 0.0, 0.0, 0.0, 0.0, 1.7296904274950109E9, 0.0, 2024-10-23 19:03:47.495
208.0, 42324.92802440262, 449.0912495960295, 26625.912085284246, 16259.843559246488, 15756.21405317951, 16172.358831448417, -187500.02235174447, -169997.9805943943, 0.228, 0.9560000000000001, -0.046, 192.0, 0.0, 0.0, 0.0, 0.0, 0.0, 0.0, 0.0, 0.0, 0.0, 1.7296904274990675E9, 0.0, 2024-10-23 19:03:47.499
209.0, 42233.285872135864, 1073.30841699939, 26618.088974724888, 16229.73575946519, 15744.21116640701, 16161.00414526512, -187500.02235174447, -169890.06637216406, 0.228, 0.9560000000000001, -0.046, 192.0, 0.0, 0.0, 0.0, 0.0, 0.0, 0.0, 0.0, 0.0, 0.0, 1.7296904275030935E9, 0.0, 2024-10-23 19:03:47.503
210.0, 41709.78566524812, 404.61127812996847, 26628.102556240865, 16112.009121419087, 15770.586224864272, 16193.145953791853, -187500.02235174447, -170022.94749295086, 0.224, 0.962, -0.056, 192.0, 7.0, 0.0, 30.0, 16.0, 254.0, 64.0, 0.0, 0.0, 0.0, 1.7296904275125875E9, 0.0, 2024-10-23 19:03:47.512
211.0, 41661.72941466921, -387.1545657103736, 26633.712844099147, 16126.202479148207, 15776.397678422652, 16185.725174632691, -187500.02235174447, -170145.0550729102, 0.224, 0.962, -0.056, 192.0, 0.0, 0.0, 0.0, 0.0, 0.0, 0.0, 0.0, 0.0, 0.0, 1.729690427512618E9, 0.0, 2024-10-23 19:03:47.512
212.0, 41891.72886511432, -432.99799358820843, 26625.040367250487, 16151.77287480508, 15764.864178283713, 16161.115903987398, -187500.02235174447, -170151.29120961323, 0.224, 0.962, -0.056, 192.0, 0.0, 0.0, 0.0, 0.0, 0.0, 0.0, 0.0, 0.0, 0.0, 1.72969042751409E9, 0.0, 2024-10-23 19:03:47.514
213.0, 42319.51890224444, 483.0882529125515, 26615.853800279358, 16247.505396307159, 15751.609593821717, 16167.664965112803, -187500.02235174447, -169982.84846339806, 0.224, 0.962, -0.056, 192.0, 0.0, 0.0, 0.0, 0.0, 0.0, 0.0, 0.0, 0.0, 0.0, 1.7296904275180998E9, 0.0, 2024-10-23 19:03:47.518
214.0, 42212.85637770371, 1054.8011725903955, 26620.21239044814, 16213.754262179646, 15754.649431067639, 16143.569784589981, -187500.02235174447, -169894.91670071086, 0.224, 0.962, -0.056, 192.0, 0.0, 0.0, 0.0, 0.0, 0.0, 0.0, 0.0, 0.0, 0.0, 1.729690427523126E9, 0.0, 2024-10-23 19:03:47.523
215.0, 41701.426112821835, 379.5549725955692, 26628.0355010075, 16090.819667675456, 15768.485160885473, 16136.86426125339, -187500.02235174447, -170021.47227781682, 0.224, 0.962, -0.056, 192.0, 0.0, 0.0, 0.0, 0.0, 0.0, 0.0, 0.0, 0.0, 0.0, 1.729690427528097E9, 0.0, 2024-10-23 19:03:47.528
216.0, 41674.91694389784, -364.13226892140733, 26624.101593983367, 16118.133499399843, 15767.345221918253, 16181.455991441726, -187500.02235174447, -170112.33211902765, 0.224, 0.962, -0.056, 192.0, 0.0, 0.0, 0.0, 0.0, 0.0, 0.0, 0.0, 0.0, 0.0, 1.7296904275321147E9, 0.0, 2024-10-23 19:03:47.532
217.0, 41899.417865206946, -392.6530948463792, 26617.37371890232, 16153.225738194675, 15758.426875880585, 16168.894311057844, -187500.02235174447, -170119.03764236424, 0.224, 0.962, -0.056, 192.0, 0.0, 0.0, 0.0, 0.0, 0.0, 0.0, 0.0, 0.0, 0.0, 1.7296904275351472E9, 0.0, 2024-10-23 19:03:47.535
218.0, 42312.1875300631, 515.297116672649, 26617.32901541341, 16257.7871987566, 15753.822416522791, 16172.135314003865, -187500.02235174447, -169972.18668129286, 0.224, 0.962, -0.056, 192.0, 0.0, 0.0, 0.0, 0.0, 0.0, 0.0, 0.0, 0.0, 0.0, 1.7296904275390596E9, 0.0, 2024-10-23 19:03:47.539
219.0, 42200.07117987528, 1064.0324430504375, 26624.12394572782, 16242.20803287125, 15761.623175337694, 16184.987567065666, -187500.02235174447, -169901.04107869163, 0.224, 0.962, -0.056, 192.0, 0.0, 0.0, 0.0, 0.0, 0.0, 0.0, 0.0, 0.0, 0.0, 1.7296904275421188E9, 0.0, 2024-10-23 19:03:47.542
220.0, 41675.7886619316, 341.5123035326366, 26633.75754758806, 16126.850679737412, 15774.36366967722, 16181.076011785986, -187500.02235174447, -170070.7355225963, 0.20800000000000002, 0.9480000000000001, -0.056, 192.0, 6.0, 128.0, 29.0, 160.0, 254.0, 64.0, 0.0, 0.0, 0.0, 1.7296904275461953E9, 0.0, 2024-10-23 19:03:47.546
221.0, 41661.66235943584, -403.9630775407645, 26629.734233586103, 16153.739828317146, 15765.333564917275, 16178.77378210709, -187500.02235174447, -170175.36403839162, 0.20800000000000002, 0.9480000000000001, -0.056, 192.0, 0.0, 0.0, 0.0, 0.0, 0.0, 0.0, 0.0, 0.0, 0.0, 1.7296904275512323E9, 0.0, 2024-10-23 19:03:47.551
222.0, 41907.59860367759, -395.044731503097, 26630.002454519567, 16190.8213723685, 15766.317041673308, 16181.634805397369, -187500.02235174447, -170143.3563403316, 0.20800000000000002, 0.9480000000000001, -0.056, 192.0, 0.0, 0.0, 0.0, 0.0, 0.0, 0.0, 0.0, 0.0, 0.0, 1.7296904275551143E9, 0.0, 2024-10-23 19:03:47.555
223.0, 42308.67830618362, 493.7723867621883, 26634.60691387736, 16286.375079914938, 15764.864178283713, 16193.190657280764, -187500.02235174447, -170004.26143458622, 0.20800000000000002, 0.9480000000000001, -0.056, 192.0, 0.0, 0.0, 0.0, 0.0, 0.0, 0.0, 0.0, 0.0, 0.0, 1.729690427559092E9, 0.0, 2024-10-23 19:03:47.559
224.0, 42214.912738193605, 1079.4774984690546, 26640.060739524455, 16264.045687204087, 15770.40741090863, 16190.083764801475, -187500.02235174447, -169893.91087221037, 0.20800000000000002, 0.9480000000000001, -0.056, 192.0, 0.0, 0.0, 0.0, 0.0, 0.0, 0.0, 0.0, 0.0, 0.0, 1.729690427570148E9, 0.0, 2024-10-23 19:03:47.570
225.0, 41690.361999316454, 383.8912110198988, 26650.722521629636, 16137.19953742022, 15779.728088346494, 16192.922436347299, -187500.02235174447, -170033.45281284486, 0.20800000000000002, 0.9480000000000001, -0.056, 192.0, 0.0, 0.0, 0.0, 0.0, 0.0, 0.0, 0.0, 0.0, 0.0, 1.7296904275741463E9, 0.0, 2024-10-23 19:03:47.574
226.0, 41660.27655127961, -387.1769174548289, 26650.543707673995, 16155.639726595848, 15773.603710365738, 16195.53759044857, -187500.02235174447, -170156.83444223815, 0.20800000000000002, 0.9480000000000001, -0.056, 192.0, 0.0, 0.0, 0.0, 0.0, 0.0, 0.0, 0.0, 0.0, 0.0, 1.7296904275771635E9, 0.0, 2024-10-23 19:03:47.577
227.0, 41900.446045451885, -416.1000747799963, 26653.047103052988, 16189.457915956727, 15786.724184361005, 16193.436526469772, -187500.02235174447, -170146.48558455534, 0.20800000000000002, 0.9480000000000001, -0.056, 192.0, 0.0, 0.0, 0.0, 0.0, 0.0, 0.0, 0.0, 0.0, 0.0, 1.729690427580346E9, 0.0, 2024-10-23 19:03:47.580
228.0, 42324.99507963599, 497.1475001749397, 26651.527184430026, 16283.715222324756, 15781.605634880738, 16216.548230236558, -187500.02235174447, -169969.68328591387, 0.20800000000000002, 0.9480000000000001, -0.056, 192.0, 0.0, 0.0, 0.0, 0.0, 0.0, 0.0, 0.0, 0.0, 0.0, 1.7296904275840237E9, 0.0, 2024-10-23 19:03:47.584
229.0, 42219.78541848486, 1059.2268179925463, 26653.56119317546, 16244.957297439254, 15774.833056310781, 16194.06237531452, -187500.02235174447, -169880.11984588145, 0.20800000000000002, 0.9480000000000001, -0.056, 192.0, 0.0, 0.0, 0.0, 0.0, 0.0, 0.0, 0.0, 0.0, 0.0, 1.7296904275915575E9, 0.0, 2024-10-23 19:03:47.591
230.0, 41711.95378446028, 382.6842168193122, 26658.433873466718, 16111.942066185722, 15785.561893649328, 16187.602721166937, -187500.02235174447, -170006.45190554284, 0.214, 0.9420000000000001, -0.052000000000000005, 192.0, 6.0, 176.0, 29.0, 112.0, 254.0, 96.0, 0.0, 0.0, 0.0, 1.7296904275917585E9, 0.0, 2024-10-23 19:03:47.591
231.0, 41694.47472029623, -347.4802193022036, 26654.924649587232, 16127.18595590424, 15776.665899356116, 16197.102212560441, -187500.02235174447, -170106.56536895817, 0.214, 0.9420000000000001, -0.052000000000000005, 192.0, 0.0, 0.0, 0.0, 0.0, 0.0, 0.0, 0.0, 0.0, 0.0, 1.7296904275952399E9, 0.0, 2024-10-23 19:03:47.595
232.0, 41921.836664895614, -386.93104826582055, 26650.007265807068, 16155.237395195652, 15772.910806287624, 16180.58427340797, -187500.02235174447, -170112.17565681646, 0.214, 0.9420000000000001, -0.052000000000000005, 192.0, 0.0, 0.0, 0.0, 0.0, 0.0, 0.0, 0.0, 0.0, 0.0, 1.729690427603063E9, 0.0, 2024-10-23 19:03:47.603
233.0, 42322.71520170155, 488.8773547264761, 26640.954809302668, 16244.59966952797, 15757.286936913364, 16187.267445000107, -187500.02235174447, -169978.24400404026, 0.214, 0.9420000000000001, -0.052000000000000005, 192.0, 0.0, 0.0, 0.0, 0.0, 0.0, 0.0, 0.0, 0.0, 0.0, 1.7296904276030912E9, 0.0, 2024-10-23 19:03:47.603
234.0, 42226.088610421255, 1046.5533788863872, 26638.205544734665, 16217.039968614576, 15749.910861243114, 16185.814581610512, -187500.02235174447, -169904.7514682712, 0.214, 0.9420000000000001, -0.052000000000000005, 192.0, 0.0, 0.0, 0.0, 0.0, 0.0, 0.0, 0.0, 0.0, 0.0, 1.7296904276033597E9, 0.0, 2024-10-23 19:03:47.603
235.0, 41717.20644440728, 384.53941160910273, 26631.634131864805, 16085.969339128655, 15747.340410630753, 16155.460912640205, -187500.02235174447, -170012.35276607904, 0.214, 0.9420000000000001, -0.052000000000000005, 192.0, 0.0, 0.0, 0.0, 0.0, 0.0, 0.0, 0.0, 0.0, 0.0, 1.7296904276072085E9, 0.0, 2024-10-23 19:03:47.607
236.0, 41678.5379264996, -377.7891847836, 26625.9344370287, 16097.078156122943, 15742.065398939301, 16148.218947436686, -187500.02235174447, -170141.0094071638, 0.214, 0.9420000000000001, -0.052000000000000005, 192.0, 0.0, 0.0, 0.0, 0.0, 0.0, 0.0, 0.0, 0.0, 0.0, 1.7296904276114254E9, 0.0, 2024-10-23 19:03:47.611
237.0, 41916.91928111545, -404.58892638551316, 26627.78963181849, 16136.707799042202, 15766.227634695488, 16173.34230820445, -187500.02235174447, -170127.9559884019, 0.214, 0.9420000000000001, -0.052000000000000005, 192.0, 0.0, 0.0, 0.0, 0.0, 0.0, 0.0, 0.0, 0.0, 0.0, 1.729690427616224E9, 0.0, 2024-10-23 19:03:47.616
238.0, 42328.21373083755, 491.91719197239786, 26625.062718994945, 16237.089483390986, 15752.25779441092, 16186.038099055064, -187500.02235174447, -169977.32758251758, 0.214, 0.9420000000000001, -0.052000000000000005, 192.0, 0.0, 0.0, 0.0, 0.0, 0.0, 0.0, 0.0, 0.0, 0.0, 1.729690427620188E9, 0.0, 2024-10-23 19:03:47.620
239.0, 42234.53756982536, 1086.652408439208, 26616.524352613014, 16209.909762133333, 15740.567832060795, 16167.262633712608, -187500.02235174447, -169862.4843195062, 0.214, 0.9420000000000001, -0.052000000000000005, 192.0, 0.0, 0.0, 0.0, 0.0, 0.0, 0.0, 0.0, 0.0, 0.0, 1.7296904276231897E9, 0.0, 2024-10-23 19:03:47.623
240.0, 41707.48343556922, 396.27407744813894, 26622.9840067606, 16083.667109449758, 15764.104218972234, 16172.112962259409, -187500.02235174447, -169986.0671145996, 0.218, 0.9440000000000001, -0.058, 192.0, 6.0, 208.0, 29.0, 128.0, 254.0, 48.0, 0.0, 0.0, 0.0, 1.729690427626231E9, 0.0, 2024-10-23 19:03:47.626
241.0, 41663.048167592075, -373.89998124837655, 26622.782841060503, 16104.230714348641, 15762.316079415808, 16167.463799412704, -187500.02235174447, -170118.83647666415, 0.218, 0.9440000000000001, -0.058, 192.0, 0.0, 0.0, 0.0, 0.0, 0.0, 0.0, 0.0, 0.0, 0.0, 1.7296904276302416E9, 0.0, 2024-10-23 19:03:47.630
242.0, 41888.04082727919, -423.9455370838091, 26621.374681159818, 16144.374447390372, 15763.321907916297, 16172.671755870791, -187500.02235174447, -170122.92684589946, 0.218, 0.9440000000000001, -0.058, 192.0, 0.0, 0.0, 0.0, 0.0, 0.0, 0.0, 0.0, 0.0, 0.0, 1.7296904276342776E9, 0.0, 2024-10-23 19:03:47.634
243.0, 42301.54809970237, 491.87248848348725, 26615.40676539025, 16246.320753851029, 15744.92642222958, 16185.322843232494, -187500.02235174447, -169957.7698061192, 0.218, 0.9440000000000001, -0.058, 192.0, 0.0, 0.0, 0.0, 0.0, 0.0, 0.0, 0.0, 0.0, 0.0, 1.729690427642223E9, 0.0, 2024-10-23 19:03:47.642
244.0, 42207.24608984543, 1082.3385217593338, 26622.626378849316, 16222.471442517215, 15745.30640188532, 16176.762125106112, -187500.02235174447, -169862.05963636158, 0.218, 0.9440000000000001, -0.058, 192.0, 0.0, 0.0, 0.0, 0.0, 0.0, 0.0, 0.0, 0.0, 0.0, 1.7296904276452096E9, 0.0, 2024-10-23 19:03:47.645
245.0, 41681.86833642344, 368.46850734573695, 26643.07822502592, 16101.28028408054, 15779.593977879762, 16182.417116453305, -187500.02235174447, -170016.7337079923, 0.218, 0.9440000000000001, -0.058, 192.0, 0.0, 0.0, 0.0, 0.0, 0.0, 0.0, 0.0, 0.0, 0.0, 1.7296904276482325E9, 0.0, 2024-10-23 19:03:47.648
246.0, 41667.13853682739, -373.8329260150106, 26643.815832592947, 16127.47652858216, 15778.968129035013, 16189.547322934548, -187500.02235174447, -170130.1464593585, 0.218, 0.9440000000000001, -0.058, 192.0, 0.0, 0.0, 0.0, 0.0, 0.0, 0.0, 0.0, 0.0, 0.0, 1.7296904276522524E9, 0.0, 2024-10-23 19:03:47.652
247.0, 41887.794958090184, -436.9542523567978, 26641.066568024944, 16163.06050575501, 15774.49778014395, 16186.820410111, -187500.02235174447, -170140.3165030857, 0.218, 0.9440000000000001, -0.058, 192.0, 0.0, 0.0, 0.0, 0.0, 0.0, 0.0, 0.0, 0.0, 0.0, 1.7296904276552584E9, 0.0, 2024-10-23 19:03:47.655
248.0, 42316.16614057614, 485.7704622471884, 26640.32896045792, 16272.539350097102, 15769.178064963588, 16196.811639882522, -187500.02235174447, -169967.29164925715, 0.218, 0.9440000000000001, -0.058, 192.0, 0.0, 0.0, 0.0, 0.0, 0.0, 0.0, 0.0, 0.0, 0.0, 1.7296904276592467E9, 0.0, 2024-10-23 19:03:47.659
249.0, 42227.02738368838, 1092.240344553035, 26648.308533228465, 16254.12151266593, 15774.654242355138, 16192.63186366938, -187500.02235174447, -169861.97022938373, 0.218, 0.9440000000000001, -0.058, 192.0, 0.0, 0.0, 0.0, 0.0, 0.0, 0.0, 0.0, 0.0, 0.0, 1.7296904276642604E9, 0.0, 2024-10-23 19:03:47.664
250.0, 41691.65840049487, 375.7775277826223, 26653.583544919915, 16118.37936858885, 15781.426820925097, 16173.9681570492, -187500.02235174447, -170015.3255480916, 0.232, 0.962, -0.062, 192.0, 7.0, 64.0, 30.0, 16.0, 254.0, 16.0, 0.0, 0.0, 0.0, 1.7296904276673195E9, 0.0, 2024-10-23 19:03:47.667
251.0, 41667.56321997204, -371.6871585473011, 26651.08014954092, 16142.251031667118, 15787.797068094858, 16195.11290730392, -187500.02235174447, -170136.3155408282, 0.232, 0.962, -0.062, 192.0, 0.0, 0.0, 0.0, 0.0, 0.0, 0.0, 0.0, 0.0, 0.0, 1.729690427672342E9, 0.0, 2024-10-23 19:03:47.672
252.0, 41890.879498825016, -435.6131476894793, 26648.55440241747, 16179.667851885302, 15786.455963427541, 16200.566732951014, -187500.02235174447, -170141.2105728639, 0.232, 0.962, -0.062, 192.0, 0.0, 0.0, 0.0, 0.0, 0.0, 0.0, 0.0, 0.0, 0.0, 1.7296904276783547E9, 0.0, 2024-10-23 19:03:47.678
253.0, 42323.49751275749, 510.5361951036686, 26635.45628016666, 16274.819228031545, 15760.282070670375, 16198.622131183403, -187500.02235174447, -169945.54340190213, 0.232, 0.962, -0.062, 192.0, 0.0, 0.0, 0.0, 0.0, 0.0, 0.0, 0.0, 0.0, 0.0, 1.7296904276813076E9, 0.0, 2024-10-23 19:03:47.681
254.0, 42218.42196207309, 1105.4725772705767, 26642.787652348, 16247.25952711815, 15768.529864374384, 16198.957407350232, -187500.02235174447, -169858.30454329308, 0.232, 0.962, -0.062, 192.0, 0.0, 0.0, 0.0, 0.0, 0.0, 0.0, 0.0, 0.0, 0.0, 1.7296904276853206E9, 0.0, 2024-10-23 19:03:47.685
255.0, 41687.098644625985, 374.0117399706531, 26653.13651003081, 16120.323970356461, 15791.64156814117, 16188.63090141188, -187500.02235174447, -170026.45671683035, 0.232, 0.962, -0.062, 192.0, 0.0, 0.0, 0.0, 0.0, 0.0, 0.0, 0.0, 0.0, 0.0, 1.7296904276892877E9, 0.0, 2024-10-23 19:03:47.689
0.0, 41679.72256895573, -363.0370334430973, 26656.17634727673, 16143.212156678697, 15797.184800766088, 16192.34129099146, -187500.02235174447, -170140.69648274142, 0.232, 0.962, -0.062, 192.0, 0.0, 0.0, 0.0, 0.0, 0.0, 0.0, 0.0, 0.0, 0.0, 1.7296904276924248E9, 0.0, 2024-10-23 19:03:47.692
1.0, 41907.643307166494, -427.0524295630967, 26657.740969388604, 16179.064354785009, 15792.088603030277, 16224.7289687072, -187500.02235174447, -170138.9530466739, 0.232, 0.962, -0.062, 192.0, 0.0, 0.0, 0.0, 0.0, 0.0, 0.0, 0.0, 0.0, 0.0, 1.7296904276973312E9, 0.0, 2024-10-23 19:03:47.697
2.0, 42330.51596051645, 482.77532849017723, 26655.259925754064, 16270.773562285134, 15787.998233794957, 16214.715387191223, -187500.02235174447, -169975.3159255166, 0.232, 0.962, -0.062, 192.0, 0.0, 0.0, 0.0, 0.0, 0.0, 0.0, 0.0, 0.0, 0.0, 1.7296904277013035E9, 0.0, 2024-10-23 19:03:47.701
3.0, 42244.14881994115, 1086.5853532058422, 26656.75749263257, 16242.92328869382, 15790.971015807512, 16213.240172057174, -187500.02235174447, -169873.66019173388, 0.232, 0.962, -0.062, 192.0, 0.0, 0.0, 0.0, 0.0, 0.0, 0.0, 0.0, 0.0, 0.0, 1.729690427706343E9, 0.0, 2024-10-23 19:03:47.706
4.0, 41724.850741010996, 398.5539553825802, 26658.545632188994, 16110.265685351575, 15793.921446075612, 16201.572561451503, -187500.02235174447, -169986.4694459998, 0.23800000000000002, 0.964, -0.054, 192.0, 7.0, 112.0, 30.0, 32.0, 254.0, 80.0, 0.0, 0.0, 0.0, 1.7296904277093644E9, 0.0, 2024-10-23 19:03:47.709
5.0, 41692.0383801506, -345.468562301226, 26649.716693129147, 16126.627162292858, 15778.677556357094, 16198.555075950037, -187500.02235174447, -170114.16496207297, 0.23800000000000002, 0.964, -0.054, 192.0, 0.0, 0.0, 0.0, 0.0, 0.0, 0.0, 0.0, 0.0, 0.0, 1.7296904277133186E9, 0.0, 2024-10-23 19:03:47.713
6.0, 41897.316801228146, -441.0893250810296, 26634.27163771053, 16160.713572587201, 15765.758248061926, 16183.422944953794, -187500.02235174447, -170152.09587241363, 0.23800000000000002, 0.964, -0.054, 192.0, 0.0, 0.0, 0.0, 0.0, 0.0, 0.0, 0.0, 0.0, 0.0, 1.7296904277163248E9, 0.0, 2024-10-23 19:03:47.716
7.0, 42330.962995405556, 507.0046194797301, 26623.07341373842, 16261.184663913808, 15756.21405317951, 16185.076974043486, -187500.02235174447, -169972.63371618197, 0.23800000000000002, 0.964, -0.054, 192.0, 0.0, 0.0, 0.0, 0.0, 0.0, 0.0, 0.0, 0.0, 0.0, 1.7296904277193396E9, 0.0, 2024-10-23 19:03:47.719
8.0, 42228.54730231134, 1116.4249320536771, 26627.02967250701, 16233.870832189421, 15762.427838138085, 16189.837895612467, -187500.02235174447, -169872.38614229992, 0.23800000000000002, 0.964, -0.054, 192.0, 0.0, 0.0, 0.0, 0.0, 0.0, 0.0, 0.0, 0.0, 0.0, 1.729690427723324E9, 0.0, 2024-10-23 19:03:47.723
9.0, 41683.05297887957, 357.1808763958069, 26643.637018637302, 16111.427976063249, 15793.675576886604, 16192.810677625022, -187500.02235174447, -170043.89107750548, 0.23800000000000002, 0.964, -0.054, 192.0, 0.0, 0.0, 0.0, 0.0, 0.0, 0.0, 0.0, 0.0, 0.0, 1.729690427727348E9, 0.0, 2024-10-23 19:03:47.727
10.0, 41670.15602232886, -404.4101124298707, 26642.005341292068, 16139.211194421196, 15786.902998316647, 16196.230494526684, -187500.02235174447, -170184.48355012937, 0.23800000000000002, 0.964, -0.054, 192.0, 0.0, 0.0, 0.0, 0.0, 0.0, 0.0, 0.0, 0.0, 0.0, 1.7296904277313604E9, 0.0, 2024-10-23 19:03:47.731
11.0, 41905.22931876533, -456.6908427108339, 26628.437832407693, 16175.041040783053, 15769.781562063881, 16186.48513394417, -187500.02235174447, -170171.29602090074, 0.23800000000000002, 0.964, -0.054, 192.0, 0.0, 0.0, 0.0, 0.0, 0.0, 0.0, 0.0, 0.0, 0.0, 1.7296904277343822E9, 0.0, 2024-10-23 19:03:47.734
12.0, 42332.88524542871, 506.3340671460709, 26621.821716048922, 16272.628757074925, 15763.031335238378, 16183.579407164982, -187500.02235174447, -169981.5744139641, 0.23800000000000002, 0.964, -0.054, 192.0, 0.0, 0.0, 0.0, 0.0, 0.0, 0.0, 0.0, 0.0, 0.0, 1.7296904277383528E9, 0.0, 2024-10-23 19:03:47.738
13.0, 42227.45206683303, 1107.6406964827415, 26622.380509660306, 16243.795006727578, 15765.445323639551, 16179.556093163026, -187500.02235174447, -169886.49009305122, 0.23800000000000002, 0.964, -0.054, 192.0, 0.0, 0.0, 0.0, 0.0, 0.0, 0.0, 0.0, 0.0, 0.0, 1.729690427742398E9, 0.0, 2024-10-23 19:03:47.742
14.0, 41677.82267067703, 349.7153937477343, 26636.909143556255, 16114.04313016452, 15791.46275418553, 16191.558979935526, -187500.02235174447, -170049.94840025288, 0.242, 0.964, -0.044, 192.0, 7.0, 144.0, 30.0, 32.0, 254.0, 160.0, 0.0, 0.0, 0.0, 1.7296904277484636E9, 0.0, 2024-10-23 19:03:47.748
15.0, 41670.29013279559, -383.73474880871163, 26635.143355744287, 16144.799130535022, 15783.818457581814, 16207.361663265428, -187500.02235174447, -170166.0657126982, 0.242, 0.964, -0.044, 192.0, 0.0, 0.0, 0.0, 0.0, 0.0, 0.0, 0.0, 0.0, 0.0, 1.729690427751377E9, 0.0, 2024-10-23 19:03:47.751
16.0, 41890.56657440264, -454.4333165208479, 26629.913047541744, 16179.332575718472, 15770.429762653086, 16199.784421895078, -187500.02235174447, -170174.20174767994, 0.242, 0.964, -0.044, 192.0, 0.0, 0.0, 0.0, 0.0, 0.0, 0.0, 0.0, 0.0, 0.0, 1.729690427755366E9, 0.0, 2024-10-23 19:03:47.755
17.0, 42316.3896580207, 492.49833732823583, 26626.64969285127, 16277.926120510832, 15763.746591060948, 16207.205201054241, -187500.02235174447, -170004.1720276084, 0.242, 0.964, -0.044, 192.0, 0.0, 0.0, 0.0, 0.0, 0.0, 0.0, 0.0, 0.0, 0.0, 1.729690427759421E9, 0.0, 2024-10-23 19:03:47.759
18.0, 42223.428752831074, 1095.0343126099483, 26635.970370289135, 16255.730838266712, 15775.280091199887, 16197.035157327076, -187500.02235174447, -169900.19171240233, 0.242, 0.964, -0.044, 192.0, 0.0, 0.0, 0.0, 0.0, 0.0, 0.0, 0.0, 0.0, 0.0, 1.7296904277623708E9, 0.0, 2024-10-23 19:03:47.762
19.0, 41691.94897317278, 358.8349054854996, 26652.600068163883, 16124.637857036336, 15794.45788794254, 16169.162531991307, -187500.02235174447, -170027.57430405312, 0.242, 0.964, -0.044, 192.0, 0.0, 0.0, 0.0, 0.0, 0.0, 0.0, 0.0, 0.0, 0.0, 1.729690427766402E9, 0.0, 2024-10-23 19:03:47.766
20.0, 41688.417397548845, -352.35289959346056, 26653.807062364467, 16150.43177013776, 15800.69402464557, 16197.795116638556, -187500.02235174447, -170122.9491976439, 0.242, 0.964, -0.044, 192.0, 0.0, 0.0, 0.0, 0.0, 0.0, 0.0, 0.0, 0.0, 0.0, 1.7296904277704375E9, 0.0, 2024-10-23 19:03:47.770
21.0, 41901.60833616356, -425.15253128439565, 26656.399864721283, 16185.814581610512, 15801.096356045766, 16218.626942470903, -187500.02235174447, -170134.19212510492, 0.242, 0.964, -0.044, 192.0, 0.0, 0.0, 0.0, 0.0, 0.0, 0.0, 0.0, 0.0, 0.0, 1.7296904277774603E9, 0.0, 2024-10-23 19:03:47.777
22.0, 42324.257472068966, 528.2164249678165, 26642.206506992163, 16274.372193142439, 15773.491951643462, 16184.719346132202, -187500.02235174447, -169958.99915206424, 0.242, 0.964, -0.044, 192.0, 0.0, 0.0, 0.0, 0.0, 0.0, 0.0, 0.0, 0.0, 0.0, 1.7296904277814193E9, 0.0, 2024-10-23 19:03:47.781
23.0, 42218.15374113962, 1111.5075482735097, 26650.02961755152, 16245.426684072816, 15780.733916846983, 16181.277177486085, -187500.02235174447, -169857.7457496817, 0.242, 0.964, -0.044, 192.0, 0.0, 0.0, 0.0, 0.0, 0.0, 0.0, 0.0, 0.0, 0.0, 1.729690427784428E9, 0.0, 2024-10-23 19:03:47.784
24.0, 41689.87026093844, 350.54240829258066, 26675.89058588631, 16130.203441405707, 15814.976789352511, 16220.9291721498, -187500.02235174447, -169998.33822230558, 0.232, 0.962, -0.036000000000000004, 192.0, 7.0, 64.0, 30.0, 16.0, 254.0, 224.0, 0.0, 0.0, 0.0, 1.7296904277874296E9, 0.0, 2024-10-23 19:03:47.787
25.0, 41697.46985405324, -360.3324723640052, 26681.590280722416, 16164.736886589157, 15809.0312253274, 16235.681323490302, -187500.02235174447, -170100.23982527733, 0.232, 0.962, -0.036000000000000004, 192.0, 0.0, 0.0, 0.0, 0.0, 0.0, 0.0, 0.0, 0.0, 0.0, 1.7296904277914429E9, 0.0, 2024-10-23 19:03:47.791
26.0, 41915.6452316815, -426.6724499073565, 26670.70498117268, 16190.91077934632, 15782.186780236576, 16208.322788277006, -187500.02235174447, -170122.52451449927, 0.232, 0.962, -0.036000000000000004, 192.0, 0.0, 0.0, 0.0, 0.0, 0.0, 0.0, 0.0, 0.0, 0.0, 1.729690427794468E9, 0.0, 2024-10-23 19:03:47.794
27.0, 42342.563550777864, 535.5030936602466, 26658.9926670781, 16281.882379279421, 15766.987594006969, 16199.24798002815, -187500.02235174447, -169948.40442519242, 0.232, 0.962, -0.036000000000000004, 192.0, 0.0, 0.0, 0.0, 0.0, 0.0, 0.0, 0.0, 0.0, 0.0, 1.7296904277984188E9, 0.0, 2024-10-23 19:03:47.798
28.0, 42225.93214821007, 1091.9050683862054, 26662.256021768575, 16243.45973056075, 15778.208169723532, 16198.286855016573, -187500.02235174447, -169845.7428629092, 0.232, 0.962, -0.036000000000000004, 192.0, 0.0, 0.0, 0.0, 0.0, 0.0, 0.0, 0.0, 0.0, 0.0, 1.7296904278024905E9, 0.0, 2024-10-23 19:03:47.802
29.0, 41685.17639460282, 299.4910239566593, 26670.347353261397, 16112.389101074828, 15790.74749836296, 16200.812602140022, -187500.02235174447, -170004.23908284178, 0.232, 0.962, -0.036000000000000004, 192.0, 0.0, 0.0, 0.0, 0.0, 0.0, 0.0, 0.0, 0.0, 0.0, 1.729690427806454E9, 0.0, 2024-10-23 19:03:47.806
30.0, 41702.78956923361, -403.80661532957737, 26672.582527706927, 16143.256860167607, 15793.31794897532, 16204.25477078614, -187500.02235174447, -170111.05806959368, 0.232, 0.962, -0.036000000000000004, 192.0, 0.0, 0.0, 0.0, 0.0, 0.0, 0.0, 0.0, 0.0, 0.0, 1.729690427810486E9, 0.0, 2024-10-23 19:03:47.810
31.0, 41953.91141818898, -401.70555135077853, 26661.853690368378, 16177.835008839967, 15773.603710365738, 16197.146916049353, -187500.02235174447, -170084.28067973623, 0.232, 0.962, -0.036000000000000004, 192.0, 0.0, 0.0, 0.0, 0.0, 0.0, 0.0, 0.0, 0.0, 0.0, 1.72969042781449E9, 0.0, 2024-10-23 19:03:47.814
32.0, 42358.25447538549, 580.5642104821457, 26650.968390818645, 16266.50437909417, 15766.138227717665, 16197.705709660735, -187500.02235174447, -169894.44731407732, 0.232, 0.962, -0.036000000000000004, 192.0, 0.0, 0.0, 0.0, 0.0, 0.0, 0.0, 0.0, 0.0, 0.0, 1.7296904278184438E9, 0.0, 2024-10-23 19:03:47.818
33.0, 42204.94386016654, 1066.3793762182447, 26652.80123386398, 16226.807680941545, 15765.780599806381, 16187.759183378123, -187500.02235174447, -169808.8848363024, 0.232, 0.962, -0.036000000000000004, 192.0, 0.0, 0.0, 0.0, 0.0, 0.0, 0.0, 0.0, 0.0, 0.0, 1.7296904278225E9, 0.0, 2024-10-23 19:03:47.822
34.0, 41676.816842176544, 257.11211646939717, 26648.241477995096, 16097.860467178878, 15751.296669399342, 16171.844741325946, -187500.02235174447, -169965.50350970073, 0.222, 0.962, -0.038, 192.0, 6.0, 240.0, 30.0, 16.0, 254.0, 208.0, 0.0, 0.0, 0.0, 1.7296904278275177E9, 0.0, 2024-10-23 19:03:47.827
35.0, 41713.67486878334, -394.5976966139909, 26638.31730345694, 16129.912868727788, 15747.675686797582, 16164.826293566979, -187500.02235174447, -170046.97561824034, 0.222, 0.962, -0.038, 192.0, 0.0, 0.0, 0.0, 0.0, 0.0, 0.0, 0.0, 0.0, 0.0, 1.7296904278314948E9, 0.0, 2024-10-23 19:03:47.831
36.0, 41967.143650906524, -361.6512252868683, 26650.789576863, 16181.567750164004, 15775.391849922164, 16182.998261809144, -187500.02235174447, -170043.26522866075, 0.222, 0.962, -0.038, 192.0, 0.0, 0.0, 0.0, 0.0, 0.0, 0.0, 0.0, 0.0, 0.0, 1.72969042783454E9, 0.0, 2024-10-23 19:03:47.834
37.0, 42364.177687666146, 621.6243650465448, 26646.69920762768, 16277.523789110637, 15767.50168412944, 16198.465668972216, -187500.02235174447, -169884.14315988342, 0.222, 0.962, -0.038, 192.0, 0.0, 0.0, 0.0, 0.0, 0.0, 0.0, 0.0, 0.0, 0.0, 1.7296904278385477E9, 0.0, 2024-10-23 19:03:47.838
38.0, 42175.81953714127, 1017.2949453943903, 26648.666161139747, 16232.865003688934, 15770.094486486256, 16192.073070057997, -187500.02235174447, -169809.39892642485, 0.222, 0.962, -0.038, 192.0, 0.0, 0.0, 0.0, 0.0, 0.0, 0.0, 0.0, 0.0, 0.0, 1.7296904278424945E9, 0.0, 2024-10-23 19:03:47.842
39.0, 41668.25612405016, 188.0005226135877, 26659.28323975602, 16117.708816255192, 15784.779582593392, 16187.088631044464, -187500.02235174447, -169964.74355038925, 0.222, 0.962, -0.038, 192.0, 0.0, 0.0, 0.0, 0.0, 0.0, 0.0, 0.0, 0.0, 0.0, 1.7296904278465266E9, 0.0, 2024-10-23 19:03:47.846
40.0, 41715.910043228876, -446.2302263057502, 26658.567983933448, 16152.823406794478, 15780.756268591436, 16188.765011878611, -187500.02235174447, -170053.65878983247, 0.222, 0.962, -0.038, 192.0, 0.0, 0.0, 0.0, 0.0, 0.0, 0.0, 0.0, 0.0, 0.0, 1.729690427850746E9, 0.0, 2024-10-23 19:03:47.850
41.0, 41983.2592586588, -368.9602457237537, 26651.482480941115, 16196.610474182426, 15769.893320786157, 16188.563846178515, -187500.02235174447, -170038.57136232514, 0.222, 0.962, -0.038, 192.0, 0.0, 0.0, 0.0, 0.0, 0.0, 0.0, 0.0, 0.0, 0.0, 1.729690427855539E9, 0.0, 2024-10-23 19:03:47.855
42.0, 42357.36040560727, 639.4610571218798, 26641.468899425137, 16275.668594320847, 15756.392867135153, 16176.091572772453, -187500.02235174447, -169857.2316595592, 0.222, 0.962, -0.038, 192.0, 0.0, 0.0, 0.0, 0.0, 0.0, 0.0, 0.0, 0.0, 0.0, 1.7296904278605564E9, 0.0, 2024-10-23 19:03:47.860
43.0, 42143.76713559236, 982.5826862552984, 26647.839146594903, 16222.985532639686, 15765.825303295293, 16171.10713375892, -187500.02235174447, -169796.41256289632, 0.222, 0.962, -0.038, 192.0, 0.0, 0.0, 0.0, 0.0, 0.0, 0.0, 0.0, 0.0, 0.0, 1.729690427864546E9, 0.0, 2024-10-23 19:03:47.864
44.0, 41646.753745884154, 161.84898160087843, 26662.345428746397, 16118.468775566671, 15779.593977879762, 16205.707634175735, -187500.02235174447, -169934.6581023524, 0.218, 0.968, -0.042, 192.0, 6.0, 208.0, 30.0, 64.0, 254.0, 176.0, 0.0, 0.0, 0.0, 1.7296904278675232E9, 0.0, 2024-10-23 19:03:47.867
45.0, 41707.371676846946, -451.25936880819427, 26665.36291424786, 16159.57363361998, 15779.616329624216, 16195.559942193026, -187500.02235174447, -170021.3381673501, 0.218, 0.968, -0.042, 192.0, 0.0, 0.0, 0.0, 0.0, 0.0, 0.0, 0.0, 0.0, 0.0, 1.7296904278736448E9, 0.0, 2024-10-23 19:03:47.873
46.0, 41985.09210170413, -349.51422804763655, 26668.26864102705, 16205.417061497816, 15782.566759892317, 16198.44331722776, -187500.02235174447, -169994.53842574818, 0.218, 0.968, -0.042, 192.0, 0.0, 0.0, 0.0, 0.0, 0.0, 0.0, 0.0, 0.0, 0.0, 1.7296904278765428E9, 0.0, 2024-10-23 19:03:47.876
47.0, 42351.70541426008, 641.4056588894915, 26661.786635135013, 16287.671481093346, 15766.227634695488, 16199.292683517062, -187500.02235174447, -169825.51453417714, 0.218, 0.968, -0.042, 192.0, 0.0, 0.0, 0.0, 0.0, 0.0, 0.0, 0.0, 0.0, 0.0, 1.7296904278806405E9, 0.0, 2024-10-23 19:03:47.880
48.0, 42131.093696486205, 957.2805115318909, 26664.021809580543, 16238.184718869295, 15769.155713219132, 16204.478288230694, -187500.02235174447, -169765.29893461455, 0.218, 0.968, -0.042, 192.0, 0.0, 0.0, 0.0, 0.0, 0.0, 0.0, 0.0, 0.0, 0.0, 1.7296904278845487E9, 0.0, 2024-10-23 19:03:47.884
49.0, 41632.202760243745, 114.97737347809954, 26667.776902649035, 16123.453214580204, 15781.292710458365, 16214.022483113109, -187500.02235174447, -169915.5473608431, 0.218, 0.968, -0.042, 192.0, 0.0, 0.0, 0.0, 0.0, 0.0, 0.0, 0.0, 0.0, 0.0, 1.7296904278915763E9, 0.0, 2024-10-23 19:03:47.891
50.0, 41720.223929908745, -448.7559734291999, 26666.167577048254, 16167.262633712608, 15793.07207978631, 16234.608439756446, -187500.02235174447, -169972.9689923488, 0.218, 0.968, -0.042, 192.0, 0.0, 0.0, 0.0, 0.0, 0.0, 0.0, 0.0, 0.0, 0.0, 1.7296904278957088E9, 0.0, 2024-10-23 19:03:47.895
51.0, 41997.09498847664, -324.25675681313953, 26669.65444918328, 16212.323750534506, 15790.41222219613, 16226.584163496991, -187500.02235174447, -169943.59880013452, 0.218, 0.968, -0.042, 192.0, 0.0, 0.0, 0.0, 0.0, 0.0, 0.0, 0.0, 0.0, 0.0, 1.7296904278986974E9, 0.0, 2024-10-23 19:03:47.898
52.0, 42344.55285603438, 651.5309991277455, 26659.573812433937, 16286.978577015232, 15772.352012676241, 16221.197393083263, -187500.02235174447, -169797.7313158192, 0.218, 0.968, -0.042, 192.0, 0.0, 0.0, 0.0, 0.0, 0.0, 0.0, 0.0, 0.0, 0.0, 1.7296904279016182E9, 0.0, 2024-10-23 19:03:47.901
53.0, 42116.36389689015, 942.9753950804943, 26655.75166413208, 16227.411178041839, 15770.87679754219, 16197.839820127467, -187500.02235174447, -169753.49721354214, 0.218, 0.968, -0.042, 192.0, 0.0, 0.0, 0.0, 0.0, 0.0, 0.0, 0.0, 0.0, 0.0, 1.7296904279056067E9, 0.0, 2024-10-23 19:03:47.905
54.0, 41626.972452041206, 102.2145273941192, 26656.51162344356, 16106.130612627341, 15773.849579554748, 16178.997299551644, -187500.02235174447, -169901.62222404746, 0.20400000000000001, 0.9500000000000001, -0.042, 192.0, 6.0, 96.0, 29.0, 176.0, 254.0, 176.0, 0.0, 0.0, 0.0, 1.7296904279086015E9, 0.0, 2024-10-23 19:03:47.908
55.0, 41702.65545876687, -484.4517093243253, 26651.88481234131, 16148.040133481043, 15766.272338184399, 16203.15953530783, -187500.02235174447, -169993.9796321368, 0.20400000000000001, 0.9500000000000001, -0.042, 192.0, 0.0, 0.0, 0.0, 0.0, 0.0, 0.0, 0.0, 0.0, 0.0, 1.7296904279126337E9, 0.0, 2024-10-23 19:03:47.912
56.0, 41986.94729649393, -367.70854803425647, 26641.692416869693, 16194.755279392635, 15751.341372888253, 16209.507430733138, -187500.02235174447, -169978.4675214848, 0.20400000000000001, 0.9500000000000001, -0.042, 192.0, 0.0, 0.0, 0.0, 0.0, 0.0, 0.0, 0.0, 0.0, 0.0, 1.7296904279156232E9, 0.0, 2024-10-23 19:03:47.915
57.0, 42352.063042171365, 638.902263510497, 26634.22693422162, 16271.868797763444, 15735.270468624887, 16195.20231428174, -187500.02235174447, -169802.89456878838, 0.20400000000000001, 0.9500000000000001, -0.042, 192.0, 0.0, 0.0, 0.0, 0.0, 0.0, 0.0, 0.0, 0.0, 0.0, 1.729690427919736E9, 0.0, 2024-10-23 19:03:47.919
58.0, 42131.04899299729, 938.3262322337905, 26642.65354188127, 16219.92334364931, 15755.699963057037, 16187.848590355945, -187500.02235174447, -169751.70907398572, 0.20400000000000001, 0.9500000000000001, -0.042, 192.0, 0.0, 0.0, 0.0, 0.0, 0.0, 0.0, 0.0, 0.0, 0.0, 1.7296904279227772E9, 0.0, 2024-10-23 19:03:47.922
59.0, 41645.8820278504, 103.06389368342087, 26649.00143730658, 16101.749670714102, 15769.960376019524, 16177.05269778403, -187500.02235174447, -169890.51340705316, 0.20400000000000001, 0.9500000000000001, -0.042, 192.0, 0.0, 0.0, 0.0, 0.0, 0.0, 0.0, 0.0, 0.0, 0.0, 1.72969042792962E9, 0.0, 2024-10-23 19:03:47.929
60.0, 41723.666098554866, -471.7335667292556, 26639.92662905772, 16131.343380372928, 15757.197529935544, 16163.194616221741, -187500.02235174447, -169974.10893131603, 0.20400000000000001, 0.9500000000000001, -0.042, 192.0, 0.0, 0.0, 0.0, 0.0, 0.0, 0.0, 0.0, 0.0, 0.0, 1.729690427932667E9, 0.0, 2024-10-23 19:03:47.932
61.0, 41992.959915752406, -362.6347020429018, 26624.995663761576, 16166.077991256476, 15730.911878456101, 16155.77383706258, -187500.02235174447, -169961.07786429857, 0.20400000000000001, 0.9500000000000001, -0.042, 192.0, 0.0, 0.0, 0.0, 0.0, 0.0, 0.0, 0.0, 0.0, 0.0, 1.7296904279356992E9, 0.0, 2024-10-23 19:03:47.935
62.0, 42355.16993465066, 629.0227924612514, 26626.381471917808, 16249.584108541503, 15740.992515205446, 16171.420058181295, -187500.02235174447, -169789.4835221152, 0.20400000000000001, 0.9500000000000001, -0.042, 192.0, 0.0, 0.0, 0.0, 0.0, 0.0, 0.0, 0.0, 0.0, 0.0, 1.729690427939659E9, 0.0, 2024-10-23 19:03:47.939
63.0, 42138.00038552289, 946.2387497709692, 26635.433928422204, 16203.96419810822, 15759.700925314537, 16192.833029369478, -187500.02235174447, -169726.3174922845, 0.20400000000000001, 0.9500000000000001, -0.042, 192.0, 0.0, 0.0, 0.0, 0.0, 0.0, 0.0, 0.0, 0.0, 0.0, 1.729690427943752E9, 0.0, 2024-10-23 19:03:47.943
64.0, 41640.96464407023, 109.188271664175, 26633.35521618786, 16086.61753971786, 15764.663012583616, 16186.574540921993, -187500.02235174447, -169866.12765385243, 0.198, 0.9440000000000001, -0.04, 192.0, 6.0, 48.0, 29.0, 128.0, 254.0, 192.0, 0.0, 0.0, 0.0, 1.729690427948639E9, 0.0, 2024-10-23 19:03:47.948
65.0, 41708.913947214365, -480.0484156666298, 26631.12004174233, 16128.392950104828, 15751.408428121618, 16180.561921663515, -187500.02235174447, -169951.0642827826, 0.198, 0.9440000000000001, -0.04, 192.0, 0.0, 0.0, 0.0, 0.0, 0.0, 0.0, 0.0, 0.0, 0.0, 1.7296904279527392E9, 0.0, 2024-10-23 19:03:47.952
66.0, 41986.90259300501, -378.8397167729994, 26625.59916086187, 16170.77185759209, 15745.30640188532, 16156.980831263165, -187500.02235174447, -169927.0138057487, 0.198, 0.9440000000000001, -0.04, 192.0, 0.0, 0.0, 0.0, 0.0, 0.0, 0.0, 0.0, 0.0, 0.0, 1.7296904279556808E9, 0.0, 2024-10-23 19:03:47.955
67.0, 42356.66750152916, 636.2647576647709, 26632.8858295543, 16262.16814066984, 15760.326774159286, 16206.221724298208, -187500.02235174447, -169732.3748150319, 0.198, 0.9440000000000001, -0.04, 192.0, 0.0, 0.0, 0.0, 0.0, 0.0, 0.0, 0.0, 0.0, 0.0, 1.729690427958674E9, 0.0, 2024-10-23 19:03:47.958
68.0, 42131.40662090857, 953.503066718944, 26637.870268567833, 16215.385939524884, 15762.584300349272, 16209.10509933294, -187500.02235174447, -169683.13392199684, 0.198, 0.9440000000000001, -0.04, 192.0, 0.0, 0.0, 0.0, 0.0, 0.0, 0.0, 0.0, 0.0, 0.0, 1.7296904279627671E9, 0.0, 2024-10-23 19:03:47.962
69.0, 41615.46130364672, 73.17961134667533, 26648.219126250642, 16105.013025404576, 15780.197474980054, 16213.866020901922, -187500.02235174447, -169867.088778864, 0.198, 0.9440000000000001, -0.04, 192.0, 0.0, 0.0, 0.0, 0.0, 0.0, 0.0, 0.0, 0.0, 0.0, 1.729690427966918E9, 0.0, 2024-10-23 19:03:47.966
70.0, 41702.76721748915, -496.1863751633615, 26649.78374836251, 16152.66694458329, 15781.024489524902, 16215.765919180623, -187500.02235174447, -169934.74750933022, 0.198, 0.9440000000000001, -0.04, 192.0, 0.0, 0.0, 0.0, 0.0, 0.0, 0.0, 0.0, 0.0, 0.0, 1.729690427971678E9, 0.0, 2024-10-23 19:03:47.971
71.0, 41976.91136323349, -396.0058565146752, 26648.17442276173, 16198.331558505484, 15767.92636727409, 16196.051680571043, -187500.02235174447, -169910.71938404077, 0.198, 0.9440000000000001, -0.04, 192.0, 0.0, 0.0, 0.0, 0.0, 0.0, 0.0, 0.0, 0.0, 0.0, 1.729690427974796E9, 0.0, 2024-10-23 19:03:47.974
72.0, 42339.16608562066, 609.3532573405812, 26642.02769303652, 16273.165198941851, 15764.64066083916, 16184.406421709828, -187500.02235174447, -169728.6644254523, 0.198, 0.9440000000000001, -0.04, 192.0, 0.0, 0.0, 0.0, 0.0, 0.0, 0.0, 0.0, 0.0, 0.0, 1.7296904279787989E9, 0.0, 2024-10-23 19:03:47.978
73.0, 42130.2443301969, 952.4301829850892, 26647.392111705794, 16225.421872785315, 15763.88070152768, 16199.672663172802, -187500.02235174447, -169657.18354668422, 0.198, 0.9440000000000001, -0.04, 192.0, 0.0, 0.0, 0.0, 0.0, 0.0, 0.0, 0.0, 0.0, 0.0, 1.7296904279827316E9, 0.0, 2024-10-23 19:03:47.982
74.0, 41626.77128634111, 100.15816690423095, 26658.344466488896, 16114.959551687189, 15783.997271537457, 16215.944733136266, -187500.02235174447, -169810.71767934773, 0.20800000000000002, 0.9480000000000001, -0.048, 192.0, 6.0, 128.0, 29.0, 160.0, 254.0, 128.0, 0.0, 0.0, 0.0, 1.7296904279868011E9, 0.0, 2024-10-23 19:03:47.986
75.0, 41706.09762741299, -474.7957557196326, 26662.50189095758, 16155.975002762676, 15795.374309465207, 16215.363587780428, -187500.02235174447, -169888.14412214092, 0.20800000000000002, 0.9480000000000001, -0.048, 192.0, 0.0, 0.0, 0.0, 0.0, 0.0, 0.0, 0.0, 0.0, 0.0, 1.729690427992824E9, 0.0, 2024-10-23 19:03:47.992
76.0, 41979.01242721229, -388.3168564220496, 26661.496062457092, 16202.466631229716, 15789.27228322891, 16216.659988958836, -187500.02235174447, -169875.06835163455, 0.20800000000000002, 0.9480000000000001, -0.048, 192.0, 0.0, 0.0, 0.0, 0.0, 0.0, 0.0, 0.0, 0.0, 0.0, 1.72969042799575E9, 0.0, 2024-10-23 19:03:47.995
77.0, 42355.30404511739, 650.9498537719076, 26650.946039074188, 16284.497533380692, 15775.369498177708, 16208.121622576908, -187500.02235174447, -169652.22145941516, 0.20800000000000002, 0.9480000000000001, -0.048, 192.0, 0.0, 0.0, 0.0, 0.0, 0.0, 0.0, 0.0, 0.0, 0.0, 1.729690428000342E9, 0.0, 2024-10-23 19:03:48.000
78.0, 42133.57474012074, 984.7955089563739, 26649.895507084788, 16234.720198478724, 15772.12849523169, 16201.460802729227, -187500.02235174447, -169596.0291738545, 0.20800000000000002, 0.9480000000000001, -0.048, 192.0, 0.0, 0.0, 0.0, 0.0, 0.0, 0.0, 0.0, 0.0, 0.0, 1.7296904280028973E9, 0.0, 2024-10-23 19:03:48.002
79.0, 41623.753800839644, 113.94919323315541, 26654.343504231394, 16119.049920922509, 15785.003100037946, 16205.484116731182, -187500.02235174447, -169769.41165559433, 0.20800000000000002, 0.9480000000000001, -0.048, 192.0, 0.0, 0.0, 0.0, 0.0, 0.0, 0.0, 0.0, 0.0, 0.0, 1.729690428006921E9, 0.0, 2024-10-23 19:03:48.006
80.0, 41699.05682790957, -488.16209890390627, 26657.40569322177, 16164.58042437797, 15781.516227902917, 16225.511279763137, -187500.02235174447, -169880.63393600393, 0.20800000000000002, 0.9480000000000001, -0.048, 192.0, 0.0, 0.0, 0.0, 0.0, 0.0, 0.0, 0.0, 0.0, 0.0, 1.729690428017033E9, 0.0, 2024-10-23 19:03:48.017
81.0, 41987.573145338676, -390.68614133431214, 26650.744873374093, 16223.052587873053, 15769.245120196954, 16244.756131739156, -187500.02235174447, -169852.51544147916, 0.20800000000000002, 0.9480000000000001, -0.048, 192.0, 0.0, 0.0, 0.0, 0.0, 0.0, 0.0, 0.0, 0.0, 0.0, 1.7296904280222688E9, 0.0, 2024-10-23 19:03:48.022
82.0, 42350.69958575959, 616.5952225441006, 26648.710864628658, 16308.413899947871, 15769.826265552792, 16245.985477684198, -187500.02235174447, -169657.40706412878, 0.20800000000000002, 0.9480000000000001, -0.048, 192.0, 0.0, 0.0, 0.0, 0.0, 0.0, 0.0, 0.0, 0.0, 0.0, 1.7296904280223005E9, 0.0, 2024-10-23 19:03:48.022
83.0, 42128.47854238493, 923.1941012375476, 26659.730274645124, 16259.329469124017, 15790.166353007122, 16240.419893314827, -187500.02235174447, -169623.47711604563, 0.20800000000000002, 0.9480000000000001, -0.048, 192.0, 0.0, 0.0, 0.0, 0.0, 0.0, 0.0, 0.0, 0.0, 0.0, 1.729690428024766E9, 0.0, 2024-10-23 19:03:48.024
84.0, 41626.480713663186, 55.275864037974365, 26662.457187468674, 16138.585345576448, 15796.715414132526, 16215.050663358053, -187500.02235174447, -169792.05397272753, 0.20800000000000002, 0.9480000000000001, -0.048, 192.0, 0.0, 0.0, 0.0, 0.0, 0.0, 0.0, 0.0, 0.0, 0.0, 1.729690428027786E9, 0.0, 2024-10-23 19:03:48.027
85.0, 41719.531025830634, -488.9667617042973, 26652.734178630613, 16180.852494341434, 15785.36072794923, 16215.16242208033, -187500.02235174447, -169860.60677297198, 0.234, 0.9560000000000001, -0.048, 192.0, 7.0, 80.0, 29.0, 224.0, 254.0, 128.0, 0.0, 0.0, 0.0, 1.7296904280309484E9, 0.0, 2024-10-23 19:03:48.030
86.0, 41991.194127940435, -379.33145515101614, 26645.738082616102, 16218.403425026348, 15772.955509776535, 16204.858267886433, -187500.02235174447, -169833.00236856967, 0.234, 0.9560000000000001, -0.048, 192.0, 0.0, 0.0, 0.0, 0.0, 0.0, 0.0, 0.0, 0.0, 0.0, 1.729690428034836E9, 0.0, 2024-10-23 19:03:48.034
87.0, 42342.34003333331, 626.3182313821592, 26635.635094122303, 16295.695757352802, 15756.348163646242, 16221.398558783361, -187500.02235174447, -169650.9474099812, 0.234, 0.9560000000000001, -0.048, 192.0, 0.0, 0.0, 0.0, 0.0, 0.0, 0.0, 0.0, 0.0, 0.0, 1.72969042803878E9, 0.0, 2024-10-23 19:03:48.038
88.0, 42123.51645511585, 952.3631277517234, 26643.257038981563, 16249.293535863584, 15767.300518429342, 16219.409253526837, -187500.02235174447, -169605.97570013712, 0.234, 0.9560000000000001, -0.048, 192.0, 0.0, 0.0, 0.0, 0.0, 0.0, 0.0, 0.0, 0.0, 0.0, 1.729690428042778E9, 0.0, 2024-10-23 19:03:48.042
89.0, 41617.540015881066, 66.29527405444075, 26660.8925653568, 16133.869127496378, 15790.50162917395, 16197.549247449548, -187500.02235174447, -169787.6730308143, 0.234, 0.9560000000000001, -0.048, 192.0, 0.0, 0.0, 0.0, 0.0, 0.0, 0.0, 0.0, 0.0, 0.0, 1.729690428046825E9, 0.0, 2024-10-23 19:03:48.046
90.0, 41707.32697335804, -493.88414548446485, 26655.885774598813, 16176.270386728096, 15791.373347207707, 16210.02152085561, -187500.02235174447, -169861.5455462391, 0.234, 0.9560000000000001, -0.048, 192.0, 0.0, 0.0, 0.0, 0.0, 0.0, 0.0, 0.0, 0.0, 0.0, 1.729690428053942E9, 0.0, 2024-10-23 19:03:48.053
91.0, 41980.17471792397, -397.5034233931808, 26653.024751308534, 16221.666779716825, 15791.686271630082, 16217.554058737047, -187500.02235174447, -169830.81189761305, 0.234, 0.9560000000000001, -0.048, 192.0, 0.0, 0.0, 0.0, 0.0, 0.0, 0.0, 0.0, 0.0, 0.0, 1.7296904280580516E9, 0.0, 2024-10-23 19:03:48.058
92.0, 42332.57232100634, 595.0928443780953, 26651.169556518744, 16301.70837661128, 15780.510399402428, 16222.516146006126, -187500.02235174447, -169652.57908732642, 0.234, 0.9560000000000001, -0.048, 192.0, 0.0, 0.0, 0.0, 0.0, 0.0, 0.0, 0.0, 0.0, 0.0, 1.7296904280608737E9, 0.0, 2024-10-23 19:03:48.060
93.0, 42120.186045192015, 922.8364733262626, 26654.9917048206, 16254.143864410386, 15786.32185296081, 16219.521012249115, -187500.02235174447, -169599.538397734, 0.234, 0.9560000000000001, -0.048, 192.0, 0.0, 0.0, 0.0, 0.0, 0.0, 0.0, 0.0, 0.0, 0.0, 1.729690428063872E9, 0.0, 2024-10-23 19:03:48.063
94.0, 41630.325213709504, 79.66161723871437, 26655.595201920893, 16135.076121696964, 15789.920483818112, 16210.423852255804, -187500.02235174447, -169726.42925100678, 0.234, 0.9560000000000001, -0.048, 192.0, 0.0, 0.0, 0.0, 0.0, 0.0, 0.0, 0.0, 0.0, 0.0, 1.7296904280679457E9, 0.0, 2024-10-23 19:03:48.067
95.0, 41721.2968136426, -466.39149980443716, 26657.159824032766, 16176.382145450372, 15787.752364605949, 16209.954465622242, -187500.02235174447, -169795.04910648457, 0.24, 0.974, -0.05, 192.0, 7.0, 128.0, 30.0, 112.0, 254.0, 112.0, 0.0, 0.0, 0.0, 1.7296904280709355E9, 0.0, 2024-10-23 19:03:48.070
96.0, 41995.0609797312, -372.62593181442406, 26656.98101007712, 16225.108948362942, 15781.98561453648, 16205.327654519995, -187500.02235174447, -169778.03942895407, 0.24, 0.974, -0.05, 192.0, 0.0, 0.0, 0.0, 0.0, 0.0, 0.0, 0.0, 0.0, 0.0, 1.7296904280748343E9, 0.0, 2024-10-23 19:03:48.074
97.0, 42350.83369622633, 635.4153913754692, 26646.162765760753, 16305.999911546698, 15760.036201481367, 16221.197393083263, -187500.02235174447, -169597.6832029442, 0.24, 0.974, -0.05, 192.0, 0.0, 0.0, 0.0, 0.0, 0.0, 0.0, 0.0, 0.0, 0.0, 1.7296904280788548E9, 0.0, 2024-10-23 19:03:48.078
98.0, 42136.48046689993, 971.630331472198, 26644.016998293046, 16258.345992367984, 15766.764076562415, 16212.904895890344, -187500.02235174447, -169542.1167662283, 0.24, 0.974, -0.05, 192.0, 0.0, 0.0, 0.0, 0.0, 0.0, 0.0, 0.0, 0.0, 0.0, 1.7296904280838828E9, 0.0, 2024-10-23 19:03:48.083
99.0, 41634.19206550027, 99.44291108166112, 26670.168539305752, 16145.961421246699, 15814.663864930139, 16213.374282523906, -187500.02235174447, -169685.86083482037, 0.24, 0.974, -0.05, 192.0, 0.0, 0.0, 0.0, 0.0, 0.0, 0.0, 0.0, 0.0, 0.0, 1.7296904280868459E9, 0.0, 2024-10-23 19:03:48.086
100.0, 41716.96057521827, -473.4993545412248, 26678.215167309663, 16189.59202642346, 15814.440347485584, 16223.969009395722, -187500.02235174447, -169775.37957136388, 0.24, 0.974, -0.05, 192.0, 0.0, 0.0, 0.0, 0.0, 0.0, 0.0, 0.0, 0.0, 0.0, 1.7296904280898654E9, 0.0, 2024-10-23 19:03:48.089
101.0, 41984.53330809275, -397.1681472263512, 26672.962507362667, 16234.094349633975, 15801.386928723685, 16219.118680848918, -187500.02235174447, -169763.89077471386, 0.24, 0.974, -0.05, 192.0, 0.0, 0.0, 0.0, 0.0, 0.0, 0.0, 0.0, 0.0, 0.0, 1.729690428094872E9, 0.0, 2024-10-23 19:03:48.094
102.0, 42338.629643753724, 593.5282222662238, 26664.155920047277, 16306.737519113723, 15782.455001170041, 16208.166326065819, -187500.02235174447, -169600.85715065684, 0.24, 0.974, -0.05, 192.0, 0.0, 0.0, 0.0, 0.0, 0.0, 0.0, 0.0, 0.0, 0.0, 1.7296904280989907E9, 0.0, 2024-10-23 19:03:48.098
103.0, 42144.48239141493, 963.4495930015556, 26657.115120543855, 16246.767788740133, 15778.968129035013, 16195.20231428174, -187500.02235174447, -169507.18098964466, 0.24, 0.974, -0.05, 192.0, 0.0, 0.0, 0.0, 0.0, 0.0, 0.0, 0.0, 0.0, 0.0, 1.7296904281028771E9, 0.0, 2024-10-23 19:03:48.102
104.0, 41634.23676898918, 81.0474253949434, 26667.88866137131, 16121.553316301504, 15792.60269315275, 16191.62603516889, -187500.02235174447, -169654.6354478163, 0.24, 0.974, -0.05, 192.0, 0.0, 0.0, 0.0, 0.0, 0.0, 0.0, 0.0, 0.0, 0.0, 1.7296904281068957E9, 0.0, 2024-10-23 19:03:48.106
105.0, 41734.23847368223, -459.0377758786411, 26674.48242598563, 16168.53668314656, 15797.676539144104, 16196.945750349254, -187500.02235174447, -169720.9530736152, 0.232, 0.98, -0.042, 192.0, 7.0, 64.0, 30.0, 160.0, 254.0, 176.0, 0.0, 0.0, 0.0, 1.7296904281119092E9, 0.0, 2024-10-23 19:03:48.111
106.0, 42010.215462471904, -361.51711482013644, 26671.464940484162, 16219.945695393766, 15788.333509961787, 16206.86992488741, -187500.02235174447, -169698.89190183784, 0.232, 0.98, -0.042, 192.0, 0.0, 0.0, 0.0, 0.0, 0.0, 0.0, 0.0, 0.0, 0.0, 1.7296904281149E9, 0.0, 2024-10-23 19:03:48.114
107.0, 42379.399225640205, 685.8856303555525, 26658.120949044343, 16297.662710864868, 15766.987594006969, 16197.437488727272, -187500.02235174447, -169485.54450101193, 0.232, 0.98, -0.042, 192.0, 0.0, 0.0, 0.0, 0.0, 0.0, 0.0, 0.0, 0.0, 0.0, 1.7296904281178913E9, 0.0, 2024-10-23 19:03:48.117
108.0, 42156.68644388753, 1028.2920036664013, 26663.1947950357, 16243.191509627284, 15773.536655132373, 16196.58812243797, -187500.02235174447, -169419.1374682352, 0.232, 0.98, -0.042, 192.0, 0.0, 0.0, 0.0, 0.0, 0.0, 0.0, 0.0, 0.0, 0.0, 1.729690428122883E9, 0.0, 2024-10-23 19:03:48.122
109.0, 41648.988920329684, 137.73144933360211, 26672.291955029006, 16130.561069316993, 15794.234370497987, 16209.01569235512, -187500.02235174447, -169561.9204118157, 0.232, 0.98, -0.042, 192.0, 0.0, 0.0, 0.0, 0.0, 0.0, 0.0, 0.0, 0.0, 0.0, 1.7296904281269753E9, 0.0, 2024-10-23 19:03:48.126
110.0, 41735.69133707182, -416.23418524672815, 26670.883795128324, 16168.760200591112, 15793.921446075612, 16202.06429982952, -187500.02235174447, -169636.66464527426, 0.232, 0.98, -0.042, 192.0, 0.0, 0.0, 0.0, 0.0, 0.0, 0.0, 0.0, 0.0, 0.0, 1.7296904281309035E9, 0.0, 2024-10-23 19:03:48.130
111.0, 42003.48758739085, -335.4773325297037, 26664.088864813908, 16215.25182905815, 15786.768887849914, 16212.9272476348, -187500.02235174447, -169625.24290385758, 0.232, 0.98, -0.042, 192.0, 0.0, 0.0, 0.0, 0.0, 0.0, 0.0, 0.0, 0.0, 0.0, 1.7296904281349742E9, 0.0, 2024-10-23 19:03:48.134
112.0, 42363.127155676746, 697.352075261125, 26656.310457743464, 16296.120440497452, 15785.69600411606, 16217.44230001477, -187500.02235174447, -169417.63990135668, 0.232, 0.98, -0.042, 192.0, 0.0, 0.0, 0.0, 0.0, 0.0, 0.0, 0.0, 0.0, 0.0, 1.7296904281399236E9, 0.0, 2024-10-23 19:03:48.139
113.0, 42148.30453971679, 1038.3726404157449, 26660.803158378978, 16241.202204370762, 15796.447193199063, 16201.863134129422, -187500.02235174447, -169338.224153307, 0.232, 0.98, -0.042, 192.0, 0.0, 0.0, 0.0, 0.0, 0.0, 0.0, 0.0, 0.0, 0.0, 1.7296904281429076E9, 0.0, 2024-10-23 19:03:48.142
114.0, 41633.409754444336, 129.21543469613013, 26669.69915267219, 16126.247182637118, 15808.919466605124, 16205.595875453459, -187500.02235174447, -169497.77090522897, 0.232, 0.98, -0.042, 192.0, 0.0, 0.0, 0.0, 0.0, 0.0, 0.0, 0.0, 0.0, 0.0, 1.7296904281459708E9, 0.0, 2024-10-23 19:03:48.145
115.0, 41726.92945324534, -421.173920771351, 26656.221050765642, 16164.9157005448, 15784.421954682108, 16178.818485596, -187500.02235174447, -169585.54620570497, 0.228, 0.966, -0.038, 192.0, 7.0, 32.0, 30.0, 48.0, 254.0, 208.0, 0.0, 0.0, 0.0, 1.7296904281510997E9, 0.0, 2024-10-23 19:03:48.151
116.0, 42005.70041009193, -308.0070385941313, 26652.533012930515, 16207.763994665624, 15783.304367459343, 16178.907892573821, -187500.02235174447, -169559.48407167007, 0.228, 0.966, -0.038, 192.0, 0.0, 0.0, 0.0, 0.0, 0.0, 0.0, 0.0, 0.0, 0.0, 1.7296904281550205E9, 0.0, 2024-10-23 19:03:48.155
117.0, 42357.98625445202, 717.1110173596165, 26652.309495485963, 16285.592768859002, 15791.1274780187, 16205.35000626445, -187500.02235174447, -169376.9820781925, 0.228, 0.966, -0.038, 192.0, 0.0, 0.0, 0.0, 0.0, 0.0, 0.0, 0.0, 0.0, 0.0, 1.7296904281589925E9, 0.0, 2024-10-23 19:03:48.158
118.0, 42140.81670532426, 1058.4221551921553, 26646.22982099412, 16233.915535678332, 15785.472486671506, 16208.881581888389, -187500.02235174447, -169298.5051034099, 0.228, 0.966, -0.038, 192.0, 0.0, 0.0, 0.0, 0.0, 0.0, 0.0, 0.0, 0.0, 0.0, 1.7296904281630251E9, 0.0, 2024-10-23 19:03:48.163
119.0, 41612.55557686753, 123.64985032675867, 26653.22591700863, 16114.557220286993, 15798.0788705443, 16199.091517816963, -187500.02235174447, -169472.42402701665, 0.228, 0.966, -0.038, 192.0, 0.0, 0.0, 0.0, 0.0, 0.0, 0.0, 0.0, 0.0, 0.0, 1.7296904281670053E9, 0.0, 2024-10-23 19:03:48.167
120.0, 41708.51161581417, -431.23220577623914, 26656.04223681, 16161.093552242943, 15798.727071133504, 16196.16343929332, -187500.02235174447, -169559.75229260355, 0.228, 0.966, -0.038, 192.0, 0.0, 0.0, 0.0, 0.0, 0.0, 0.0, 0.0, 0.0, 0.0, 1.7296904281710148E9, 0.0, 2024-10-23 19:03:48.171
121.0, 42004.068732746695, -298.4404919672599, 26654.36585597585, 16215.810622669534, 15797.900056588658, 16198.44331722776, -187500.02235174447, -169513.99827170352, 0.228, 0.966, -0.038, 192.0, 0.0, 0.0, 0.0, 0.0, 0.0, 0.0, 0.0, 0.0, 0.0, 1.7296904281740234E9, 0.0, 2024-10-23 19:03:48.174
122.0, 42357.91919921866, 753.7231747774094, 26651.66129489676, 16297.595655631503, 15787.685309372582, 16200.276160273095, -187500.02235174447, -169294.5488446413, 0.228, 0.966, -0.038, 192.0, 0.0, 0.0, 0.0, 0.0, 0.0, 0.0, 0.0, 0.0, 0.0, 1.7296904281790311E9, 0.0, 2024-10-23 19:03:48.179
123.0, 42112.94407998849, 1033.4552566355774, 26665.22880378113, 16248.846500974478, 15800.358748478742, 16200.544381206559, -187500.02235174447, -169256.84145174522, 0.228, 0.966, -0.038, 192.0, 0.0, 0.0, 0.0, 0.0, 0.0, 0.0, 0.0, 0.0, 0.0, 1.7296904281830292E9, 0.0, 2024-10-23 19:03:48.183
124.0, 41601.62557382889, 80.7121492281138, 26675.28708878602, 16132.170394917775, 15813.054539329356, 16188.854418856434, -187500.02235174447, -169443.81379411387, 0.228, 0.966, -0.038, 192.0, 0.0, 0.0, 0.0, 0.0, 0.0, 0.0, 0.0, 0.0, 0.0, 1.7296904281880178E9, 0.0, 2024-10-23 19:03:48.188
125.0, 41736.33953766102, -402.75608334017795, 26669.721504416648, 16181.34423271945, 15798.190629266577, 16184.317014732005, -187500.02235174447, -169480.67182072066, 0.216, 0.9560000000000001, -0.04, 192.0, 6.0, 192.0, 29.0, 224.0, 254.0, 192.0, 0.0, 0.0, 0.0, 1.7296904281920297E9, 0.0, 2024-10-23 19:03:48.192
126.0, 42022.97830855588, -249.9595582436989, 26672.202548051187, 16227.791157697578, 15796.223675754509, 16188.87677060089, -187500.02235174447, -169442.83031735782, 0.216, 0.9560000000000001, -0.04, 192.0, 0.0, 0.0, 0.0, 0.0, 0.0, 0.0, 0.0, 0.0, 0.0, 1.729690428195011E9, 0.0, 2024-10-23 19:03:48.195
127.0, 42355.080527672835, 763.8261632712082, 26668.71567591616, 16298.89205680991, 15781.918559303112, 16187.759183378123, -187500.02235174447, -169277.06978047726, 0.216, 0.9560000000000001, -0.04, 192.0, 0.0, 0.0, 0.0, 0.0, 0.0, 0.0, 0.0, 0.0, 0.0, 1.729690428199008E9, 0.0, 2024-10-23 19:03:48.199
128.0, 42117.61559457965, 1029.722515311541, 26671.33083001743, 16238.743512480678, 15781.762097091925, 16172.895273315344, -187500.02235174447, -169232.47805028892, 0.216, 0.9560000000000001, -0.04, 192.0, 0.0, 0.0, 0.0, 0.0, 0.0, 0.0, 0.0, 0.0, 0.0, 1.7296904282020204E9, 0.0, 2024-10-23 19:03:48.202
129.0, 41610.678030333285, 67.36815778829549, 26674.102446329885, 16114.803089476001, 15779.683384857582, 16138.697104298724, -187500.02235174447, -169408.20746519655, 0.216, 0.9560000000000001, -0.04, 192.0, 0.0, 0.0, 0.0, 0.0, 0.0, 0.0, 0.0, 0.0, 0.0, 1.729690428206997E9, 0.0, 2024-10-23 19:03:48.206
130.0, 41740.005223751694, -430.22637727575034, 26676.985821364622, 16168.939014546755, 15783.84080932627, 16187.15568627783, -187500.02235174447, -169467.2607740475, 0.216, 0.9560000000000001, -0.04, 192.0, 0.0, 0.0, 0.0, 0.0, 0.0, 0.0, 0.0, 0.0, 0.0, 1.7296904282110229E9, 0.0, 2024-10-23 19:03:48.211
131.0, 42033.93066333898, -262.6777008387686, 26670.101484072387, 16215.16242208033, 15769.781562063881, 16183.422944953794, -187500.02235174447, -169430.55920965187, 0.216, 0.9560000000000001, -0.04, 192.0, 0.0, 0.0, 0.0, 0.0, 0.0, 0.0, 0.0, 0.0, 0.0, 1.7296904282150524E9, 0.0, 2024-10-23 19:03:48.215
132.0, 42359.95320796409, 781.7299105799092, 26662.636001424315, 16277.814361788556, 15763.187797449566, 16173.811694838012, -187500.02235174447, -169225.05727112977, 0.216, 0.9560000000000001, -0.04, 192.0, 0.0, 0.0, 0.0, 0.0, 0.0, 0.0, 0.0, 0.0, 0.0, 1.7296904282190514E9, 0.0, 2024-10-23 19:03:48.219
133.0, 42102.706981027965, 1014.1209976817368, 26676.114103330863, 16223.678436717802, 15783.639643626171, 16199.672663172802, -187500.02235174447, -169191.70846840244, 0.216, 0.9560000000000001, -0.04, 192.0, 0.0, 0.0, 0.0, 0.0, 0.0, 0.0, 0.0, 0.0, 0.0, 1.7296904282230375E9, 0.0, 2024-10-23 19:03:48.223
134.0, 41606.78882679807, 48.682099423658784, 26686.61942322486, 16114.646627264814, 15804.873800858713, 16206.221724298208, -187500.02235174447, -169364.95683967555, 0.216, 0.9560000000000001, -0.04, 192.0, 0.0, 0.0, 0.0, 0.0, 0.0, 0.0, 0.0, 0.0, 0.0, 1.7296904282270613E9, 0.0, 2024-10-23 19:03:48.227
135.0, 41743.0003575087, -432.9309383548425, 26681.925556889244, 16165.474494156182, 15794.301425731353, 16204.053605086043, -187500.02235174447, -169424.45718341556, 0.218, 0.96, -0.046, 192.0, 6.0, 208.0, 30.0, 0.0, 254.0, 144.0, 0.0, 0.0, 0.0, 1.7296904282300367E9, 0.0, 2024-10-23 19:03:48.230
136.0, 42034.64591916155, -256.8885990248441, 26665.541728203505, 16204.411232997327, 15770.005079508433, 16182.01478505311, -187500.02235174447, -169392.11420918873, 0.218, 0.96, -0.046, 192.0, 0.0, 0.0, 0.0, 0.0, 0.0, 0.0, 0.0, 0.0, 0.0, 1.7296904282340927E9, 0.0, 2024-10-23 19:03:48.234
137.0, 42357.33805386282, 789.3965589280796, 26648.93438207321, 16261.430533102815, 15752.570718833294, 16163.172264477285, -187500.02235174447, -169185.0923520437, 0.218, 0.96, -0.046, 192.0, 0.0, 0.0, 0.0, 0.0, 0.0, 0.0, 0.0, 0.0, 0.0, 1.7296904282400591E9, 0.0, 2024-10-23 19:03:48.240
138.0, 42091.70992275595, 1018.5913465727981, 26652.622419908337, 16200.522029462103, 15764.707716072526, 16172.515293659604, -187500.02235174447, -169141.43939512246, 0.218, 0.96, -0.046, 192.0, 0.0, 0.0, 0.0, 0.0, 0.0, 0.0, 0.0, 0.0, 0.0, 1.729690428244084E9, 0.0, 2024-10-23 19:03:48.244
