%OpenBCI Raw EXG Data
%Number of channels = 8
%Sample Rate = 250 Hz
%Board = OpenBCI_GUI$BoardCytonSerial
Sample Index, EXG Channel 0, EXG Channel 1, EXG Channel 2, EXG Channel 3, EXG Channel 4, EXG Channel 5, EXG Channel 6, EXG Channel 7, Accel Channel 0, Accel Channel 1, Accel Channel 2, Other, Other, Other, Other, Other, Other, Other, Analog Channel 0, Analog Channel 1, Analog Channel 2, Timestamp, Other, Timestamp (Formatted)
0.0, 0.0, 0.0, 0.0, 0.0, 0.0, 0.0, 0.0, 0.0, 0.198, 0.9580000000000001, -0.09, 192.0, 6.0, 48.0, 29.0, 240.0, 253.0, 48.0, 0.0, 0.0, 0.0, 1.7296927616745007E9, 0.0, 2024-10-23 19:42:41.674
1.0, 6859.2586349557205, 29173.63097353351, 42563.91287611877, 16923.556259102377, 26320.699014747028, 23284.281585726927, -187500.02235174447, -187500.02235174447, 0.198, 0.9580000000000001, -0.09, 192.0, 0.0, 0.0, 0.0, 0.0, 0.0, 0.0, 0.0, 0.0, 0.0, 1.7296927616905117E9, 0.0, 2024-10-23 19:42:41.690
2.0, 6807.044959908124, 29237.489907442323, 42551.306492245974, 16951.29477397141, 26309.76901170838, 23303.235865025028, -187500.02235174447, -187500.02235174447, 0.198, 0.9580000000000001, -0.09, 192.0, 0.0, 0.0, 0.0, 0.0, 0.0, 0.0, 0.0, 0.0, 0.0, 1.7296927616944723E9, 0.0, 2024-10-23 19:42:41.694
3.0, 6820.679524025861, 29779.83263490589, 42559.30841676098, 16992.109059346803, 26315.893389689136, 23338.10458637531, -187500.02235174447, -187500.02235174447, 0.198, 0.9580000000000001, -0.09, 192.0, 0.0, 0.0, 0.0, 0.0, 0.0, 0.0, 0.0, 0.0, 0.0, 1.7296927616975143E9, 0.0, 2024-10-23 19:42:41.697
4.0, 6838.650326567928, 29931.39981405733, 42554.43573646972, 16965.68929740063, 26309.858418686203, 23320.156135577698, -187500.02235174447, -187500.02235174447, 0.198, 0.9580000000000001, -0.09, 192.0, 0.0, 0.0, 0.0, 0.0, 0.0, 0.0, 0.0, 0.0, 0.0, 1.7296927617005117E9, 0.0, 2024-10-23 19:42:41.700
5.0, 6846.272271427188, 29689.01749718398, 42542.85753284187, 16932.049921995393, 26305.74569770643, 23282.51579791496, -187500.02235174447, -187500.02235174447, 0.198, 0.9580000000000001, -0.09, 192.0, 0.0, 0.0, 0.0, 0.0, 0.0, 0.0, 0.0, 0.0, 0.0, 1.7296927617054927E9, 0.0, 2024-10-23 19:42:41.705
6.0, 6850.742620318249, 29204.454029137378, 42536.353175205375, 16910.234619407012, 26299.800133681314, 23255.112559212754, -187500.02235174447, -187500.02235174447, 0.198, 0.9580000000000001, -0.09, 192.0, 0.0, 0.0, 0.0, 0.0, 0.0, 0.0, 0.0, 0.0, 0.0, 1.7296927617095098E9, 0.0, 2024-10-23 19:42:41.709
7.0, 6807.737863986238, 29277.052495128217, 42530.42996292472, 16955.11692227327, 26304.04696512782, 23291.03181255243, -187500.02235174447, -187500.02235174447, 0.198, 0.9580000000000001, -0.09, 192.0, 0.0, 0.0, 0.0, 0.0, 0.0, 0.0, 0.0, 0.0, 0.0, 1.729692761714028E9, 0.0, 2024-10-23 19:42:41.714
8.0, 6812.945820444324, 29801.647937494272, 42529.31237570195, 16994.344233792333, 26308.941997163536, 23319.440879755126, -187500.02235174447, -187500.02235174447, 0.196, 0.9580000000000001, -0.062, 192.0, 6.0, 32.0, 29.0, 240.0, 254.0, 16.0, 0.0, 0.0, 0.0, 1.7296927617174833E9, 0.0, 2024-10-23 19:42:41.717
9.0, 6834.761123032704, 29951.69519802275, 42534.29681471548, 16986.07408834387, 26319.3132065908, 23336.584667752348, -187500.02235174447, -187500.02235174447, 0.196, 0.9580000000000001, -0.062, 192.0, 0.0, 0.0, 0.0, 0.0, 0.0, 0.0, 0.0, 0.0, 0.0, 1.729692761721517E9, 0.0, 2024-10-23 19:42:41.721
10.0, 6842.628937080973, 29707.234168915056, 42524.953785533166, 16965.26461425598, 26306.259787828898, 23321.76546117848, -187500.02235174447, -187500.02235174447, 0.196, 0.9580000000000001, -0.062, 192.0, 0.0, 0.0, 0.0, 0.0, 0.0, 0.0, 0.0, 0.0, 0.0, 1.7296927617245288E9, 0.0, 2024-10-23 19:42:41.724
11.0, 6840.036134724157, 29214.378203675536, 42516.72834357362, 16943.896346556707, 26302.59410173823, 23306.56627494887, -187500.02235174447, -187500.02235174447, 0.196, 0.9580000000000001, -0.062, 192.0, 0.0, 0.0, 0.0, 0.0, 0.0, 0.0, 0.0, 0.0, 0.0, 1.7296927617285535E9, 0.0, 2024-10-23 19:42:41.728
12.0, 6788.627122476951, 29272.202166581414, 42505.440712623684, 16980.776724907962, 26293.988680122937, 23323.017158867977, -187500.02235174447, -187500.02235174447, 0.196, 0.9580000000000001, -0.062, 192.0, 0.0, 0.0, 0.0, 0.0, 0.0, 0.0, 0.0, 0.0, 0.0, 1.729692761733514E9, 0.0, 2024-10-23 19:42:41.733
13.0, 6794.416224290875, 29789.913271655238, 42509.732247559106, 17017.433585814666, 26298.2578633139, 23326.012292624986, -187500.02235174447, -187500.02235174447, 0.196, 0.9580000000000001, -0.062, 192.0, 0.0, 0.0, 0.0, 0.0, 0.0, 0.0, 0.0, 0.0, 0.0, 1.7296927617375376E9, 0.0, 2024-10-23 19:42:41.737
14.0, 6805.3685790739755, 29920.134534851855, 42509.41932313673, 16989.493905245534, 26301.141238348635, 23317.608036709793, -187500.02235174447, -187500.02235174447, 0.196, 0.9580000000000001, -0.062, 192.0, 0.0, 0.0, 0.0, 0.0, 0.0, 0.0, 0.0, 0.0, 0.0, 1.7296927617425883E9, 0.0, 2024-10-23 19:42:41.742
15.0, 6815.248050123221, 29673.97477316556, 42509.151102203265, 16967.96917533507, 26302.77291569387, 23327.085176358843, -187500.02235174447, -187500.02235174447, 0.196, 0.9580000000000001, -0.062, 192.0, 0.0, 0.0, 0.0, 0.0, 0.0, 0.0, 0.0, 0.0, 0.0, 1.7296927617465644E9, 0.0, 2024-10-23 19:42:41.746
16.0, 6815.717436756782, 29184.76214227225, 42506.781817291005, 16940.789454077418, 26297.006165624403, 23289.020155551454, -187500.02235174447, -187500.02235174447, 0.196, 0.9580000000000001, -0.062, 192.0, 0.0, 0.0, 0.0, 0.0, 0.0, 0.0, 0.0, 0.0, 0.0, 1.7296927617495177E9, 0.0, 2024-10-23 19:42:41.749
17.0, 6765.738936154716, 29242.451994711402, 42500.143349187776, 16973.534759704442, 26286.63495619714, 23309.27083602796, -187500.02235174447, -187500.02235174447, 0.196, 0.9580000000000001, -0.062, 192.0, 0.0, 0.0, 0.0, 0.0, 0.0, 0.0, 0.0, 0.0, 0.0, 1.729692761754575E9, 0.0, 2024-10-23 19:42:41.754
18.0, 6776.378366515442, 29761.660666663727, 42514.22494819462, 17017.50064104803, 26309.567846008285, 23370.939298980153, -187500.02235174447, -187500.02235174447, 0.198, 0.964, -0.054, 192.0, 6.0, 48.0, 30.0, 32.0, 254.0, 80.0, 0.0, 0.0, 0.0, 1.7296927617575645E9, 0.0, 2024-10-23 19:42:41.757
19.0, 6800.853526694003, 29905.114162577887, 42527.79245707899, 16992.354928535813, 26309.701956475015, 23333.32131306187, -187500.02235174447, -187500.02235174447, 0.198, 0.964, -0.054, 192.0, 0.0, 0.0, 0.0, 0.0, 0.0, 0.0, 0.0, 0.0, 0.0, 1.7296927617605627E9, 0.0, 2024-10-23 19:42:41.760
20.0, 6825.753370017215, 29678.333363334343, 42538.52129441754, 16975.993451594528, 26312.384165809653, 23314.747013419514, -187500.02235174447, -187500.02235174447, 0.198, 0.964, -0.054, 192.0, 0.0, 0.0, 0.0, 0.0, 0.0, 0.0, 0.0, 0.0, 0.0, 1.729692761766798E9, 0.0, 2024-10-23 19:42:41.766
21.0, 6837.711553300805, 29206.890369283006, 42546.38910846581, 16972.3054137594, 26320.87782870267, 23345.8606417013, -187500.02235174447, -187500.02235174447, 0.198, 0.964, -0.054, 192.0, 0.0, 0.0, 0.0, 0.0, 0.0, 0.0, 0.0, 0.0, 0.0, 1.7296927617695727E9, 0.0, 2024-10-23 19:42:41.769
22.0, 6783.8885526524255, 29266.100140345116, 42528.46300941265, 16996.914684404695, 26297.810828424794, 23322.03368211194, -187500.02235174447, -187500.02235174447, 0.198, 0.964, -0.054, 192.0, 0.0, 0.0, 0.0, 0.0, 0.0, 0.0, 0.0, 0.0, 0.0, 1.7296927617736175E9, 0.0, 2024-10-23 19:42:41.773
23.0, 6789.00710213269, 29783.69948669666, 42531.1899222362, 17027.760091753018, 26301.16359009309, 23329.99090313803, -187500.02235174447, -187500.02235174447, 0.198, 0.964, -0.054, 192.0, 0.0, 0.0, 0.0, 0.0, 0.0, 0.0, 0.0, 0.0, 0.0, 1.729692761776638E9, 0.0, 2024-10-23 19:42:41.776
24.0, 6817.259707124199, 29937.12186063789, 42545.49503868759, 17013.432623557168, 26306.148029106622, 23351.269763859484, -187500.02235174447, -187500.02235174447, 0.198, 0.964, -0.054, 192.0, 0.0, 0.0, 0.0, 0.0, 0.0, 0.0, 0.0, 0.0, 0.0, 1.7296927617806413E9, 0.0, 2024-10-23 19:42:41.780
25.0, 6833.420018365386, 29701.3109566344, 42541.69524213019, 16981.69314643063, 26298.749601691914, 23301.157152790685, -187500.02235174447, -187500.02235174447, 0.198, 0.964, -0.054, 192.0, 0.0, 0.0, 0.0, 0.0, 0.0, 0.0, 0.0, 0.0, 0.0, 1.7296927617846909E9, 0.0, 2024-10-23 19:42:41.784
26.0, 6830.514291586196, 29207.605625105578, 42530.22879722462, 16941.370599433256, 26292.20054056651, 23269.149454730687, -187500.02235174447, -187500.02235174447, 0.198, 0.964, -0.054, 192.0, 0.0, 0.0, 0.0, 0.0, 0.0, 0.0, 0.0, 0.0, 0.0, 1.7296927617886686E9, 0.0, 2024-10-23 19:42:41.788
27.0, 6791.510497511685, 29274.683210215953, 42536.84491358339, 16984.308300531902, 26301.25299707091, 23343.603115511312, -187500.02235174447, -187500.02235174447, 0.198, 0.964, -0.054, 192.0, 0.0, 0.0, 0.0, 0.0, 0.0, 0.0, 0.0, 0.0, 0.0, 1.7296927617936847E9, 0.0, 2024-10-23 19:42:41.793
28.0, 6792.449270778808, 29780.056152350448, 42533.38039319282, 17000.133335606257, 26288.847778898216, 23329.096833359818, -187500.02235174447, -187500.02235174447, 0.19, 0.964, -0.044, 192.0, 5.0, 240.0, 30.0, 32.0, 254.0, 160.0, 0.0, 0.0, 0.0, 1.7296927617976353E9, 0.0, 2024-10-23 19:42:41.797
29.0, 6810.107148898501, 29916.53590399455, 42531.860474569854, 16957.73207637454, 26287.61843295317, 23302.52060920246, -187500.02235174447, -187500.02235174447, 0.19, 0.964, -0.044, 192.0, 0.0, 0.0, 0.0, 0.0, 0.0, 0.0, 0.0, 0.0, 0.0, 1.7296927618016236E9, 0.0, 2024-10-23 19:42:41.801
30.0, 6829.843739252537, 29679.450950557108, 42537.02372753903, 16926.216116692558, 26300.291872059333, 23292.305861986384, -187500.02235174447, -187500.02235174447, 0.19, 0.964, -0.044, 192.0, 0.0, 0.0, 0.0, 0.0, 0.0, 0.0, 0.0, 0.0, 0.0, 1.7296927618056366E9, 0.0, 2024-10-23 19:42:41.805
31.0, 6831.363657875498, 29188.941918485394, 42531.726364103124, 16899.371671601733, 26300.49303775943, 23296.664452155168, -187500.02235174447, -187500.02235174447, 0.19, 0.964, -0.044, 192.0, 0.0, 0.0, 0.0, 0.0, 0.0, 0.0, 0.0, 0.0, 0.0, 1.7296927618098187E9, 0.0, 2024-10-23 19:42:41.809
32.0, 6788.828288177048, 29245.89416335752, 42523.769143077036, 16934.575669118844, 26291.798209166314, 23320.536115233437, -187500.02235174447, -187500.02235174447, 0.19, 0.964, -0.044, 192.0, 0.0, 0.0, 0.0, 0.0, 0.0, 0.0, 0.0, 0.0, 0.0, 1.7296927618127737E9, 0.0, 2024-10-23 19:42:41.812
33.0, 6790.415262033375, 29743.421643188198, 42513.64380283878, 16963.297660743912, 26280.68939217203, 23314.747013419514, -187500.02235174447, -187500.02235174447, 0.19, 0.964, -0.044, 192.0, 0.0, 0.0, 0.0, 0.0, 0.0, 0.0, 0.0, 0.0, 0.0, 1.729692761816716E9, 0.0, 2024-10-23 19:42:41.816
34.0, 6803.893363939926, 29867.987915037625, 42499.89747999877, 16929.63593359422, 26260.05873203978, 23283.543978159905, -187500.02235174447, -187500.02235174447, 0.19, 0.964, -0.044, 192.0, 0.0, 0.0, 0.0, 0.0, 0.0, 0.0, 0.0, 0.0, 0.0, 1.729692761820706E9, 0.0, 2024-10-23 19:42:41.820
35.0, 6829.35200087452, 29629.539505188408, 42506.51359635754, 16919.622352078244, 26284.265671284877, 23296.016251565965, -187500.02235174447, -187500.02235174447, 0.19, 0.964, -0.044, 192.0, 0.0, 0.0, 0.0, 0.0, 0.0, 0.0, 0.0, 0.0, 0.0, 1.7296927618302512E9, 0.0, 2024-10-23 19:42:41.830
36.0, 6839.20912017931, 29138.941066138872, 42510.80513129296, 16904.87020073774, 26289.764200420883, 23279.543015902404, -187500.02235174447, -187500.02235174447, 0.19, 0.964, -0.044, 192.0, 0.0, 0.0, 0.0, 0.0, 0.0, 0.0, 0.0, 0.0, 0.0, 1.7296927618302867E9, 0.0, 2024-10-23 19:42:41.830
37.0, 6787.1742590873555, 29178.68246778041, 42494.22013690712, 16939.537756387923, 26278.655383426594, 23294.18340852063, -187500.02235174447, -187500.02235174447, 0.19, 0.964, -0.044, 192.0, 0.0, 0.0, 0.0, 0.0, 0.0, 0.0, 0.0, 0.0, 0.0, 1.729692761833702E9, 0.0, 2024-10-23 19:42:41.833
38.0, 6793.723320212761, 29678.06514240088, 42495.42713110771, 16983.88361738725, 26295.508598745895, 23324.112394346284, -187500.02235174447, -187500.02235174447, 0.194, 0.96, -0.036000000000000004, 192.0, 6.0, 16.0, 30.0, 0.0, 254.0, 224.0, 0.0, 0.0, 0.0, 1.7296927618367016E9, 0.0, 2024-10-23 19:42:41.836
39.0, 6812.074102410567, 29805.291271840488, 42496.16473867473, 16966.4045532232, 26294.21219756749, 23307.773269149457, -187500.02235174447, -187500.02235174447, 0.194, 0.96, -0.036000000000000004, 192.0, 0.0, 0.0, 0.0, 0.0, 0.0, 0.0, 0.0, 0.0, 0.0, 1.7296927618407063E9, 0.0, 2024-10-23 19:42:41.840
40.0, 6825.753370017215, 29560.539670054874, 42496.924697986215, 16949.573689648354, 26297.47555225796, 23300.486600457025, -187500.02235174447, -187500.02235174447, 0.194, 0.96, -0.036000000000000004, 192.0, 0.0, 0.0, 0.0, 0.0, 0.0, 0.0, 0.0, 0.0, 0.0, 1.7296927618467317E9, 0.0, 2024-10-23 19:42:41.846
41.0, 6827.139178173445, 29076.691457830842, 42493.99661946257, 16941.46000641108, 26291.999374866413, 23314.165868063676, -187500.02235174447, -187500.02235174447, 0.194, 0.96, -0.036000000000000004, 192.0, 0.0, 0.0, 0.0, 0.0, 0.0, 0.0, 0.0, 0.0, 0.0, 1.729692761849712E9, 0.0, 2024-10-23 19:42:41.849
42.0, 6774.880799636937, 29124.591246198568, 42484.74299725807, 16975.725230661064, 26274.0509240688, 23329.90149616021, -187500.02235174447, -187500.02235174447, 0.194, 0.96, -0.036000000000000004, 192.0, 0.0, 0.0, 0.0, 0.0, 0.0, 0.0, 0.0, 0.0, 0.0, 1.7296927618548226E9, 0.0, 2024-10-23 19:42:41.854
43.0, 6774.679633936838, 29622.901037085183, 42481.09966291185, 17004.067242630394, 26262.13744427412, 23343.513708533494, -187500.02235174447, -187500.02235174447, 0.194, 0.96, -0.036000000000000004, 192.0, 0.0, 0.0, 0.0, 0.0, 0.0, 0.0, 0.0, 0.0, 0.0, 1.7296927618577085E9, 0.0, 2024-10-23 19:42:41.857
44.0, 6797.567820259073, 29772.881242380292, 42490.55445081645, 16984.732983676553, 26281.53875846133, 23334.349493306818, -187500.02235174447, -187500.02235174447, 0.194, 0.96, -0.036000000000000004, 192.0, 0.0, 0.0, 0.0, 0.0, 0.0, 0.0, 0.0, 0.0, 0.0, 1.72969276186176E9, 0.0, 2024-10-23 19:42:41.861
45.0, 6818.801977491615, 29547.463899548522, 42505.50776785705, 16963.610585166287, 26301.297700559822, 23317.94331287662, -187500.02235174447, -187500.02235174447, 0.194, 0.96, -0.036000000000000004, 192.0, 0.0, 0.0, 0.0, 0.0, 0.0, 0.0, 0.0, 0.0, 0.0, 1.729692761865736E9, 0.0, 2024-10-23 19:42:41.865
46.0, 6825.39574210593, 29081.161806721906, 42513.44263713869, 16942.51053840048, 26300.046002870324, 23299.838399867822, -187500.02235174447, -187500.02235174447, 0.194, 0.96, -0.036000000000000004, 192.0, 0.0, 0.0, 0.0, 0.0, 0.0, 0.0, 0.0, 0.0, 0.0, 1.7296927618698406E9, 0.0, 2024-10-23 19:42:41.869
47.0, 6782.972131129758, 29153.045016890173, 42515.588404606395, 16979.54737896292, 26301.364755793187, 23301.157152790685, -187500.02235174447, -187500.02235174447, 0.194, 0.96, -0.036000000000000004, 192.0, 0.0, 0.0, 0.0, 0.0, 0.0, 0.0, 0.0, 0.0, 0.0, 1.7296927618748257E9, 0.0, 2024-10-23 19:42:41.874
48.0, 6785.743747442216, 29664.855261427794, 42519.1870354637, 17005.117774619794, 26299.420154025574, 23302.051222568898, -187500.02235174447, -187500.02235174447, 0.192, 0.96, -0.034, 192.0, 6.0, 0.0, 30.0, 0.0, 254.0, 240.0, 0.0, 0.0, 0.0, 1.7296927618777363E9, 0.0, 2024-10-23 19:42:41.877
49.0, 6818.019666435679, 29840.607028079874, 42535.70497461617, 16998.59106523884, 26308.092630874235, 23344.161909122697, -187500.02235174447, -187500.02235174447, 0.192, 0.96, -0.034, 192.0, 0.0, 0.0, 0.0, 0.0, 0.0, 0.0, 0.0, 0.0, 0.0, 1.7296927618849015E9, 0.0, 2024-10-23 19:42:41.884
50.0, 6836.0128207222015, 29623.63864465221, 42537.26959672804, 16982.855437142305, 26296.223854568467, 23349.95101093662, -187500.02235174447, -187500.02235174447, 0.192, 0.96, -0.034, 192.0, 0.0, 0.0, 0.0, 0.0, 0.0, 0.0, 0.0, 0.0, 0.0, 1.7296927618877838E9, 0.0, 2024-10-23 19:42:41.887
51.0, 6845.177035948877, 29158.029455903707, 42539.12479151783, 16958.648497897208, 26300.716555203984, 23314.724661675056, -187500.02235174447, -187500.02235174447, 0.192, 0.96, -0.034, 192.0, 0.0, 0.0, 0.0, 0.0, 0.0, 0.0, 0.0, 0.0, 0.0, 1.7296927618907876E9, 0.0, 2024-10-23 19:42:41.890
52.0, 6793.633913234939, 29215.182866475927, 42528.53006464602, 16982.766030164486, 26294.59217722323, 23325.6546647137, -187500.02235174447, -187500.02235174447, 0.192, 0.96, -0.034, 192.0, 0.0, 0.0, 0.0, 0.0, 0.0, 0.0, 0.0, 0.0, 0.0, 1.7296927618948655E9, 0.0, 2024-10-23 19:42:41.894
53.0, 6794.237410335232, 29717.627730086773, 42520.10345698636, 17000.289797817444, 26283.39395325112, 23309.04731858341, -187500.02235174447, -187500.02235174447, 0.192, 0.96, -0.034, 192.0, 0.0, 0.0, 0.0, 0.0, 0.0, 0.0, 0.0, 0.0, 0.0, 1.7296927618978624E9, 0.0, 2024-10-23 19:42:41.897
54.0, 6812.498785555218, 29866.691513859216, 42515.230776695105, 16968.304451501903, 26282.34342126172, 23315.03758609743, -187500.02235174447, -187500.02235174447, 0.192, 0.96, -0.034, 192.0, 0.0, 0.0, 0.0, 0.0, 0.0, 0.0, 0.0, 0.0, 0.0, 1.7296927619008193E9, 0.0, 2024-10-23 19:42:41.900
55.0, 6831.721285786783, 29633.071080812348, 42515.34253541739, 16935.4473871526, 26282.92456661756, 23274.402114677683, -187500.02235174447, -187500.02235174447, 0.192, 0.96, -0.034, 192.0, 0.0, 0.0, 0.0, 0.0, 0.0, 0.0, 0.0, 0.0, 0.0, 1.7296927619047804E9, 0.0, 2024-10-23 19:42:41.904
56.0, 6831.721285786783, 29141.131537095494, 42502.91496550023, 16897.49412506749, 26272.106322301188, 23235.89005898119, -187500.02235174447, -187500.02235174447, 0.192, 0.96, -0.034, 192.0, 0.0, 0.0, 0.0, 0.0, 0.0, 0.0, 0.0, 0.0, 0.0, 1.7296927619107976E9, 0.0, 2024-10-23 19:42:41.910
57.0, 6784.894381152914, 29194.127523199026, 42492.14142467278, 16935.201517963593, 26255.543679659808, 23302.967644091565, -187500.02235174447, -187500.02235174447, 0.192, 0.96, -0.034, 192.0, 0.0, 0.0, 0.0, 0.0, 0.0, 0.0, 0.0, 0.0, 0.0, 1.729692761914811E9, 0.0, 2024-10-23 19:42:41.914
58.0, 6790.370558544464, 29703.59083456884, 42485.83823273638, 16970.2043497806, 26256.124825015646, 23333.209554339595, -187500.02235174447, -187500.02235174447, 0.196, 0.9560000000000001, -0.034, 192.0, 6.0, 32.0, 29.0, 224.0, 254.0, 240.0, 0.0, 0.0, 0.0, 1.7296927619188397E9, 0.0, 2024-10-23 19:42:41.918
59.0, 6808.877802953459, 29857.303781187988, 42484.206555391145, 16940.141253488215, 26268.977078077445, 23307.03566158243, -187500.02235174447, -187500.02235174447, 0.196, 0.9560000000000001, -0.034, 192.0, 0.0, 0.0, 0.0, 0.0, 0.0, 0.0, 0.0, 0.0, 0.0, 1.72969276192182E9, 0.0, 2024-10-23 19:42:41.921
60.0, 6832.0789136980675, 29615.3908509482, 42496.924697986215, 16914.30263689788, 26282.410476495086, 23281.599376392292, -187500.02235174447, -187500.02235174447, 0.196, 0.9560000000000001, -0.034, 192.0, 0.0, 0.0, 0.0, 0.0, 0.0, 0.0, 0.0, 0.0, 0.0, 1.7296927619248066E9, 0.0, 2024-10-23 19:42:41.924
61.0, 6834.671716054883, 29099.4678854308, 42494.823634007415, 16890.29686335288, 26278.409514237585, 23256.341905157795, -187500.02235174447, -187500.02235174447, 0.196, 0.9560000000000001, -0.034, 192.0, 0.0, 0.0, 0.0, 0.0, 0.0, 0.0, 0.0, 0.0, 0.0, 1.7296927619289432E9, 0.0, 2024-10-23 19:42:41.928
62.0, 6789.655302721894, 29135.565952726123, 42490.59915430536, 16933.100453984793, 26277.493092714918, 23316.132821575742, -187500.02235174447, -187500.02235174447, 0.196, 0.9560000000000001, -0.034, 192.0, 0.0, 0.0, 0.0, 0.0, 0.0, 0.0, 0.0, 0.0, 0.0, 1.7296927619328432E9, 0.0, 2024-10-23 19:42:41.932
63.0, 6787.129555598445, 29652.181822321636, 42484.49712806906, 16966.270442756468, 26270.854624611693, 23318.412699510183, -187500.02235174447, -187500.02235174447, 0.196, 0.9560000000000001, -0.034, 192.0, 0.0, 0.0, 0.0, 0.0, 0.0, 0.0, 0.0, 0.0, 0.0, 1.7296927619398518E9, 0.0, 2024-10-23 19:42:41.939
64.0, 6805.457986051797, 29863.09288300191, 42482.46311932363, 16939.381294176736, 26273.268613012864, 23298.720812645057, -187500.02235174447, -187500.02235174447, 0.196, 0.9560000000000001, -0.034, 192.0, 0.0, 0.0, 0.0, 0.0, 0.0, 0.0, 0.0, 0.0, 0.0, 1.7296927619459145E9, 0.0, 2024-10-23 19:42:41.945
65.0, 6819.025494936168, 29581.974992987514, 42484.54183155797, 16906.144250171692, 26277.91777585957, 23310.164905806174, -187500.02235174447, -187500.02235174447, 0.196, 0.9560000000000001, -0.034, 192.0, 0.0, 0.0, 0.0, 0.0, 0.0, 0.0, 0.0, 0.0, 0.0, 1.7296927619499753E9, 0.0, 2024-10-23 19:42:41.949
66.0, 6819.807805992104, 28994.615852190957, 42482.64193327927, 16878.00340390246, 26279.34828750471, 23287.924920073143, -187500.02235174447, -187500.02235174447, 0.196, 0.9560000000000001, -0.034, 192.0, 0.0, 0.0, 0.0, 0.0, 0.0, 0.0, 0.0, 0.0, 0.0, 1.7296927619538794E9, 0.0, 2024-10-23 19:42:41.953
67.0, 6776.356014770987, 29034.670178254866, 42481.613753034326, 16928.048959737895, 26278.431865982042, 23291.769420119457, -187500.02235174447, -187500.02235174447, 0.196, 0.9560000000000001, -0.034, 192.0, 0.0, 0.0, 0.0, 0.0, 0.0, 0.0, 0.0, 0.0, 0.0, 1.7296927619568596E9, 0.0, 2024-10-23 19:42:41.956
68.0, 6776.400718259897, 29612.932159058117, 42480.496165811564, 16973.870035871274, 26277.068409570267, 23293.736373631524, -187500.02235174447, -187500.02235174447, 0.198, 0.964, -0.028, 192.0, 6.0, 48.0, 30.0, 32.0, 255.0, 32.0, 0.0, 0.0, 0.0, 1.7296927619609096E9, 0.0, 2024-10-23 19:42:41.960
69.0, 6806.642628507928, 29909.450401002217, 42494.71187528514, 16968.013878823982, 26297.520255746873, 23314.747013419514, -187500.02235174447, -187500.02235174447, 0.198, 0.964, -0.028, 192.0, 0.0, 0.0, 0.0, 0.0, 0.0, 0.0, 0.0, 0.0, 0.0, 1.729692761963869E9, 0.0, 2024-10-23 19:42:41.963
70.0, 6828.413227607397, 29632.4452319676, 42504.256070167554, 16942.577593633843, 26308.472610529974, 23327.822783925865, -187500.02235174447, -187500.02235174447, 0.198, 0.964, -0.028, 192.0, 0.0, 0.0, 0.0, 0.0, 0.0, 0.0, 0.0, 0.0, 0.0, 1.7296927619668903E9, 0.0, 2024-10-23 19:42:41.966
71.0, 6833.934108487858, 29044.482594070745, 42503.71962830063, 16922.416320135155, 26305.857456428705, 23298.653757411692, -187500.02235174447, -187500.02235174447, 0.198, 0.964, -0.028, 192.0, 0.0, 0.0, 0.0, 0.0, 0.0, 0.0, 0.0, 0.0, 0.0, 1.729692761970904E9, 0.0, 2024-10-23 19:42:41.970
72.0, 6783.776793930148, 29077.741989820242, 42498.22109916462, 16968.751486391007, 26308.96434890799, 23322.771289678967, -187500.02235174447, -187500.02235174447, 0.198, 0.964, -0.028, 192.0, 0.0, 0.0, 0.0, 0.0, 0.0, 0.0, 0.0, 0.0, 0.0, 1.7296927619739E9, 0.0, 2024-10-23 19:42:41.973
73.0, 6783.82149741906, 29663.06712187137, 42495.114206685335, 17015.42192881369, 26297.900235402612, 23346.553545779414, -187500.02235174447, -187500.02235174447, 0.198, 0.964, -0.028, 192.0, 0.0, 0.0, 0.0, 0.0, 0.0, 0.0, 0.0, 0.0, 0.0, 1.7296927619769266E9, 0.0, 2024-10-23 19:42:41.976
74.0, 6807.849622708514, 29958.2219074037, 42500.18805267668, 17000.64742572873, 26315.20048561102, 23335.824708440865, -187500.02235174447, -187500.02235174447, 0.198, 0.964, -0.028, 192.0, 0.0, 0.0, 0.0, 0.0, 0.0, 0.0, 0.0, 0.0, 0.0, 1.7296927619809136E9, 0.0, 2024-10-23 19:42:41.980
75.0, 6823.786416505149, 29667.78333995144, 42508.05586672496, 16962.78357062144, 26326.532820049862, 23309.002615094498, -187500.02235174447, -187500.02235174447, 0.198, 0.964, -0.028, 192.0, 0.0, 0.0, 0.0, 0.0, 0.0, 0.0, 0.0, 0.0, 0.0, 1.7296927619869783E9, 0.0, 2024-10-23 19:42:41.986
76.0, 6830.044904952634, 29069.963582749795, 42516.6836400847, 16937.146119731202, 26327.29277936134, 23274.111541999762, -187500.02235174447, -187500.02235174447, 0.198, 0.964, -0.028, 192.0, 0.0, 0.0, 0.0, 0.0, 0.0, 0.0, 0.0, 0.0, 0.0, 1.72969276198996E9, 0.0, 2024-10-23 19:42:41.989
77.0, 6781.474564251253, 29097.791504596655, 42511.92271851572, 16980.642614441233, 26321.436622314053, 23301.60418767979, -187500.02235174447, -187500.02235174447, 0.198, 0.964, -0.028, 192.0, 0.0, 0.0, 0.0, 0.0, 0.0, 0.0, 0.0, 0.0, 0.0, 1.7296927619929068E9, 0.0, 2024-10-23 19:42:41.992
78.0, 6787.86716316547, 29686.1564738937, 42513.21911969413, 17024.519088807, 26317.30154958982, 23322.681882701145, -187500.02235174447, -187500.02235174447, 0.19, 0.96, -0.032, 192.0, 5.0, 240.0, 30.0, 0.0, 255.0, 0.0, 0.0, 0.0, 0.0, 1.7296927619989684E9, 0.0, 2024-10-23 19:42:41.998
79.0, 6812.498785555218, 29977.466759379717, 42512.101532471366, 17000.535667006454, 26321.615436269694, 23302.27474001345, -187500.02235174447, -187500.02235174447, 0.19, 0.96, -0.032, 192.0, 0.0, 0.0, 0.0, 0.0, 0.0, 0.0, 0.0, 0.0, 0.0, 1.7296927620029588E9, 0.0, 2024-10-23 19:42:42.002
80.0, 6828.524986329674, 29681.283793602444, 42508.07821846941, 16955.4521984401, 26321.369567080685, 23283.499274670994, -187500.02235174447, -187500.02235174447, 0.19, 0.96, -0.032, 192.0, 0.0, 0.0, 0.0, 0.0, 0.0, 0.0, 0.0, 0.0, 0.0, 1.7296927620059583E9, 0.0, 2024-10-23 19:42:42.005
81.0, 6835.968117233291, 29074.344524663036, 42509.084046969896, 16929.97120976105, 26322.10717464771, 23281.040582780908, -187500.02235174447, -187500.02235174447, 0.19, 0.96, -0.032, 192.0, 0.0, 0.0, 0.0, 0.0, 0.0, 0.0, 0.0, 0.0, 0.0, 1.7296927620089557E9, 0.0, 2024-10-23 19:42:42.008
82.0, 6788.850639921504, 29096.517455162702, 42496.634125308294, 16966.628070667753, 26303.555226749806, 23298.653757411692, -187500.02235174447, -187500.02235174447, 0.19, 0.96, -0.032, 192.0, 0.0, 0.0, 0.0, 0.0, 0.0, 0.0, 0.0, 0.0, 0.0, 1.7296927620129507E9, 0.0, 2024-10-23 19:42:42.012
83.0, 6790.862296922482, 29677.819273211873, 42490.10741592734, 17002.390861796244, 26308.58436925225, 23299.41371672317, -187500.02235174447, -187500.02235174447, 0.19, 0.96, -0.032, 192.0, 0.0, 0.0, 0.0, 0.0, 0.0, 0.0, 0.0, 0.0, 0.0, 1.7296927620169816E9, 0.0, 2024-10-23 19:42:42.016
84.0, 6813.616372777984, 29966.380294129885, 42490.152119416256, 16984.285948787445, 26304.04696512782, 23310.857809884288, -187500.02235174447, -187500.02235174447, 0.19, 0.96, -0.032, 192.0, 0.0, 0.0, 0.0, 0.0, 0.0, 0.0, 0.0, 0.0, 0.0, 1.729692762023032E9, 0.0, 2024-10-23 19:42:42.023
85.0, 6829.2625938966985, 29670.577308008353, 42482.59722979036, 16943.136387245224, 26294.323956289765, 23297.46911495556, -187500.02235174447, -187500.02235174447, 0.19, 0.96, -0.032, 192.0, 0.0, 0.0, 0.0, 0.0, 0.0, 0.0, 0.0, 0.0, 0.0, 1.729692762026029E9, 0.0, 2024-10-23 19:42:42.026
86.0, 6834.224681165777, 29057.89364074393, 42478.28334311049, 16913.788546775406, 26305.25395932841, 23284.303937471384, -187500.02235174447, -187500.02235174447, 0.19, 0.96, -0.032, 192.0, 0.0, 0.0, 0.0, 0.0, 0.0, 0.0, 0.0, 0.0, 0.0, 1.729692762029956E9, 0.0, 2024-10-23 19:42:42.029
87.0, 6786.3472445425095, 29065.292068158637, 42472.62835176329, 16957.217986252068, 26307.39972679612, 23308.399117994206, -187500.02235174447, -187500.02235174447, 0.19, 0.96, -0.032, 192.0, 0.0, 0.0, 0.0, 0.0, 0.0, 0.0, 0.0, 0.0, 0.0, 1.7296927620330143E9, 0.0, 2024-10-23 19:42:42.033
88.0, 6793.34334055702, 29636.692063414106, 42473.76829073051, 17003.441393785644, 26298.816656925283, 23312.668301185167, -187500.02235174447, -187500.02235174447, 0.196, 0.968, -0.026000000000000002, 192.0, 6.0, 32.0, 30.0, 64.0, 255.0, 48.0, 0.0, 0.0, 0.0, 1.7296927620370064E9, 0.0, 2024-10-23 19:42:42.037
89.0, 6816.857375724003, 29912.19966557022, 42480.18324138919, 16981.69314643063, 26320.31903509129, 23303.258216769485, -187500.02235174447, -187500.02235174447, 0.196, 0.968, -0.026000000000000002, 192.0, 0.0, 0.0, 0.0, 0.0, 0.0, 0.0, 0.0, 0.0, 0.0, 1.7296927620410078E9, 0.0, 2024-10-23 19:42:42.041
90.0, 6827.429750851364, 29596.257757694457, 42478.037473921475, 16936.609677864275, 26311.221875097977, 23285.689745627613, -187500.02235174447, -187500.02235174447, 0.196, 0.968, -0.026000000000000002, 192.0, 0.0, 0.0, 0.0, 0.0, 0.0, 0.0, 0.0, 0.0, 0.0, 1.7296927620450108E9, 0.0, 2024-10-23 19:42:42.045
91.0, 6827.295640384632, 28972.30881122456, 42472.248372107555, 16907.932389728117, 26310.327805319765, 23282.31463221486, -187500.02235174447, -187500.02235174447, 0.196, 0.968, -0.026000000000000002, 192.0, 0.0, 0.0, 0.0, 0.0, 0.0, 0.0, 0.0, 0.0, 0.0, 1.72969276204897E9, 0.0, 2024-10-23 19:42:42.048
92.0, 6784.447346263808, 28988.40206723238, 42471.622523262806, 16959.140236275227, 26310.372508808676, 23314.56819946387, -187500.02235174447, -187500.02235174447, 0.196, 0.968, -0.026000000000000002, 192.0, 0.0, 0.0, 0.0, 0.0, 0.0, 0.0, 0.0, 0.0, 0.0, 1.729692762054046E9, 0.0, 2024-10-23 19:42:42.054
93.0, 6787.956570143291, 29563.22187938951, 42475.28820935347, 17008.26937058799, 26308.651424485615, 23329.253295571005, -187500.02235174447, -187500.02235174447, 0.196, 0.968, -0.026000000000000002, 192.0, 0.0, 0.0, 0.0, 0.0, 0.0, 0.0, 0.0, 0.0, 0.0, 1.7296927620570967E9, 0.0, 2024-10-23 19:42:42.057
94.0, 6804.362750573487, 29839.087109456912, 42475.93640994268, 16986.521123232975, 26314.0605466438, 23307.594455193816, -187500.02235174447, -187500.02235174447, 0.196, 0.968, -0.026000000000000002, 192.0, 0.0, 0.0, 0.0, 0.0, 0.0, 0.0, 0.0, 0.0, 0.0, 1.7296927620610197E9, 0.0, 2024-10-23 19:42:42.061
95.0, 6821.506538570708, 29539.260809333424, 42481.25612512304, 16944.522195401456, 26319.514372290894, 23284.683917127124, -187500.02235174447, -187500.02235174447, 0.196, 0.968, -0.026000000000000002, 192.0, 0.0, 0.0, 0.0, 0.0, 0.0, 0.0, 0.0, 0.0, 0.0, 1.7296927620650492E9, 0.0, 2024-10-23 19:42:42.065
96.0, 6828.524986329674, 28935.137860195384, 42485.61471529183, 16917.45423286608, 26319.357910079707, 23265.8413965513, -187500.02235174447, -187500.02235174447, 0.196, 0.968, -0.026000000000000002, 192.0, 0.0, 0.0, 0.0, 0.0, 0.0, 0.0, 0.0, 0.0, 0.0, 1.7296927620690556E9, 0.0, 2024-10-23 19:42:42.069
97.0, 6777.630064204939, 28952.751034826164, 42479.847965222354, 16961.867149098773, 26319.3132065908, 23297.46911495556, -187500.02235174447, -187500.02235174447, 0.196, 0.968, -0.026000000000000002, 192.0, 0.0, 0.0, 0.0, 0.0, 0.0, 0.0, 0.0, 0.0, 0.0, 1.7296927620730584E9, 0.0, 2024-10-23 19:42:42.073
98.0, 6779.753479928194, 29531.214181329513, 42484.11714841332, 17009.31990257739, 26318.933226935056, 23315.954007620097, -187500.02235174447, -187500.02235174447, 0.196, 0.968, -0.026000000000000002, 192.0, 0.0, 0.0, 0.0, 0.0, 0.0, 0.0, 0.0, 0.0, 0.0, 1.7296927620770836E9, 0.0, 2024-10-23 19:42:42.077
99.0, 6817.751445502216, 29830.548743074985, 42504.70310505666, 17002.79319319644, 26336.434642843564, 23309.27083602796, -187500.02235174447, -187500.02235174447, 0.198, 0.96, -0.026000000000000002, 192.0, 6.0, 48.0, 30.0, 0.0, 255.0, 48.0, 0.0, 0.0, 0.0, 1.7296927620821111E9, 0.0, 2024-10-23 19:42:42.082
100.0, 6847.971004005791, 29549.877887949693, 42521.31045118695, 16978.295681273423, 26349.465709861008, 23331.533173505446, -187500.02235174447, -187500.02235174447, 0.198, 0.96, -0.026000000000000002, 192.0, 0.0, 0.0, 0.0, 0.0, 0.0, 0.0, 0.0, 0.0, 0.0, 1.7296927620850427E9, 0.0, 2024-10-23 19:42:42.085
101.0, 6850.340288918053, 28946.626656845412, 42518.42707615222, 16955.899233329204, 26339.45212834503, 23336.517612518983, -187500.02235174447, -187500.02235174447, 0.198, 0.96, -0.026000000000000002, 192.0, 0.0, 0.0, 0.0, 0.0, 0.0, 0.0, 0.0, 0.0, 0.0, 1.7296927620890353E9, 0.0, 2024-10-23 19:42:42.089
102.0, 6801.3229133275645, 28966.899689066377, 42510.46985512613, 16990.633844212753, 26331.986645696958, 23341.77027246598, -187500.02235174447, -187500.02235174447, 0.198, 0.96, -0.026000000000000002, 192.0, 0.0, 0.0, 0.0, 0.0, 0.0, 0.0, 0.0, 0.0, 0.0, 1.7296927620940716E9, 0.0, 2024-10-23 19:42:42.094
103.0, 6813.34815184452, 29559.824414232306, 42516.84010229589, 17036.924306979694, 26339.765052767405, 23352.208537126608, -187500.02235174447, -187500.02235174447, 0.198, 0.96, -0.026000000000000002, 192.0, 0.0, 0.0, 0.0, 0.0, 0.0, 0.0, 0.0, 0.0, 0.0, 1.7296927620970936E9, 0.0, 2024-10-23 19:42:42.097
104.0, 6844.193559192844, 29861.304743445486, 42524.819675066436, 17020.965161438606, 26341.039102201357, 23332.918981661678, -187500.02235174447, -187500.02235174447, 0.198, 0.96, -0.026000000000000002, 192.0, 0.0, 0.0, 0.0, 0.0, 0.0, 0.0, 0.0, 0.0, 0.0, 1.7296927621011677E9, 0.0, 2024-10-23 19:42:42.101
105.0, 6865.628882125483, 29578.62223131922, 42528.41830592374, 16980.463800485588, 26339.921514978592, 23320.111432088786, -187500.02235174447, -187500.02235174447, 0.198, 0.96, -0.026000000000000002, 192.0, 0.0, 0.0, 0.0, 0.0, 0.0, 0.0, 0.0, 0.0, 0.0, 1.7296927621050975E9, 0.0, 2024-10-23 19:42:42.105
106.0, 6871.507390917229, 28981.405971217868, 42526.04902101148, 16956.390971707224, 26336.92638122158, 23309.539056961425, -187500.02235174447, -187500.02235174447, 0.198, 0.96, -0.026000000000000002, 192.0, 0.0, 0.0, 0.0, 0.0, 0.0, 0.0, 0.0, 0.0, 0.0, 1.7296927621091044E9, 0.0, 2024-10-23 19:42:42.109
107.0, 6823.741713016238, 29007.199884319292, 42513.80026504997, 17003.55315250792, 26327.69511076154, 23339.49039453154, -187500.02235174447, -187500.02235174447, 0.198, 0.96, -0.026000000000000002, 192.0, 0.0, 0.0, 0.0, 0.0, 0.0, 0.0, 0.0, 0.0, 0.0, 1.7296927621141615E9, 0.0, 2024-10-23 19:42:42.114
108.0, 6832.011858464702, 29599.61051936275, 42510.51455861504, 17047.966068740614, 26326.44341307204, 23352.744978993534, -187500.02235174447, -187500.02235174447, 0.198, 0.96, -0.026000000000000002, 192.0, 0.0, 0.0, 0.0, 0.0, 0.0, 0.0, 0.0, 0.0, 0.0, 1.72969276211815E9, 0.0, 2024-10-23 19:42:42.118
109.0, 6858.588082622062, 29899.079191574958, 42511.967422004636, 17027.51422256401, 26331.092575918745, 23342.664342244192, -187500.02235174447, -187500.02235174447, 0.20400000000000001, 0.964, -0.026000000000000002, 192.0, 6.0, 96.0, 30.0, 32.0, 255.0, 48.0, 0.0, 0.0, 0.0, 1.729692762121106E9, 0.0, 2024-10-23 19:42:42.121
110.0, 6873.0720130291, 29605.62313862123, 42502.26676491103, 16975.904044616706, 26320.386090324653, 23290.450667196594, -187500.02235174447, -187500.02235174447, 0.20400000000000001, 0.964, -0.026000000000000002, 192.0, 0.0, 0.0, 0.0, 0.0, 0.0, 0.0, 0.0, 0.0, 0.0, 1.7296927621250937E9, 0.0, 2024-10-23 19:42:42.125
111.0, 6871.954425806335, 28989.854930621976, 42495.114206685335, 16941.482358155532, 26318.419136812587, 23275.720867600547, -187500.02235174447, -187500.02235174447, 0.20400000000000001, 0.964, -0.026000000000000002, 192.0, 0.0, 0.0, 0.0, 0.0, 0.0, 0.0, 0.0, 0.0, 0.0, 1.729692762131137E9, 0.0, 2024-10-23 19:42:42.131
112.0, 6823.182919404855, 29014.598311734, 42488.85571823784, 16989.65036745672, 26305.34336630623, 23316.579856464847, -187500.02235174447, -187500.02235174447, 0.20400000000000001, 0.964, -0.026000000000000002, 192.0, 0.0, 0.0, 0.0, 0.0, 0.0, 0.0, 0.0, 0.0, 0.0, 1.7296927621341527E9, 0.0, 2024-10-23 19:42:42.134
113.0, 6827.586213062551, 29619.14594401669, 42489.70508452715, 17036.589030812866, 26295.575653979264, 23335.064749129386, -187500.02235174447, -187500.02235174447, 0.20400000000000001, 0.964, -0.026000000000000002, 192.0, 0.0, 0.0, 0.0, 0.0, 0.0, 0.0, 0.0, 0.0, 0.0, 1.7296927621371295E9, 0.0, 2024-10-23 19:42:42.137
114.0, 6843.366544647997, 29915.284206305052, 42488.2298693931, 17013.85730670182, 26311.40068905362, 23333.410720039694, -187500.02235174447, -187500.02235174447, 0.20400000000000001, 0.964, -0.026000000000000002, 192.0, 0.0, 0.0, 0.0, 0.0, 0.0, 0.0, 0.0, 0.0, 0.0, 1.7296927621411552E9, 0.0, 2024-10-23 19:42:42.141
115.0, 6862.521989646196, 29619.34710971679, 42503.160834689246, 16971.88073061475, 26332.388977097155, 23324.04533911292, -187500.02235174447, -187500.02235174447, 0.20400000000000001, 0.964, -0.026000000000000002, 192.0, 0.0, 0.0, 0.0, 0.0, 0.0, 0.0, 0.0, 0.0, 0.0, 1.729692762144118E9, 0.0, 2024-10-23 19:42:42.144
116.0, 6862.700803601838, 28992.179512045328, 42501.0821224549, 16931.289962683913, 26321.056642658314, 23283.61103339327, -187500.02235174447, -187500.02235174447, 0.20400000000000001, 0.964, -0.026000000000000002, 192.0, 0.0, 0.0, 0.0, 0.0, 0.0, 0.0, 0.0, 0.0, 0.0, 1.7296927621491208E9, 0.0, 2024-10-23 19:42:42.149
117.0, 6816.320933857076, 29006.886959896918, 42496.45531135265, 16970.472570714068, 26313.054718143314, 23288.573120662346, -187500.02235174447, -187500.02235174447, 0.20400000000000001, 0.964, -0.026000000000000002, 192.0, 0.0, 0.0, 0.0, 0.0, 0.0, 0.0, 0.0, 0.0, 0.0, 1.7296927621531484E9, 0.0, 2024-10-23 19:42:42.153
118.0, 6823.004105449213, 29611.009909034958, 42502.04324746648, 17017.52299279249, 26313.747622221428, 23328.225115326062, -187500.02235174447, -187500.02235174447, 0.20400000000000001, 0.964, -0.026000000000000002, 192.0, 0.0, 0.0, 0.0, 0.0, 0.0, 0.0, 0.0, 0.0, 0.0, 1.7296927621571553E9, 0.0, 2024-10-23 19:42:42.157
119.0, 6846.0487539826345, 29913.361956281897, 42507.832349280405, 17000.714480962095, 26316.273369344875, 23337.366978808284, -187500.02235174447, -187500.02235174447, 0.202, 0.962, -0.032, 192.0, 6.0, 80.0, 30.0, 16.0, 255.0, 0.0, 0.0, 0.0, 0.0, 1.729692762161886E9, 0.0, 2024-10-23 19:42:42.161
120.0, 6864.511294902718, 29613.937987558606, 42509.48637837009, 16957.441503696624, 26314.217008854986, 23305.001652837, -187500.02235174447, -187500.02235174447, 0.202, 0.962, -0.032, 192.0, 0.0, 0.0, 0.0, 0.0, 0.0, 0.0, 0.0, 0.0, 0.0, 1.729692762165146E9, 0.0, 2024-10-23 19:42:42.165
121.0, 6861.292643701154, 28979.68488689481, 42506.24537542408, 16924.807956791872, 26319.939055435545, 23296.396231221705, -187500.02235174447, -187500.02235174447, 0.202, 0.962, -0.032, 192.0, 0.0, 0.0, 0.0, 0.0, 0.0, 0.0, 0.0, 0.0, 0.0, 1.729692762169181E9, 0.0, 2024-10-23 19:42:42.169
122.0, 6817.237355379743, 28994.07941032403, 42503.31729690043, 16969.60085268031, 26318.039157156847, 23323.888876901732, -187500.02235174447, -187500.02235174447, 0.202, 0.962, -0.032, 192.0, 0.0, 0.0, 0.0, 0.0, 0.0, 0.0, 0.0, 0.0, 0.0, 1.729692762174189E9, 0.0, 2024-10-23 19:42:42.174
123.0, 6819.427826336364, 29588.94873725757, 42504.971325990125, 17011.75624272302, 26314.35111932172, 23330.84026942733, -187500.02235174447, -187500.02235174447, 0.202, 0.962, -0.032, 192.0, 0.0, 0.0, 0.0, 0.0, 0.0, 0.0, 0.0, 0.0, 0.0, 1.729692762177186E9, 0.0, 2024-10-23 19:42:42.177
124.0, 6847.076934227578, 29892.194854282723, 42515.8342737954, 16998.971044894584, 26323.425927570574, 23341.502051532516, -187500.02235174447, -187500.02235174447, 0.202, 0.962, -0.032, 192.0, 0.0, 0.0, 0.0, 0.0, 0.0, 0.0, 0.0, 0.0, 0.0, 1.7296927621811683E9, 0.0, 2024-10-23 19:42:42.181
125.0, 6867.484076915273, 29588.85933027975, 42523.79149482149, 16958.78260836394, 26323.60474152622, 23319.93261813314, -187500.02235174447, -187500.02235174447, 0.202, 0.962, -0.032, 192.0, 0.0, 0.0, 0.0, 0.0, 0.0, 0.0, 0.0, 0.0, 0.0, 1.7296927621862044E9, 0.0, 2024-10-23 19:42:42.186
126.0, 6867.729946104282, 28949.465328391234, 42522.80801806546, 16922.058692223873, 26317.569770523285, 23292.328213730838, -187500.02235174447, -187500.02235174447, 0.202, 0.962, -0.032, 192.0, 0.0, 0.0, 0.0, 0.0, 0.0, 0.0, 0.0, 0.0, 0.0, 1.7296927621902237E9, 0.0, 2024-10-23 19:42:42.190
127.0, 6829.642573552439, 28960.06005526305, 42523.92560528823, 16976.17226555017, 26316.318072833787, 23333.745996206522, -187500.02235174447, -187500.02235174447, 0.202, 0.962, -0.032, 192.0, 0.0, 0.0, 0.0, 0.0, 0.0, 0.0, 0.0, 0.0, 0.0, 1.729692762193334E9, 0.0, 2024-10-23 19:42:42.193
128.0, 6835.655192810917, 29551.867193206217, 42523.70208784367, 17022.954466695126, 26316.474535044974, 23335.780004951957, -187500.02235174447, -187500.02235174447, 0.202, 0.962, -0.032, 192.0, 0.0, 0.0, 0.0, 0.0, 0.0, 0.0, 0.0, 0.0, 0.0, 1.7296927621972115E9, 0.0, 2024-10-23 19:42:42.197
129.0, 6859.571559378095, 29850.62060959585, 42525.33376518891, 17006.905914176215, 26315.044023399834, 23324.47002225757, -187500.02235174447, -187500.02235174447, 0.196, 0.962, -0.032, 192.0, 6.0, 32.0, 30.0, 16.0, 255.0, 0.0, 0.0, 0.0, 0.0, 1.7296927622002983E9, 0.0, 2024-10-23 19:42:42.200
130.0, 6879.576370665595, 29550.526088538896, 42524.43969541069, 16973.087724815337, 26327.35983459471, 23315.79754540891, -187500.02235174447, -187500.02235174447, 0.196, 0.962, -0.032, 192.0, 0.0, 0.0, 0.0, 0.0, 0.0, 0.0, 0.0, 0.0, 0.0, 1.7296927622042527E9, 0.0, 2024-10-23 19:42:42.204
131.0, 6882.370338722509, 28920.028080943597, 42524.08206749941, 16950.043076281916, 26336.680512032573, 23329.14153684873, -187500.02235174447, -187500.02235174447, 0.196, 0.962, -0.032, 192.0, 0.0, 0.0, 0.0, 0.0, 0.0, 0.0, 0.0, 0.0, 0.0, 1.7296927622092516E9, 0.0, 2024-10-23 19:42:42.209
132.0, 6839.030306223668, 28927.4265083583, 42514.29200342799, 16999.88746641725, 26313.63586349915, 23353.415531327195, -187500.02235174447, -187500.02235174447, 0.196, 0.962, -0.032, 192.0, 0.0, 0.0, 0.0, 0.0, 0.0, 0.0, 0.0, 0.0, 0.0, 1.7296927622133484E9, 0.0, 2024-10-23 19:42:42.213
133.0, 6839.589099835051, 29503.11803854919, 42504.524291101014, 17038.555984324932, 26312.384165809653, 23354.33195284986, -187500.02235174447, -187500.02235174447, 0.196, 0.962, -0.032, 192.0, 0.0, 0.0, 0.0, 0.0, 0.0, 0.0, 0.0, 0.0, 0.0, 1.7296927622172525E9, 0.0, 2024-10-23 19:42:42.217
134.0, 6859.035117511167, 29786.85108266486, 42497.84111950888, 17010.146917122238, 26309.97017740848, 23328.716853704078, -187500.02235174447, -187500.02235174447, 0.196, 0.962, -0.032, 192.0, 0.0, 0.0, 0.0, 0.0, 0.0, 0.0, 0.0, 0.0, 0.0, 1.7296927622212503E9, 0.0, 2024-10-23 19:42:42.221
135.0, 6869.1157542605115, 29479.894576060127, 42485.77117750301, 16952.41236119418, 26292.446409755517, 23274.51387339996, -187500.02235174447, -187500.02235174447, 0.196, 0.962, -0.032, 192.0, 0.0, 0.0, 0.0, 0.0, 0.0, 0.0, 0.0, 0.0, 0.0, 1.7296927622264683E9, 0.0, 2024-10-23 19:42:42.226
136.0, 6869.674547871894, 28862.09235931544, 42476.8751832098, 16916.671921810143, 26283.28219452884, 23261.59456510479, -187500.02235174447, -187500.02235174447, 0.196, 0.962, -0.032, 192.0, 0.0, 0.0, 0.0, 0.0, 0.0, 0.0, 0.0, 0.0, 0.0, 1.7296927622292583E9, 0.0, 2024-10-23 19:42:42.229
137.0, 6829.664925296895, 28885.271118315595, 42476.65166576525, 16970.87490211426, 26283.885691629137, 23319.597341966313, -187500.02235174447, -187500.02235174447, 0.196, 0.962, -0.032, 192.0, 0.0, 0.0, 0.0, 0.0, 0.0, 0.0, 0.0, 0.0, 0.0, 1.7296927622471392E9, 0.0, 2024-10-23 19:42:42.247
138.0, 6833.35296313202, 29465.656514842096, 42478.50686055504, 17013.209106112612, 26290.591214965727, 23321.720757689567, -187500.02235174447, -187500.02235174447, 0.196, 0.962, -0.032, 192.0, 0.0, 0.0, 0.0, 0.0, 0.0, 0.0, 0.0, 0.0, 0.0, 1.7296927622471805E9, 0.0, 2024-10-23 19:42:42.247
139.0, 6854.967100020302, 29749.926000824693, 42480.898497211754, 16988.465725000588, 26297.006165624403, 23323.888876901732, -187500.02235174447, -187500.02235174447, 0.192, 0.968, -0.032, 192.0, 6.0, 0.0, 30.0, 64.0, 255.0, 0.0, 0.0, 0.0, 0.0, 1.7296927622471952E9, 0.0, 2024-10-23 19:42:42.247
140.0, 6875.776574108193, 29455.084139714738, 42488.2298693931, 16947.807901836386, 26301.141238348635, 23323.933580390643, -187500.02235174447, -187500.02235174447, 0.192, 0.968, -0.032, 192.0, 0.0, 0.0, 0.0, 0.0, 0.0, 0.0, 0.0, 0.0, 0.0, 1.729692762247208E9, 0.0, 2024-10-23 19:42:42.247
141.0, 6874.010786296223, 28836.74548110312, 42483.424244335205, 16908.267665894946, 26292.602871966705, 23291.65766139718, -187500.02235174447, -187500.02235174447, 0.192, 0.968, -0.032, 192.0, 0.0, 0.0, 0.0, 0.0, 0.0, 0.0, 0.0, 0.0, 0.0, 1.7296927622493317E9, 0.0, 2024-10-23 19:42:42.249
142.0, 6825.283983383654, 28844.6579986403, 42476.91988669871, 16945.1480442462, 26295.173322579067, 23305.13576330373, -187500.02235174447, -187500.02235174447, 0.192, 0.968, -0.032, 192.0, 0.0, 0.0, 0.0, 0.0, 0.0, 0.0, 0.0, 0.0, 0.0, 1.729692762255319E9, 0.0, 2024-10-23 19:42:42.255
143.0, 6825.641611294939, 29415.20862760647, 42477.50103205455, 16984.084783087346, 26289.339517276232, 23305.359280748282, -187500.02235174447, -187500.02235174447, 0.192, 0.968, -0.032, 192.0, 0.0, 0.0, 0.0, 0.0, 0.0, 0.0, 0.0, 0.0, 0.0, 1.729692762258283E9, 0.0, 2024-10-23 19:42:42.258
144.0, 6841.511349858207, 29694.91835772018, 42471.84604070736, 16951.518291415967, 26272.039267067823, 23265.997858762486, -187500.02235174447, -187500.02235174447, 0.192, 0.968, -0.032, 192.0, 0.0, 0.0, 0.0, 0.0, 0.0, 0.0, 0.0, 0.0, 0.0, 1.729692762262319E9, 0.0, 2024-10-23 19:42:42.262
145.0, 6859.146876233444, 29408.100772869682, 42479.713854755624, 16910.748709529485, 26293.78751442284, 23260.521681370938, -187500.02235174447, -187500.02235174447, 0.192, 0.968, -0.032, 192.0, 0.0, 0.0, 0.0, 0.0, 0.0, 0.0, 0.0, 0.0, 0.0, 1.72969276226532E9, 0.0, 2024-10-23 19:42:42.265
146.0, 6861.560864634617, 28806.727088299645, 42483.424244335205, 16886.497066795477, 26293.720459189473, 23278.40307693518, -187500.02235174447, -187500.02235174447, 0.192, 0.968, -0.032, 192.0, 0.0, 0.0, 0.0, 0.0, 0.0, 0.0, 0.0, 0.0, 0.0, 1.729692762269372E9, 0.0, 2024-10-23 19:42:42.269
147.0, 6815.963305945791, 28825.793126320023, 42479.78090998899, 16937.950782531596, 26287.26080504189, 23326.23581006954, -187500.02235174447, -187500.02235174447, 0.192, 0.968, -0.032, 192.0, 0.0, 0.0, 0.0, 0.0, 0.0, 0.0, 0.0, 0.0, 0.0, 1.729692762273373E9, 0.0, 2024-10-23 19:42:42.273
148.0, 6819.9866199477465, 29403.138685600603, 42487.22404089261, 16987.16932382218, 26299.688374959038, 23332.986036895043, -187500.02235174447, -187500.02235174447, 0.192, 0.968, -0.032, 192.0, 0.0, 0.0, 0.0, 0.0, 0.0, 0.0, 0.0, 0.0, 0.0, 1.7296927622773457E9, 0.0, 2024-10-23 19:42:42.277
149.0, 6851.1002482295335, 29698.1593606662, 42505.15013994576, 16979.010937095994, 26318.73206123496, 23330.43793802714, -187500.02235174447, -187500.02235174447, 0.194, 0.964, -0.032, 192.0, 6.0, 16.0, 30.0, 32.0, 255.0, 0.0, 0.0, 0.0, 0.0, 1.7296927622813594E9, 0.0, 2024-10-23 19:42:42.281
150.0, 6868.378146693486, 29399.495351254387, 42509.84400628138, 16942.465834911567, 26320.430793813564, 23304.018176080965, -187500.02235174447, -187500.02235174447, 0.194, 0.964, -0.032, 192.0, 0.0, 0.0, 0.0, 0.0, 0.0, 0.0, 0.0, 0.0, 0.0, 1.729692762284356E9, 0.0, 2024-10-23 19:42:42.284
151.0, 6870.2333414832765, 28783.45892232167, 42506.714762057636, 16917.521288099444, 26311.44539254253, 23285.935614816623, -187500.02235174447, -187500.02235174447, 0.194, 0.964, -0.032, 192.0, 0.0, 0.0, 0.0, 0.0, 0.0, 0.0, 0.0, 0.0, 0.0, 1.7296927622883835E9, 0.0, 2024-10-23 19:42:42.288
152.0, 6826.714495028794, 28794.41127710477, 42502.155006188754, 16971.03136432545, 26310.417212297587, 23318.07742334335, -187500.02235174447, -187500.02235174447, 0.194, 0.964, -0.032, 192.0, 0.0, 0.0, 0.0, 0.0, 0.0, 0.0, 0.0, 0.0, 0.0, 1.729692762294003E9, 0.0, 2024-10-23 19:42:42.294
153.0, 6829.866090996992, 29375.064894564737, 42500.85860501035, 17020.875754460783, 26314.01584315489, 23345.793586467935, -187500.02235174447, -187500.02235174447, 0.194, 0.964, -0.032, 192.0, 0.0, 0.0, 0.0, 0.0, 0.0, 0.0, 0.0, 0.0, 0.0, 1.7296927622973783E9, 0.0, 2024-10-23 19:42:42.297
154.0, 6847.032230738668, 29661.837775926328, 42497.327029386404, 16998.680472216663, 26315.222837355475, 23328.18041183715, -187500.02235174447, -187500.02235174447, 0.194, 0.964, -0.032, 192.0, 0.0, 0.0, 0.0, 0.0, 0.0, 0.0, 0.0, 0.0, 0.0, 1.7296927623013673E9, 0.0, 2024-10-23 19:42:42.301
155.0, 6868.691071115861, 29373.2320515194, 42503.1831864337, 16966.11398054528, 26314.77580246637, 23321.273722800463, -187500.02235174447, -187500.02235174447, 0.194, 0.964, -0.032, 192.0, 0.0, 0.0, 0.0, 0.0, 0.0, 0.0, 0.0, 0.0, 0.0, 1.7296927623054252E9, 0.0, 2024-10-23 19:42:42.305
156.0, 6876.067146786112, 28766.538651769002, 42501.99854397757, 16943.49401515651, 26309.299625074822, 23309.13672556123, -187500.02235174447, -187500.02235174447, 0.194, 0.964, -0.032, 192.0, 0.0, 0.0, 0.0, 0.0, 0.0, 0.0, 0.0, 0.0, 0.0, 1.7296927623084285E9, 0.0, 2024-10-23 19:42:42.308
157.0, 6830.44723635283, 28779.994401931097, 42494.08602644039, 16992.08670760235, 26299.218988325476, 23333.790699695433, -187500.02235174447, -187500.02235174447, 0.194, 0.964, -0.032, 192.0, 0.0, 0.0, 0.0, 0.0, 0.0, 0.0, 0.0, 0.0, 0.0, 1.7296927623123927E9, 0.0, 2024-10-23 19:42:42.312
158.0, 6840.080838213067, 29376.651868421064, 42498.243450909074, 17043.786292527475, 26301.25299707091, 23362.33387736486, -187500.02235174447, -187500.02235174447, 0.194, 0.964, -0.032, 192.0, 0.0, 0.0, 0.0, 0.0, 0.0, 0.0, 0.0, 0.0, 0.0, 1.7296927623164077E9, 0.0, 2024-10-23 19:42:42.316
159.0, 6873.250826984743, 29692.459665830098, 42508.726419058614, 17029.391769098256, 26310.573674508774, 23352.275592359973, -187500.02235174447, -187500.02235174447, 0.19, 0.9560000000000001, -0.038, 192.0, 5.0, 240.0, 29.0, 224.0, 254.0, 208.0, 0.0, 0.0, 0.0, 1.729692762321404E9, 0.0, 2024-10-23 19:42:42.321
160.0, 6887.064205058123, 29396.142589586092, 42503.27259341152, 16978.720364418074, 26303.085840116244, 23311.193086051117, -187500.02235174447, -187500.02235174447, 0.19, 0.9560000000000001, -0.038, 192.0, 0.0, 0.0, 0.0, 0.0, 0.0, 0.0, 0.0, 0.0, 0.0, 1.729692762325395E9, 0.0, 2024-10-23 19:42:42.325
161.0, 6885.924266090902, 28770.02552390403, 42493.37077061782, 16940.230660466037, 26295.173322579067, 23292.819952108857, -187500.02235174447, -187500.02235174447, 0.19, 0.9560000000000001, -0.038, 192.0, 0.0, 0.0, 0.0, 0.0, 0.0, 0.0, 0.0, 0.0, 0.0, 1.7296927623293965E9, 0.0, 2024-10-23 19:42:42.329
162.0, 6838.851492268025, 28780.352029842383, 42482.59722979036, 16981.469628986077, 26287.953709120004, 23308.08619357183, -187500.02235174447, -187500.02235174447, 0.19, 0.9560000000000001, -0.038, 192.0, 0.0, 0.0, 0.0, 0.0, 0.0, 0.0, 0.0, 0.0, 0.0, 1.7296927623334332E9, 0.0, 2024-10-23 19:42:42.333
163.0, 6841.958384747313, 29384.497330724877, 42480.25029662255, 17029.07884467588, 26286.947880619515, 23338.10458637531, -187500.02235174447, -187500.02235174447, 0.19, 0.9560000000000001, -0.038, 192.0, 0.0, 0.0, 0.0, 0.0, 0.0, 0.0, 0.0, 0.0, 0.0, 1.7296927623364582E9, 0.0, 2024-10-23 19:42:42.336
164.0, 6864.980681536279, 29698.1593606662, 42481.16671814522, 17006.727100220574, 26289.67479344306, 23334.95299040711, -187500.02235174447, -187500.02235174447, 0.19, 0.9560000000000001, -0.038, 192.0, 0.0, 0.0, 0.0, 0.0, 0.0, 0.0, 0.0, 0.0, 0.0, 1.7296927623406355E9, 0.0, 2024-10-23 19:42:42.340
165.0, 6882.057414300134, 29406.245578079892, 42479.06565416642, 16954.424018195157, 26286.523197474864, 23300.17367603465, -187500.02235174447, -187500.02235174447, 0.19, 0.9560000000000001, -0.038, 192.0, 0.0, 0.0, 0.0, 0.0, 0.0, 0.0, 0.0, 0.0, 0.0, 1.7296927623444283E9, 0.0, 2024-10-23 19:42:42.344
166.0, 6885.253713757243, 28782.810721732465, 42477.143404143266, 16914.570857831342, 26287.57372946426, 23282.26992872595, -187500.02235174447, -187500.02235174447, 0.19, 0.9560000000000001, -0.038, 192.0, 0.0, 0.0, 0.0, 0.0, 0.0, 0.0, 0.0, 0.0, 0.0, 1.7296927623495529E9, 0.0, 2024-10-23 19:42:42.349
167.0, 6841.913681258403, 28791.61730904786, 42470.79550871796, 16954.26755598397, 26280.532929960842, 23292.775248619946, -187500.02235174447, -187500.02235174447, 0.19, 0.9560000000000001, -0.038, 192.0, 0.0, 0.0, 0.0, 0.0, 0.0, 0.0, 0.0, 0.0, 0.0, 1.7296927623534653E9, 0.0, 2024-10-23 19:42:42.353
168.0, 6842.785399292159, 29385.793731903286, 42467.68861623867, 16986.185847066146, 26272.933336846036, 23294.94336783211, -187500.02235174447, -187500.02235174447, 0.19, 0.9560000000000001, -0.038, 192.0, 0.0, 0.0, 0.0, 0.0, 0.0, 0.0, 0.0, 0.0, 0.0, 1.7296927623585007E9, 0.0, 2024-10-23 19:42:42.358
169.0, 6866.612358881517, 29693.73371526405, 42475.42231982021, 16960.056657797893, 26279.102418315702, 23301.939463846622, -187500.02235174447, -187500.02235174447, 0.188, 0.96, -0.038, 192.0, 5.0, 224.0, 30.0, 0.0, 254.0, 208.0, 0.0, 0.0, 0.0, 1.729692762362475E9, 0.0, 2024-10-23 19:42:42.362
170.0, 6880.604550910539, 29389.258252293857, 42476.13757564277, 16906.68069203862, 26281.181130550045, 23272.055181509877, -187500.02235174447, -187500.02235174447, 0.188, 0.96, -0.038, 192.0, 0.0, 0.0, 0.0, 0.0, 0.0, 0.0, 0.0, 0.0, 0.0, 1.7296927623654876E9, 0.0, 2024-10-23 19:42:42.365
171.0, 6874.1225450185, 28740.11888982283, 42465.49814528205, 16852.991801856973, 26269.513519944376, 23209.291483079374, -187500.02235174447, -187500.02235174447, 0.188, 0.96, -0.038, 192.0, 0.0, 0.0, 0.0, 0.0, 0.0, 0.0, 0.0, 0.0, 0.0, 1.7296927623684587E9, 0.0, 2024-10-23 19:42:42.368
172.0, 6834.336439888053, 28741.616456701337, 42471.1754883737, 16903.573799559334, 26284.511540473886, 23264.23207095052, -187500.02235174447, -187500.02235174447, 0.188, 0.96, -0.038, 192.0, 0.0, 0.0, 0.0, 0.0, 0.0, 0.0, 0.0, 0.0, 0.0, 1.729692762372496E9, 0.0, 2024-10-23 19:42:42.372
173.0, 6837.041000967146, 29331.61310334362, 42484.49712806906, 16961.151893276205, 26275.392028736118, 23316.110469831285, -187500.02235174447, -187500.02235174447, 0.188, 0.96, -0.038, 192.0, 0.0, 0.0, 0.0, 0.0, 0.0, 0.0, 0.0, 0.0, 0.0, 1.7296927623768883E9, 0.0, 2024-10-23 19:42:42.376
174.0, 6853.40247790843, 29633.026377323436, 42487.08993042588, 16944.857471568284, 26272.82157812376, 23330.147365349218, -187500.02235174447, -187500.02235174447, 0.188, 0.96, -0.038, 192.0, 0.0, 0.0, 0.0, 0.0, 0.0, 0.0, 0.0, 0.0, 0.0, 1.7296927623814683E9, 0.0, 2024-10-23 19:42:42.381
175.0, 6868.936940304869, 29328.03682423077, 42491.91790722822, 16906.05484319387, 26279.77297064936, 23297.17854227764, -187500.02235174447, -187500.02235174447, 0.188, 0.96, -0.038, 192.0, 0.0, 0.0, 0.0, 0.0, 0.0, 0.0, 0.0, 0.0, 0.0, 1.7296927623855038E9, 0.0, 2024-10-23 19:42:42.385
176.0, 6868.065222271111, 28684.194825195653, 42493.86250899584, 16879.657432992153, 26294.39101152313, 23275.27383271144, -187500.02235174447, -187500.02235174447, 0.188, 0.96, -0.038, 192.0, 0.0, 0.0, 0.0, 0.0, 0.0, 0.0, 0.0, 0.0, 0.0, 1.7296927623904912E9, 0.0, 2024-10-23 19:42:42.390
177.0, 6825.641611294939, 28684.395990895748, 42490.59915430536, 16939.78362557693, 26288.467799242473, 23308.063841827374, -187500.02235174447, -187500.02235174447, 0.188, 0.96, -0.038, 192.0, 0.0, 0.0, 0.0, 0.0, 0.0, 0.0, 0.0, 0.0, 0.0, 1.7296927623945196E9, 0.0, 2024-10-23 19:42:42.394
178.0, 6834.917585243891, 29284.540329520743, 42495.98592471909, 17002.770841451984, 26295.218026067978, 23328.85096417081, -187500.02235174447, -187500.02235174447, 0.188, 0.96, -0.038, 192.0, 0.0, 0.0, 0.0, 0.0, 0.0, 0.0, 0.0, 0.0, 0.0, 1.7296927623975165E9, 0.0, 2024-10-23 19:42:42.397
179.0, 6859.97389077829, 29598.492932139987, 42502.5349858445, 17000.26744607299, 26300.3589272927, 23344.98892366754, -187500.02235174447, -187500.02235174447, 0.194, 0.962, -0.032, 192.0, 6.0, 16.0, 30.0, 16.0, 255.0, 0.0, 0.0, 0.0, 0.0, 1.729692762400509E9, 0.0, 2024-10-23 19:42:42.400
180.0, 6877.810582853625, 29305.998004197838, 42505.105436456855, 16970.584329436344, 26309.143162863635, 23343.089025388843, -187500.02235174447, -187500.02235174447, 0.194, 0.962, -0.032, 192.0, 0.0, 0.0, 0.0, 0.0, 0.0, 0.0, 0.0, 0.0, 0.0, 1.7296927624045284E9, 0.0, 2024-10-23 19:42:42.404
181.0, 6876.022443297201, 28674.471816357593, 42497.12586368631, 16939.425997665643, 26306.080973873257, 23302.9005888582, -187500.02235174447, -187500.02235174447, 0.194, 0.962, -0.032, 192.0, 0.0, 0.0, 0.0, 0.0, 0.0, 0.0, 0.0, 0.0, 0.0, 1.7296927624097753E9, 0.0, 2024-10-23 19:42:42.409
182.0, 6830.179015419366, 28673.287173901463, 42487.67107578171, 16983.525989475966, 26292.33465103324, 23322.95010363461, -187500.02235174447, -187500.02235174447, 0.194, 0.962, -0.032, 192.0, 0.0, 0.0, 0.0, 0.0, 0.0, 0.0, 0.0, 0.0, 0.0, 1.7296927624135003E9, 0.0, 2024-10-23 19:42:42.413
183.0, 6837.4209806228855, 29261.562736220687, 42485.32414261391, 17034.264449389513, 26290.34534577672, 23351.605040026312, -187500.02235174447, -187500.02235174447, 0.194, 0.962, -0.032, 192.0, 0.0, 0.0, 0.0, 0.0, 0.0, 0.0, 0.0, 0.0, 0.0, 1.7296927624175227E9, 0.0, 2024-10-23 19:42:42.417
184.0, 6859.146876233444, 29563.311286367334, 42480.8761454673, 17007.867039187793, 26284.668002685074, 23327.867487414776, -187500.02235174447, -187500.02235174447, 0.194, 0.962, -0.032, 192.0, 0.0, 0.0, 0.0, 0.0, 0.0, 0.0, 0.0, 0.0, 0.0, 1.72969276242153E9, 0.0, 2024-10-23 19:42:42.421
185.0, 6874.547228163151, 29269.587012480144, 42477.88101171029, 16956.994468807516, 26284.936223618537, 23307.348586004806, -187500.02235174447, -187500.02235174447, 0.194, 0.962, -0.032, 192.0, 0.0, 0.0, 0.0, 0.0, 0.0, 0.0, 0.0, 0.0, 0.0, 1.7296927624245782E9, 0.0, 2024-10-23 19:42:42.424
186.0, 6877.117678775511, 28654.176432392174, 42477.85865996584, 16925.05382598088, 26281.87403462816, 23297.357356233282, -187500.02235174447, -187500.02235174447, 0.194, 0.962, -0.032, 192.0, 0.0, 0.0, 0.0, 0.0, 0.0, 0.0, 0.0, 0.0, 0.0, 1.7296927624305773E9, 0.0, 2024-10-23 19:42:42.430
187.0, 6832.727114287271, 28662.62539179628, 42473.47771805259, 16969.131466046747, 26278.2530520264, 23308.533228460936, -187500.02235174447, -187500.02235174447, 0.194, 0.962, -0.032, 192.0, 0.0, 0.0, 0.0, 0.0, 0.0, 0.0, 0.0, 0.0, 0.0, 1.7296927624335809E9, 0.0, 2024-10-23 19:42:42.433
188.0, 6836.571614333584, 29248.88929711453, 42472.76246223003, 17012.024463656482, 26274.92264210256, 23322.592475723326, -187500.02235174447, -187500.02235174447, 0.194, 0.962, -0.032, 192.0, 0.0, 0.0, 0.0, 0.0, 0.0, 0.0, 0.0, 0.0, 0.0, 1.7296927624366057E9, 0.0, 2024-10-23 19:42:42.436
189.0, 6862.276120457187, 29553.409463573633, 42476.53990704297, 16990.946768635127, 26277.403685737096, 23314.635254697234, -187500.02235174447, -187500.02235174447, 0.192, 0.966, -0.034, 192.0, 6.0, 0.0, 30.0, 48.0, 254.0, 240.0, 0.0, 0.0, 0.0, 1.729692762441716E9, 0.0, 2024-10-23 19:42:42.441
190.0, 6885.186658523877, 29268.000038623817, 42485.30179086945, 16952.010029793983, 26286.880825386146, 23301.492428957514, -187500.02235174447, -187500.02235174447, 0.192, 0.966, -0.034, 192.0, 0.0, 0.0, 0.0, 0.0, 0.0, 0.0, 0.0, 0.0, 0.0, 1.7296927624455943E9, 0.0, 2024-10-23 19:42:42.445
191.0, 6888.65117891445, 28654.10937715881, 42482.50782281254, 16914.459099109066, 26281.359944505686, 23277.643117623702, -187500.02235174447, -187500.02235174447, 0.192, 0.966, -0.034, 192.0, 0.0, 0.0, 0.0, 0.0, 0.0, 0.0, 0.0, 0.0, 0.0, 1.7296927624495907E9, 0.0, 2024-10-23 19:42:42.449
192.0, 6839.387934134953, 28652.76827249149, 42471.93544768518, 16951.227718738046, 26277.403685737096, 23297.8490946113, -187500.02235174447, -187500.02235174447, 0.192, 0.966, -0.034, 192.0, 0.0, 0.0, 0.0, 0.0, 0.0, 0.0, 0.0, 0.0, 0.0, 1.7296927624536593E9, 0.0, 2024-10-23 19:42:42.453
193.0, 6847.188692949855, 29226.53755265922, 42480.4738140671, 17000.26744607299, 26282.47753172845, 23340.33976082084, -187500.02235174447, -187500.02235174447, 0.192, 0.966, -0.034, 192.0, 0.0, 0.0, 0.0, 0.0, 0.0, 0.0, 0.0, 0.0, 0.0, 1.7296927624746306E9, 0.0, 2024-10-23 19:42:42.474
194.0, 6864.265425713709, 29511.499942719933, 42477.79160473247, 16971.388992236734, 26276.464912469975, 23307.907379616187, -187500.02235174447, -187500.02235174447, 0.192, 0.966, -0.034, 192.0, 0.0, 0.0, 0.0, 0.0, 0.0, 0.0, 0.0, 0.0, 0.0, 1.7296927624776127E9, 0.0, 2024-10-23 19:42:42.477
195.0, 6877.184734008877, 29218.4462211664, 42472.47188955211, 16919.622352078244, 26266.831310609738, 23266.422541907137, -187500.02235174447, -187500.02235174447, 0.192, 0.966, -0.034, 192.0, 0.0, 0.0, 0.0, 0.0, 0.0, 0.0, 0.0, 0.0, 0.0, 1.729692762481655E9, 0.0, 2024-10-23 19:42:42.481
196.0, 6876.424774697397, 28609.51764697047, 42469.96849417311, 16889.49220055249, 26272.687467657026, 23265.215547706553, -187500.02235174447, -187500.02235174447, 0.192, 0.966, -0.034, 192.0, 0.0, 0.0, 0.0, 0.0, 0.0, 0.0, 0.0, 0.0, 0.0, 1.7296927624847112E9, 0.0, 2024-10-23 19:42:42.484
197.0, 6834.403495121419, 28625.208571578096, 42478.5739157884, 16942.06350351137, 26298.011994124892, 23314.165868063676, -187500.02235174447, -187500.02235174447, 0.192, 0.966, -0.034, 192.0, 0.0, 0.0, 0.0, 0.0, 0.0, 0.0, 0.0, 0.0, 0.0, 1.7296927624886897E9, 0.0, 2024-10-23 19:42:42.488
198.0, 6836.415152122397, 29202.68824132541, 42482.1278431568, 16988.59983546732, 26285.96440386348, 23327.599266481313, -187500.02235174447, -187500.02235174447, 0.192, 0.966, -0.034, 192.0, 0.0, 0.0, 0.0, 0.0, 0.0, 0.0, 0.0, 0.0, 0.0, 1.7296927624916935E9, 0.0, 2024-10-23 19:42:42.491
199.0, 6854.341251175553, 29503.430962971564, 42478.61861927732, 16967.253919512503, 26275.28027001384, 23322.95010363461, -187500.02235174447, -187500.02235174447, 0.188, 0.97, -0.036000000000000004, 192.0, 5.0, 224.0, 30.0, 80.0, 254.0, 224.0, 0.0, 0.0, 0.0, 1.72969276249471E9, 0.0, 2024-10-23 19:42:42.494
200.0, 6873.608454896028, 29222.044852023704, 42483.08896816838, 16928.563049860364, 26291.90996788859, 23308.935559861133, -187500.02235174447, -187500.02235174447, 0.188, 0.97, -0.036000000000000004, 192.0, 0.0, 0.0, 0.0, 0.0, 0.0, 0.0, 0.0, 0.0, 0.0, 1.72969276249871E9, 0.0, 2024-10-23 19:42:42.498
201.0, 6881.006882310735, 28614.323272028363, 42490.66620953873, 16903.573799559334, 26305.835104684247, 23294.406925965184, -187500.02235174447, -187500.02235174447, 0.188, 0.97, -0.036000000000000004, 192.0, 0.0, 0.0, 0.0, 0.0, 0.0, 0.0, 0.0, 0.0, 0.0, 1.7296927625016887E9, 0.0, 2024-10-23 19:42:42.501
202.0, 6831.20719566431, 28619.866504653277, 42476.428148320694, 16942.68935235612, 26275.839063625226, 23304.57696969235, -187500.02235174447, -187500.02235174447, 0.188, 0.97, -0.036000000000000004, 192.0, 0.0, 0.0, 0.0, 0.0, 0.0, 0.0, 0.0, 0.0, 0.0, 1.7296927625047233E9, 0.0, 2024-10-23 19:42:42.504
203.0, 6828.659096796406, 29203.4929041258, 42469.63321800628, 16986.521123232975, 26286.83612189724, 23324.827650168856, -187500.02235174447, -187500.02235174447, 0.188, 0.97, -0.036000000000000004, 192.0, 0.0, 0.0, 0.0, 0.0, 0.0, 0.0, 0.0, 0.0, 0.0, 1.7296927625087304E9, 0.0, 2024-10-23 19:42:42.508
204.0, 6848.820370295092, 29519.971253868494, 42471.08608139588, 16970.45021896961, 26285.897348630115, 23311.930693618142, -187500.02235174447, -187500.02235174447, 0.188, 0.97, -0.036000000000000004, 192.0, 0.0, 0.0, 0.0, 0.0, 0.0, 0.0, 0.0, 0.0, 0.0, 1.7296927625117178E9, 0.0, 2024-10-23 19:42:42.511
205.0, 6861.180884978877, 29232.170192261958, 42464.71583422612, 16930.418244650155, 26279.504749715896, 23306.36510924877, -187500.02235174447, -187500.02235174447, 0.188, 0.97, -0.036000000000000004, 192.0, 0.0, 0.0, 0.0, 0.0, 0.0, 0.0, 0.0, 0.0, 0.0, 1.7296927625147612E9, 0.0, 2024-10-23 19:42:42.514
206.0, 6865.606530381028, 28603.817952134366, 42467.04041564947, 16906.16660191615, 26283.28219452884, 23287.366126461762, -187500.02235174447, -187500.02235174447, 0.188, 0.97, -0.036000000000000004, 192.0, 0.0, 0.0, 0.0, 0.0, 0.0, 0.0, 0.0, 0.0, 0.0, 1.7296927625187051E9, 0.0, 2024-10-23 19:42:42.518
207.0, 6823.071160682579, 28611.37284176026, 42461.13955511327, 16959.34140197532, 26269.938203089027, 23307.817972638368, -187500.02235174447, -187500.02235174447, 0.188, 0.97, -0.036000000000000004, 192.0, 0.0, 0.0, 0.0, 0.0, 0.0, 0.0, 0.0, 0.0, 0.0, 1.7296927625217235E9, 0.0, 2024-10-23 19:42:42.521
208.0, 6833.442370109841, 29220.904913056485, 42464.022930148, 17016.003074169526, 26276.53196770334, 23344.921868434176, -187500.02235174447, -187500.02235174447, 0.188, 0.97, -0.036000000000000004, 192.0, 0.0, 0.0, 0.0, 0.0, 0.0, 0.0, 0.0, 0.0, 0.0, 1.7296927625247324E9, 0.0, 2024-10-23 19:42:42.524
209.0, 6856.598777365539, 29542.27829483489, 42466.88395343828, 16994.165419836692, 26276.196691536512, 23323.888876901732, -187500.02235174447, -187500.02235174447, 0.188, 0.974, -0.036000000000000004, 192.0, 5.0, 224.0, 30.0, 112.0, 254.0, 224.0, 0.0, 0.0, 0.0, 1.7296927625297463E9, 0.0, 2024-10-23 19:42:42.529
210.0, 6869.763954849715, 29233.399538207002, 42462.7712324585, 16938.464872654065, 26264.909060586582, 23293.915187587165, -187500.02235174447, -187500.02235174447, 0.188, 0.974, -0.036000000000000004, 192.0, 0.0, 0.0, 0.0, 0.0, 0.0, 0.0, 0.0, 0.0, 0.0, 1.729692762532714E9, 0.0, 2024-10-23 19:42:42.532
211.0, 6867.774649593192, 28574.403056431183, 42455.99865388854, 16896.644758778188, 26259.365827961665, 23270.0435245089, -187500.02235174447, -187500.02235174447, 0.188, 0.974, -0.036000000000000004, 192.0, 0.0, 0.0, 0.0, 0.0, 0.0, 0.0, 0.0, 0.0, 0.0, 1.729692762536724E9, 0.0, 2024-10-23 19:42:42.536
212.0, 6824.054637438612, 28568.837472061812, 42450.18720033016, 16938.800148820897, 26258.069426783255, 23291.076516041343, -187500.02235174447, -187500.02235174447, 0.188, 0.974, -0.036000000000000004, 192.0, 0.0, 0.0, 0.0, 0.0, 0.0, 0.0, 0.0, 0.0, 0.0, 1.7296927625397751E9, 0.0, 2024-10-23 19:42:42.539
213.0, 6827.809730507104, 29171.44050257689, 42450.008386374524, 16982.18488480865, 26254.247278481398, 23300.330138245838, -187500.02235174447, -187500.02235174447, 0.188, 0.974, -0.036000000000000004, 192.0, 0.0, 0.0, 0.0, 0.0, 0.0, 0.0, 0.0, 0.0, 0.0, 1.7296927625437622E9, 0.0, 2024-10-23 19:42:42.543
214.0, 6853.067201741601, 29499.385297225155, 42461.765403958016, 16959.386105464233, 26262.58447916323, 23282.94048105961, -187500.02235174447, -187500.02235174447, 0.188, 0.974, -0.036000000000000004, 192.0, 0.0, 0.0, 0.0, 0.0, 0.0, 0.0, 0.0, 0.0, 0.0, 1.7296927625471733E9, 0.0, 2024-10-23 19:42:42.547
215.0, 6865.271254214198, 29191.02063071974, 42462.525363269495, 16908.692349039597, 26270.13936878912, 23278.93951880211, -187500.02235174447, -187500.02235174447, 0.188, 0.974, -0.036000000000000004, 192.0, 0.0, 0.0, 0.0, 0.0, 0.0, 0.0, 0.0, 0.0, 0.0, 1.7296927625497074E9, 0.0, 2024-10-23 19:42:42.549
216.0, 6861.02442276769, 28528.51492506444, 42451.72947069758, 16862.446589761566, 26259.142310517112, 23249.010532976456, -187500.02235174447, -187500.02235174447, 0.188, 0.974, -0.036000000000000004, 192.0, 0.0, 0.0, 0.0, 0.0, 0.0, 0.0, 0.0, 0.0, 0.0, 1.7296927625537503E9, 0.0, 2024-10-23 19:42:42.553
217.0, 6814.666904767383, 28525.58684654079, 42442.63231070427, 16905.987787960505, 26249.776929590338, 23258.08534122531, -187500.02235174447, -187500.02235174447, 0.188, 0.974, -0.036000000000000004, 192.0, 0.0, 0.0, 0.0, 0.0, 0.0, 0.0, 0.0, 0.0, 0.0, 1.729692762556736E9, 0.0, 2024-10-23 19:42:42.556
218.0, 6817.72909375776, 29141.310351051136, 42443.63813920476, 16961.040134553925, 26251.609772635675, 23293.6469666537, -187500.02235174447, -187500.02235174447, 0.188, 0.974, -0.036000000000000004, 192.0, 0.0, 0.0, 0.0, 0.0, 0.0, 0.0, 0.0, 0.0, 0.0, 1.729692762559737E9, 0.0, 2024-10-23 19:42:42.559
219.0, 6846.674602827383, 29481.481549916454, 42458.90438066774, 16950.803035593395, 26277.940127604026, 23311.550713962402, -187500.02235174447, -187500.02235174447, 0.194, 0.964, -0.04, 192.0, 6.0, 16.0, 30.0, 32.0, 254.0, 192.0, 0.0, 0.0, 0.0, 1.7296927625637789E9, 0.0, 2024-10-23 19:42:42.563
220.0, 6861.985547779268, 29182.616374804544, 42462.61477024732, 16906.3901193607, 26278.96830784897, 23294.406925965184, -187500.02235174447, -187500.02235174447, 0.194, 0.964, -0.04, 192.0, 0.0, 0.0, 0.0, 0.0, 0.0, 0.0, 0.0, 0.0, 0.0, 1.72969276256695E9, 0.0, 2024-10-23 19:42:42.566
221.0, 6861.963196034813, 28531.51005882145, 42455.663377721714, 16867.363973541735, 26257.62239189415, 23259.51585287045, -187500.02235174447, -187500.02235174447, 0.194, 0.964, -0.04, 192.0, 0.0, 0.0, 0.0, 0.0, 0.0, 0.0, 0.0, 0.0, 0.0, 1.7296927625697532E9, 0.0, 2024-10-23 19:42:42.569
222.0, 6816.96913444628, 28536.047462945877, 42445.87331365029, 16909.83228800682, 26262.249202996398, 23230.41388158964, -187500.02235174447, -187500.02235174447, 0.194, 0.964, -0.04, 192.0, 0.0, 0.0, 0.0, 0.0, 0.0, 0.0, 0.0, 0.0, 0.0, 1.7296927625737307E9, 0.0, 2024-10-23 19:42:42.573
223.0, 6819.718399014283, 29159.929354182408, 42450.522476497, 16969.422038724668, 26268.619450166163, 23303.124106302752, -187500.02235174447, -187500.02235174447, 0.194, 0.964, -0.04, 192.0, 0.0, 0.0, 0.0, 0.0, 0.0, 0.0, 0.0, 0.0, 0.0, 1.7296927625767524E9, 0.0, 2024-10-23 19:42:42.576
224.0, 6836.683373055861, 29492.74682912193, 42452.243560820054, 16955.78747460693, 26268.507691443887, 23325.922885647167, -187500.02235174447, -187500.02235174447, 0.194, 0.964, -0.04, 192.0, 0.0, 0.0, 0.0, 0.0, 0.0, 0.0, 0.0, 0.0, 0.0, 1.729692762581758E9, 0.0, 2024-10-23 19:42:42.581
225.0, 6847.2780999276765, 29187.556110329166, 42453.159982342724, 16904.400814104178, 26278.29775551531, 23300.307786501384, -187500.02235174447, -187500.02235174447, 0.194, 0.964, -0.04, 192.0, 0.0, 0.0, 0.0, 0.0, 0.0, 0.0, 0.0, 0.0, 0.0, 1.7296927625857775E9, 0.0, 2024-10-23 19:42:42.585
226.0, 6852.597815108039, 28537.612085057746, 42455.99865388854, 16870.71673521003, 26280.801150894305, 23277.330193201327, -187500.02235174447, -187500.02235174447, 0.194, 0.964, -0.04, 192.0, 0.0, 0.0, 0.0, 0.0, 0.0, 0.0, 0.0, 0.0, 0.0, 1.7296927625897737E9, 0.0, 2024-10-23 19:42:42.589
227.0, 6814.957477445302, 28544.429367116616, 42455.529267254984, 16926.26082018147, 26287.461970741984, 23299.86075161228, -187500.02235174447, -187500.02235174447, 0.194, 0.964, -0.04, 192.0, 0.0, 0.0, 0.0, 0.0, 0.0, 0.0, 0.0, 0.0, 0.0, 1.7296927625928726E9, 0.0, 2024-10-23 19:42:42.592
228.0, 6817.34911410202, 29162.544508283678, 42449.74016544106, 16979.12269581827, 26267.90419434359, 23332.27078107247, -187500.02235174447, -187500.02235174447, 0.194, 0.964, -0.04, 192.0, 0.0, 0.0, 0.0, 0.0, 0.0, 0.0, 0.0, 0.0, 0.0, 1.7296927625968049E9, 0.0, 2024-10-23 19:42:42.596
229.0, 6843.724172559282, 29497.239529757444, 42455.328101554886, 16964.594061922322, 26273.29096475732, 23326.638141469735, -187500.02235174447, -187500.02235174447, 0.194, 0.964, -0.04, 192.0, 0.0, 0.0, 0.0, 0.0, 0.0, 0.0, 0.0, 0.0, 0.0, 1.7296927626007867E9, 0.0, 2024-10-23 19:42:42.600
230.0, 6855.458838398318, 29188.271366151737, 42456.28922656646, 16914.30263689788, 26276.666078170074, 23291.501199185994, -187500.02235174447, -187500.02235174447, 0.196, 0.962, -0.038, 192.0, 6.0, 32.0, 30.0, 16.0, 254.0, 208.0, 0.0, 0.0, 0.0, 1.7296927626068175E9, 0.0, 2024-10-23 19:42:42.606
231.0, 6852.173131963388, 28526.25739887445, 42446.812086917416, 16874.29301432288, 26271.703990900995, 23270.669373353645, -187500.02235174447, -187500.02235174447, 0.196, 0.962, -0.038, 192.0, 0.0, 0.0, 0.0, 0.0, 0.0, 0.0, 0.0, 0.0, 0.0, 1.7296927626097803E9, 0.0, 2024-10-23 19:42:42.609
232.0, 6804.049826151112, 28513.293387090373, 42429.042450075445, 16917.610695077266, 26263.76912161936, 23282.538149659416, -187500.02235174447, -187500.02235174447, 0.196, 0.962, -0.038, 192.0, 0.0, 0.0, 0.0, 0.0, 0.0, 0.0, 0.0, 0.0, 0.0, 1.7296927626147928E9, 0.0, 2024-10-23 19:42:42.614
233.0, 6803.468680795274, 29115.561141438622, 42423.90154885072, 16960.235471753535, 26266.85366235419, 23287.924920073143, -187500.02235174447, -187500.02235174447, 0.196, 0.962, -0.038, 192.0, 0.0, 0.0, 0.0, 0.0, 0.0, 0.0, 0.0, 0.0, 0.0, 1.729692762617829E9, 0.0, 2024-10-23 19:42:42.617
234.0, 6831.698934042327, 29447.417491366567, 42437.40200250173, 16947.293811713913, 26278.63303168214, 23306.81214413788, -187500.02235174447, -187500.02235174447, 0.196, 0.962, -0.038, 192.0, 0.0, 0.0, 0.0, 0.0, 0.0, 0.0, 0.0, 0.0, 0.0, 1.7296927626217723E9, 0.0, 2024-10-23 19:42:42.621
235.0, 6846.3393266605535, 29150.34045581108, 42437.089078079356, 16905.004311204473, 26274.87793861365, 23302.989995836022, -187500.02235174447, -187500.02235174447, 0.196, 0.962, -0.038, 192.0, 0.0, 0.0, 0.0, 0.0, 0.0, 0.0, 0.0, 0.0, 0.0, 1.729692762625847E9, 0.0, 2024-10-23 19:42:42.625
236.0, 6844.081800470567, 28503.503323018947, 42426.06966806289, 16866.91693865263, 26257.778854105338, 23264.008553505966, -187500.02235174447, -187500.02235174447, 0.196, 0.962, -0.038, 192.0, 0.0, 0.0, 0.0, 0.0, 0.0, 0.0, 0.0, 0.0, 0.0, 1.7296927626298442E9, 0.0, 2024-10-23 19:42:42.629
237.0, 6803.289866839632, 28500.1282096062, 42422.44868546113, 16920.427014878635, 26252.48149066943, 23297.022080066454, -187500.02235174447, -187500.02235174447, 0.196, 0.962, -0.038, 192.0, 0.0, 0.0, 0.0, 0.0, 0.0, 0.0, 0.0, 0.0, 0.0, 1.7296927626348023E9, 0.0, 2024-10-23 19:42:42.634
238.0, 6810.330666343054, 29098.350298208035, 42427.27666226347, 16966.4045532232, 26258.136482016624, 23288.550768917892, -187500.02235174447, -187500.02235174447, 0.196, 0.962, -0.038, 192.0, 0.0, 0.0, 0.0, 0.0, 0.0, 0.0, 0.0, 0.0, 0.0, 1.729692762638825E9, 0.0, 2024-10-23 19:42:42.638
239.0, 6838.49386435674, 29419.388403819612, 42439.61482520281, 16949.86426232627, 26272.463950212474, 23299.592530678812, -187500.02235174447, -187500.02235174447, 0.196, 0.962, -0.038, 192.0, 0.0, 0.0, 0.0, 0.0, 0.0, 0.0, 0.0, 0.0, 0.0, 1.729692762643158E9, 0.0, 2024-10-23 19:42:42.643
240.0, 6858.006937266224, 29137.66701670492, 42447.080307850876, 16909.541715328898, 26272.307488001286, 23306.521571459958, -187500.02235174447, -187500.02235174447, 0.202, 0.9560000000000001, -0.036000000000000004, 192.0, 6.0, 80.0, 29.0, 224.0, 254.0, 224.0, 0.0, 0.0, 0.0, 1.729692762646885E9, 0.0, 2024-10-23 19:42:42.646
241.0, 6859.92918728938, 28525.340977351785, 42444.576912471886, 16874.42712478961, 26265.66901989806, 23269.350620430785, -187500.02235174447, -187500.02235174447, 0.202, 0.9560000000000001, -0.036000000000000004, 192.0, 0.0, 0.0, 0.0, 0.0, 0.0, 0.0, 0.0, 0.0, 0.0, 1.729692762650899E9, 0.0, 2024-10-23 19:42:42.650
242.0, 6804.876840695959, 28516.31087259184, 42427.90251110822, 16907.664168794654, 26250.536888901817, 23258.97941100352, -187500.02235174447, -187500.02235174447, 0.202, 0.9560000000000001, -0.036000000000000004, 192.0, 0.0, 0.0, 0.0, 0.0, 0.0, 0.0, 0.0, 0.0, 0.0, 1.7296927626538515E9, 0.0, 2024-10-23 19:42:42.653
243.0, 6804.854488951503, 29080.066571243595, 42425.466170962594, 16952.21119549408, 26246.223002221945, 23294.496332943003, -187500.02235174447, -187500.02235174447, 0.202, 0.9560000000000001, -0.036000000000000004, 192.0, 0.0, 0.0, 0.0, 0.0, 0.0, 0.0, 0.0, 0.0, 0.0, 1.729692762656891E9, 0.0, 2024-10-23 19:42:42.656
244.0, 6833.911756743402, 29383.692667924486, 42435.747973412035, 16942.91286980067, 26256.728322115938, 23312.981225607542, -187500.02235174447, -187500.02235174447, 0.202, 0.9560000000000001, -0.036000000000000004, 192.0, 0.0, 0.0, 0.0, 0.0, 0.0, 0.0, 0.0, 0.0, 0.0, 1.7296927626608877E9, 0.0, 2024-10-23 19:42:42.660
245.0, 6864.64540536945, 29122.71369966432, 42453.49525850955, 16910.21226766256, 26267.01012456538, 23288.550768917892, -187500.02235174447, -187500.02235174447, 0.202, 0.9560000000000001, -0.036000000000000004, 192.0, 0.0, 0.0, 0.0, 0.0, 0.0, 0.0, 0.0, 0.0, 0.0, 1.7296927626648982E9, 0.0, 2024-10-23 19:42:42.664
246.0, 6874.077841529589, 28542.6859310491, 42460.24548533505, 16884.843037705785, 26272.262784512375, 23266.824873307334, -187500.02235174447, -187500.02235174447, 0.202, 0.9560000000000001, -0.036000000000000004, 192.0, 0.0, 0.0, 0.0, 0.0, 0.0, 0.0, 0.0, 0.0, 0.0, 1.7296927626759543E9, 0.0, 2024-10-23 19:42:42.675
247.0, 6822.735884515749, 28532.471183833026, 42454.702252710136, 16926.037302736917, 26267.166586776566, 23303.99582433651, -187500.02235174447, -187500.02235174447, 0.202, 0.9560000000000001, -0.036000000000000004, 192.0, 0.0, 0.0, 0.0, 0.0, 0.0, 0.0, 0.0, 0.0, 0.0, 1.7296927626789172E9, 0.0, 2024-10-23 19:42:42.678
248.0, 6824.769893261182, 29068.153091448916, 42459.30671206793, 16970.31610850288, 26274.833235124737, 23335.042397384932, -187500.02235174447, -187500.02235174447, 0.202, 0.9560000000000001, -0.036000000000000004, 192.0, 0.0, 0.0, 0.0, 0.0, 0.0, 0.0, 0.0, 0.0, 0.0, 1.7296927626829324E9, 0.0, 2024-10-23 19:42:42.682
249.0, 6851.50257962973, 29343.90656279404, 42466.54867727145, 16950.35600070429, 26278.856549126693, 23314.076461085853, -187500.02235174447, -187500.02235174447, 0.202, 0.9560000000000001, -0.036000000000000004, 192.0, 0.0, 0.0, 0.0, 0.0, 0.0, 0.0, 0.0, 0.0, 0.0, 1.7296927626860087E9, 0.0, 2024-10-23 19:42:42.686
250.0, 6881.342158477564, 29083.03935325615, 42479.89266871127, 16918.147136944193, 26294.43571501204, 23303.124106302752, -187500.02235174447, -187500.02235174447, 0.188, 0.964, -0.036000000000000004, 192.0, 5.0, 224.0, 30.0, 32.0, 254.0, 224.0, 0.0, 0.0, 0.0, 1.729692762689086E9, 0.0, 2024-10-23 19:42:42.689
251.0, 6884.091423045567, 28515.10387839125, 42473.63418026378, 16891.30269185337, 26286.277328285854, 23284.885082827223, -187500.02235174447, -187500.02235174447, 0.188, 0.964, -0.036000000000000004, 192.0, 0.0, 0.0, 0.0, 0.0, 0.0, 0.0, 0.0, 0.0, 0.0, 1.7296927626919508E9, 0.0, 2024-10-23 19:42:42.691
252.0, 6819.450178080819, 28489.287613545373, 42449.2707788075, 16919.197668933593, 26272.218081023468, 23299.43606846763, -187500.02235174447, -187500.02235174447, 0.188, 0.964, -0.036000000000000004, 192.0, 0.0, 0.0, 0.0, 0.0, 0.0, 0.0, 0.0, 0.0, 0.0, 1.729692762695963E9, 0.0, 2024-10-23 19:42:42.695
253.0, 6823.406436849408, 28994.615852190957, 42452.69059570916, 16968.706782902096, 26293.83221791175, 23326.7051967031, -187500.02235174447, -187500.02235174447, 0.188, 0.964, -0.036000000000000004, 192.0, 0.0, 0.0, 0.0, 0.0, 0.0, 0.0, 0.0, 0.0, 0.0, 1.72969276269893E9, 0.0, 2024-10-23 19:42:42.698
254.0, 6842.539530103151, 29247.995227336316, 42446.387403772766, 16953.619355394763, 26286.120866074667, 23313.919998874666, -187500.02235174447, -187500.02235174447, 0.188, 0.964, -0.036000000000000004, 192.0, 0.0, 0.0, 0.0, 0.0, 0.0, 0.0, 0.0, 0.0, 0.0, 1.7296927627020717E9, 0.0, 2024-10-23 19:42:42.702
255.0, 6857.135219232467, 28987.01625907615, 42441.64883394824, 16922.036340479415, 26287.238453297432, 23318.47975474355, -187500.02235174447, -187500.02235174447, 0.188, 0.964, -0.036000000000000004, 192.0, 0.0, 0.0, 0.0, 0.0, 0.0, 0.0, 0.0, 0.0, 0.0, 1.729692762705966E9, 0.0, 2024-10-23 19:42:42.705
0.0, 6859.5492076336395, 28442.57246763378, 42437.67022343519, 16897.20355238957, 26284.466836984975, 23289.198969507095, -187500.02235174447, -187500.02235174447, 0.188, 0.964, -0.036000000000000004, 192.0, 0.0, 0.0, 0.0, 0.0, 0.0, 0.0, 0.0, 0.0, 0.0, 1.729692762708933E9, 0.0, 2024-10-23 19:42:42.708
1.0, 6808.676637253361, 28439.756147832413, 42433.73631641106, 16937.459044153577, 26289.63008995415, 23325.185278080142, -187500.02235174447, -187500.02235174447, 0.188, 0.964, -0.036000000000000004, 192.0, 0.0, 0.0, 0.0, 0.0, 0.0, 0.0, 0.0, 0.0, 0.0, 1.7296927627136168E9, 0.0, 2024-10-23 19:42:42.713
2.0, 6808.676637253361, 28940.6810928203, 42427.58958668585, 16975.12173356077, 26283.505711973397, 23323.553600734904, -187500.02235174447, -187500.02235174447, 0.188, 0.964, -0.036000000000000004, 192.0, 0.0, 0.0, 0.0, 0.0, 0.0, 0.0, 0.0, 0.0, 0.0, 1.7296927627169895E9, 0.0, 2024-10-23 19:42:42.716
3.0, 6837.912719000902, 29207.002128005282, 42435.65856643421, 16965.666945656176, 26301.76708719338, 23329.18624033764, -187500.02235174447, -187500.02235174447, 0.188, 0.964, -0.036000000000000004, 192.0, 0.0, 0.0, 0.0, 0.0, 0.0, 0.0, 0.0, 0.0, 0.0, 1.7296927627209847E9, 0.0, 2024-10-23 19:42:42.720
4.0, 6851.8602075410145, 28946.380787656402, 42435.09977282283, 16925.724378314542, 26294.927453390057, 23300.687766157123, -187500.02235174447, -187500.02235174447, 0.186, 0.962, -0.036000000000000004, 192.0, 5.0, 208.0, 30.0, 16.0, 254.0, 224.0, 0.0, 0.0, 0.0, 1.7296927627250936E9, 0.0, 2024-10-23 19:42:42.725
5.0, 6857.269329699198, 28401.04292643582, 42437.290243779455, 16894.63310177721, 26296.87205515767, 23276.7937513344, -187500.02235174447, -187500.02235174447, 0.186, 0.962, -0.036000000000000004, 192.0, 0.0, 0.0, 0.0, 0.0, 0.0, 0.0, 0.0, 0.0, 0.0, 1.7296927627300072E9, 0.0, 2024-10-23 19:42:42.730
6.0, 6809.146023886922, 28398.606586290192, 42435.479752478575, 16928.831270793828, 26290.814732410283, 23299.43606846763, -187500.02235174447, -187500.02235174447, 0.186, 0.962, -0.036000000000000004, 192.0, 0.0, 0.0, 0.0, 0.0, 0.0, 0.0, 0.0, 0.0, 0.0, 1.7296927627329688E9, 0.0, 2024-10-23 19:42:42.732
7.0, 6813.079930911056, 28915.133048907883, 42438.050203090934, 16970.27140501397, 26290.993546365924, 23314.635254697234, -187500.02235174447, -187500.02235174447, 0.186, 0.962, -0.036000000000000004, 192.0, 0.0, 0.0, 0.0, 0.0, 0.0, 0.0, 0.0, 0.0, 0.0, 1.7296927627380035E9, 0.0, 2024-10-23 19:42:42.738
8.0, 6839.387934134953, 29184.62803180552, 42445.470982250095, 16948.59021289232, 26290.568863221273, 23297.647928911203, -187500.02235174447, -187500.02235174447, 0.186, 0.962, -0.036000000000000004, 192.0, 0.0, 0.0, 0.0, 0.0, 0.0, 0.0, 0.0, 0.0, 0.0, 1.7296927627410052E9, 0.0, 2024-10-23 19:42:42.741
9.0, 6861.963196034813, 28921.637406544378, 42451.46124976412, 16907.39594786119, 26290.72532543246, 23269.305916941874, -187500.02235174447, -187500.02235174447, 0.186, 0.962, -0.036000000000000004, 192.0, 0.0, 0.0, 0.0, 0.0, 0.0, 0.0, 0.0, 0.0, 0.0, 1.7296927627449968E9, 0.0, 2024-10-23 19:42:42.744
10.0, 6870.210989738821, 28357.434673003518, 42457.563276000415, 16879.299805080867, 26296.82735166876, 23250.530451599414, -187500.02235174447, -187500.02235174447, 0.186, 0.962, -0.036000000000000004, 192.0, 0.0, 0.0, 0.0, 0.0, 0.0, 0.0, 0.0, 0.0, 0.0, 1.7296927627491107E9, 0.0, 2024-10-23 19:42:42.749
11.0, 6822.288849626643, 28351.220888044943, 42452.57883698688, 16921.3434364013, 26291.3064707883, 23279.632422880226, -187500.02235174447, -187500.02235174447, 0.186, 0.962, -0.036000000000000004, 192.0, 0.0, 0.0, 0.0, 0.0, 0.0, 0.0, 0.0, 0.0, 0.0, 1.7296927627531128E9, 0.0, 2024-10-23 19:42:42.753
12.0, 6818.712570513794, 28884.891138659852, 42445.24746480554, 16958.804960108395, 26280.778799149848, 23275.27383271144, -187500.02235174447, -187500.02235174447, 0.186, 0.962, -0.036000000000000004, 192.0, 0.0, 0.0, 0.0, 0.0, 0.0, 0.0, 0.0, 0.0, 0.0, 1.7296927627580492E9, 0.0, 2024-10-23 19:42:42.758
13.0, 6843.768876048193, 29172.5357380552, 42449.82957241888, 16943.605773878786, 26282.946918362013, 23268.903585541677, -187500.02235174447, -187500.02235174447, 0.186, 0.962, -0.036000000000000004, 192.0, 0.0, 0.0, 0.0, 0.0, 0.0, 0.0, 0.0, 0.0, 0.0, 1.7296927627610207E9, 0.0, 2024-10-23 19:42:42.761
14.0, 6862.45493441283, 28908.136952893372, 42453.87523816529, 16909.16173567316, 26289.183055065045, 23260.36521915975, -187500.02235174447, -187500.02235174447, 0.19, 0.964, -0.032, 192.0, 5.0, 240.0, 30.0, 32.0, 255.0, 0.0, 0.0, 0.0, 0.0, 1.7296927627670856E9, 0.0, 2024-10-23 19:42:42.767
15.0, 6870.903893816936, 28330.880800590614, 42457.138592855765, 16890.90036045317, 26295.665060957082, 23272.166940232153, -187500.02235174447, -187500.02235174447, 0.19, 0.964, -0.032, 192.0, 0.0, 0.0, 0.0, 0.0, 0.0, 0.0, 0.0, 0.0, 0.0, 1.7296927627710807E9, 0.0, 2024-10-23 19:42:42.771
16.0, 6822.847643238026, 28337.89924834958, 42446.27564505049, 16941.705875600084, 26277.15781654809, 23291.121219530254, -187500.02235174447, -187500.02235174447, 0.19, 0.964, -0.032, 192.0, 0.0, 0.0, 0.0, 0.0, 0.0, 0.0, 0.0, 0.0, 0.0, 1.729692762774043E9, 0.0, 2024-10-23 19:42:42.774
17.0, 6821.461835081796, 28908.002842426642, 42443.14640082674, 16988.443373256134, 26279.907081116093, 23304.04052782542, -187500.02235174447, -187500.02235174447, 0.19, 0.964, -0.032, 192.0, 0.0, 0.0, 0.0, 0.0, 0.0, 0.0, 0.0, 0.0, 0.0, 1.7296927627791345E9, 0.0, 2024-10-23 19:42:42.779
18.0, 6843.768876048193, 29213.081802497127, 42450.79069743046, 16971.523102703464, 26289.138351576134, 23279.744181602502, -187500.02235174447, -187500.02235174447, 0.19, 0.964, -0.032, 192.0, 0.0, 0.0, 0.0, 0.0, 0.0, 0.0, 0.0, 0.0, 0.0, 1.7296927627822464E9, 0.0, 2024-10-23 19:42:42.782
19.0, 6859.057469255623, 28945.15144171136, 42449.807220674425, 16932.519308628955, 26298.280215058356, 23264.544995372893, -187500.02235174447, -187500.02235174447, 0.19, 0.964, -0.032, 192.0, 0.0, 0.0, 0.0, 0.0, 0.0, 0.0, 0.0, 0.0, 0.0, 1.7296927627861016E9, 0.0, 2024-10-23 19:42:42.786
20.0, 6861.002071023235, 28348.315161265753, 42445.24746480554, 16904.043186192892, 26301.320052304276, 23266.958983774064, -187500.02235174447, -187500.02235174447, 0.19, 0.964, -0.032, 192.0, 0.0, 0.0, 0.0, 0.0, 0.0, 0.0, 0.0, 0.0, 0.0, 1.7296927627890768E9, 0.0, 2024-10-23 19:42:42.789
21.0, 6810.308314598598, 28352.31612352325, 42430.83058963187, 16951.78651234943, 26284.422133496064, 23305.068708070365, -187500.02235174447, -187500.02235174447, 0.19, 0.964, -0.032, 192.0, 0.0, 0.0, 0.0, 0.0, 0.0, 0.0, 0.0, 0.0, 0.0, 1.7296927627922018E9, 0.0, 2024-10-23 19:42:42.792
22.0, 6804.63097150695, 28929.7287380372, 42415.98903131355, 16994.36658553679, 26270.63110716714, 23307.683862171634, -187500.02235174447, -187500.02235174447, 0.19, 0.964, -0.032, 192.0, 0.0, 0.0, 0.0, 0.0, 0.0, 0.0, 0.0, 0.0, 0.0, 1.7296927627971337E9, 0.0, 2024-10-23 19:42:42.797
23.0, 6824.97105896128, 29243.189602278424, 42420.32526973788, 16978.005108595506, 26290.747677176914, 23311.14838256221, -187500.02235174447, -187500.02235174447, 0.19, 0.964, -0.032, 192.0, 0.0, 0.0, 0.0, 0.0, 0.0, 0.0, 0.0, 0.0, 0.0, 1.7296927628010747E9, 0.0, 2024-10-23 19:42:42.801
24.0, 6835.1634544329, 28956.573183128025, 42422.13576103876, 16933.860413296272, 26295.1062673457, 23292.574082919848, -187500.02235174447, -187500.02235174447, 0.196, 0.9560000000000001, -0.034, 192.0, 6.0, 32.0, 29.0, 224.0, 254.0, 240.0, 0.0, 0.0, 0.0, 1.7296927628051476E9, 0.0, 2024-10-23 19:42:42.805
25.0, 6839.522044601685, 28333.36184422515, 42423.163941283696, 16906.5912850608, 26301.0071278819, 23291.81412360837, -187500.02235174447, -187500.02235174447, 0.196, 0.9560000000000001, -0.034, 192.0, 0.0, 0.0, 0.0, 0.0, 0.0, 0.0, 0.0, 0.0, 0.0, 1.7296927628092368E9, 0.0, 2024-10-23 19:42:42.809
26.0, 6795.578515002551, 28329.249123245376, 42418.64888890373, 16960.12371303126, 26300.87301741517, 23328.470984515072, -187500.02235174447, -187500.02235174447, 0.196, 0.9560000000000001, -0.034, 192.0, 0.0, 0.0, 0.0, 0.0, 0.0, 0.0, 0.0, 0.0, 0.0, 1.729692762814124E9, 0.0, 2024-10-23 19:42:42.814
27.0, 6791.711663211783, 28920.6762815328, 42411.89866207822, 17004.3131118194, 26291.06060159929, 23335.288266573938, -187500.02235174447, -187500.02235174447, 0.196, 0.9560000000000001, -0.034, 192.0, 0.0, 0.0, 0.0, 0.0, 0.0, 0.0, 0.0, 0.0, 0.0, 1.729692762817093E9, 0.0, 2024-10-23 19:42:42.817
28.0, 6811.20238437681, 29235.5006021858, 42415.63140340226, 16978.78741965144, 26287.48432248644, 23310.65664418419, -187500.02235174447, -187500.02235174447, 0.196, 0.9560000000000001, -0.034, 192.0, 0.0, 0.0, 0.0, 0.0, 0.0, 0.0, 0.0, 0.0, 0.0, 1.729692762820112E9, 0.0, 2024-10-23 19:42:42.820
29.0, 6829.888442741447, 28940.859906775942, 42420.660545904706, 16926.86431728176, 26291.284119043845, 23270.758780331467, -187500.02235174447, -187500.02235174447, 0.196, 0.9560000000000001, -0.034, 192.0, 0.0, 0.0, 0.0, 0.0, 0.0, 0.0, 0.0, 0.0, 0.0, 1.7296927628251135E9, 0.0, 2024-10-23 19:42:42.825
30.0, 6831.408361364408, 28292.815779783225, 42418.64888890373, 16882.518456282432, 26280.01883983837, 23227.195230388075, -187500.02235174447, -187500.02235174447, 0.196, 0.9560000000000001, -0.034, 192.0, 0.0, 0.0, 0.0, 0.0, 0.0, 0.0, 0.0, 0.0, 0.0, 1.7296927628301315E9, 0.0, 2024-10-23 19:42:42.830
31.0, 6789.387081788431, 28285.55146283525, 42413.84326384583, 16931.02174175045, 26264.037342552823, 23262.39922790518, -187500.02235174447, -187500.02235174447, 0.196, 0.9560000000000001, -0.034, 192.0, 0.0, 0.0, 0.0, 0.0, 0.0, 0.0, 0.0, 0.0, 0.0, 1.7296927628332226E9, 0.0, 2024-10-23 19:42:42.833
32.0, 6803.1557563729, 28901.09615338995, 42422.64985116123, 16988.13044883376, 26258.136482016624, 23307.750917405003, -187500.02235174447, -187500.02235174447, 0.196, 0.9560000000000001, -0.034, 192.0, 0.0, 0.0, 0.0, 0.0, 0.0, 0.0, 0.0, 0.0, 0.0, 1.7296927628371403E9, 0.0, 2024-10-23 19:42:42.837
33.0, 6829.799035763626, 29229.97972130534, 42431.07645882088, 16962.157721776694, 26270.63110716714, 23294.27281549845, -187500.02235174447, -187500.02235174447, 0.196, 0.9560000000000001, -0.034, 192.0, 0.0, 0.0, 0.0, 0.0, 0.0, 0.0, 0.0, 0.0, 0.0, 1.7296927628421235E9, 0.0, 2024-10-23 19:42:42.842
34.0, 6846.696954571838, 28936.09898520696, 42438.608996702314, 16906.077194938327, 26277.202520037, 23276.883158312223, -187500.02235174447, -187500.02235174447, 0.20400000000000001, 0.96, -0.038, 192.0, 6.0, 96.0, 30.0, 0.0, 254.0, 208.0, 0.0, 0.0, 0.0, 1.7296927628451672E9, 0.0, 2024-10-23 19:42:42.845
35.0, 6845.512312115707, 28285.50675934634, 42436.038546089956, 16856.14339782517, 26272.888633357124, 23238.460509593548, -187500.02235174447, -187500.02235174447, 0.20400000000000001, 0.96, -0.038, 192.0, 0.0, 0.0, 0.0, 0.0, 0.0, 0.0, 0.0, 0.0, 0.0, 1.7296927628482647E9, 0.0, 2024-10-23 19:42:42.848
36.0, 6803.043997650623, 28279.896471488057, 42431.1658657987, 16897.516476811943, 26268.73120888844, 23248.004704475967, -187500.02235174447, -187500.02235174447, 0.20400000000000001, 0.96, -0.038, 192.0, 0.0, 0.0, 0.0, 0.0, 0.0, 0.0, 0.0, 0.0, 0.0, 1.729692762853166E9, 0.0, 2024-10-23 19:42:42.853
37.0, 6814.130462900456, 28901.833760956975, 42440.084211836365, 16953.97698330605, 26275.883767114137, 23281.621728136746, -187500.02235174447, -187500.02235174447, 0.20400000000000001, 0.96, -0.038, 192.0, 0.0, 0.0, 0.0, 0.0, 0.0, 0.0, 0.0, 0.0, 0.0, 1.729692762857138E9, 0.0, 2024-10-23 19:42:42.857
38.0, 6830.983678219757, 29234.092442285117, 42442.36408977081, 16925.92554401464, 26275.77200839186, 23254.21848943454, -187500.02235174447, -187500.02235174447, 0.20400000000000001, 0.96, -0.038, 192.0, 0.0, 0.0, 0.0, 0.0, 0.0, 0.0, 0.0, 0.0, 0.0, 1.7296927628611712E9, 0.0, 2024-10-23 19:42:42.861
39.0, 6842.673640569883, 28953.5333458821, 42443.079345593374, 16877.3328515688, 26275.01204908038, 23239.22046890503, -187500.02235174447, -187500.02235174447, 0.20400000000000001, 0.96, -0.038, 192.0, 0.0, 0.0, 0.0, 0.0, 0.0, 0.0, 0.0, 0.0, 0.0, 1.7296927628652408E9, 0.0, 2024-10-23 19:42:42.865
40.0, 6845.2887946711535, 28331.216076757442, 42444.30869153842, 16848.38734249918, 26266.29486874281, 23237.78995725989, -187500.02235174447, -187500.02235174447, 0.20400000000000001, 0.96, -0.038, 192.0, 0.0, 0.0, 0.0, 0.0, 0.0, 0.0, 0.0, 0.0, 0.0, 1.7296927628721728E9, 0.0, 2024-10-23 19:42:42.872
41.0, 6801.211154605288, 28328.55621916726, 42438.16196181321, 16903.082061181314, 26261.48924368492, 23256.31955341334, -187500.02235174447, -187500.02235174447, 0.20400000000000001, 0.96, -0.038, 192.0, 0.0, 0.0, 0.0, 0.0, 0.0, 0.0, 0.0, 0.0, 0.0, 1.7296927628771613E9, 0.0, 2024-10-23 19:42:42.877
42.0, 6807.559050030595, 28929.169944425816, 42445.87331365029, 16961.64363165422, 26268.619450166163, 23288.03667879542, -187500.02235174447, -187500.02235174447, 0.20400000000000001, 0.96, -0.038, 192.0, 0.0, 0.0, 0.0, 0.0, 0.0, 0.0, 0.0, 0.0, 0.0, 1.7296927628802085E9, 0.0, 2024-10-23 19:42:42.880
43.0, 6830.44723635283, 29245.536535446234, 42453.9199416542, 16949.01489603697, 26271.81574962327, 23297.290300999917, -187500.02235174447, -187500.02235174447, 0.20400000000000001, 0.96, -0.038, 192.0, 0.0, 0.0, 0.0, 0.0, 0.0, 0.0, 0.0, 0.0, 0.0, 1.7296927628833492E9, 0.0, 2024-10-23 19:42:42.883
44.0, 6846.249919682732, 28956.662590105843, 42455.21634283261, 16908.267665894946, 26283.997450351413, 23284.773324104946, -187500.02235174447, -187500.02235174447, 0.2, 0.9540000000000001, -0.036000000000000004, 192.0, 6.0, 64.0, 29.0, 208.0, 254.0, 224.0, 0.0, 0.0, 0.0, 1.729692762886207E9, 0.0, 2024-10-23 19:42:42.886
45.0, 6845.02057373769, 28327.84096334469, 42453.20468583163, 16879.67978473661, 26290.09947658771, 23271.9434227876, -187500.02235174447, -187500.02235174447, 0.2, 0.9540000000000001, -0.036000000000000004, 192.0, 0.0, 0.0, 0.0, 0.0, 0.0, 0.0, 0.0, 0.0, 0.0, 1.7296927628902159E9, 0.0, 2024-10-23 19:42:42.890
46.0, 6797.545468514618, 28311.390079425586, 42443.54873222694, 16934.3968551632, 26292.33465103324, 23296.32917598834, -187500.02235174447, -187500.02235174447, 0.2, 0.9540000000000001, -0.036000000000000004, 192.0, 0.0, 0.0, 0.0, 0.0, 0.0, 0.0, 0.0, 0.0, 0.0, 1.7296927628933513E9, 0.0, 2024-10-23 19:42:42.893
47.0, 6789.252971321699, 28871.368333264392, 42425.86850236279, 16976.97692835056, 26277.560147948283, 23305.247522026006, -187500.02235174447, -187500.02235174447, 0.2, 0.9540000000000001, -0.036000000000000004, 192.0, 0.0, 0.0, 0.0, 0.0, 0.0, 0.0, 0.0, 0.0, 0.0, 1.7296927628971863E9, 0.0, 2024-10-23 19:42:42.897
48.0, 6801.658189494395, 29156.844813447573, 42413.664449890195, 16953.77581760595, 26266.138406531623, 23302.297091757908, -187500.02235174447, -187500.02235174447, 0.2, 0.9540000000000001, -0.036000000000000004, 192.0, 0.0, 0.0, 0.0, 0.0, 0.0, 0.0, 0.0, 0.0, 0.0, 1.7296927629012473E9, 0.0, 2024-10-23 19:42:42.901
49.0, 6814.063407667089, 28863.612277938402, 42402.51092940699, 16908.804107761873, 26268.619450166163, 23278.626594379737, -187500.02235174447, -187500.02235174447, 0.2, 0.9540000000000001, -0.036000000000000004, 192.0, 0.0, 0.0, 0.0, 0.0, 0.0, 0.0, 0.0, 0.0, 0.0, 1.7296927629042468E9, 0.0, 2024-10-23 19:42:42.904
50.0, 6817.237355379743, 28255.711883987417, 42393.21260371359, 16879.612729503242, 26261.71276112947, 23271.429332665128, -187500.02235174447, -187500.02235174447, 0.2, 0.9540000000000001, -0.036000000000000004, 192.0, 0.0, 0.0, 0.0, 0.0, 0.0, 0.0, 0.0, 0.0, 0.0, 1.729692762908241E9, 0.0, 2024-10-23 19:42:42.908
51.0, 6773.2044188027885, 28231.594351720138, 42383.62370534226, 16921.835174779317, 26254.135519759122, 23283.99101304901, -187500.02235174447, -187500.02235174447, 0.2, 0.9540000000000001, -0.036000000000000004, 192.0, 0.0, 0.0, 0.0, 0.0, 0.0, 0.0, 0.0, 0.0, 0.0, 1.7296927629133964E9, 0.0, 2024-10-23 19:42:42.913
52.0, 6778.188857816322, 28759.229631332117, 42383.936629764634, 16962.940032832626, 26254.850775581694, 23314.679958186145, -187500.02235174447, -187500.02235174447, 0.2, 0.9540000000000001, -0.036000000000000004, 192.0, 0.0, 0.0, 0.0, 0.0, 0.0, 0.0, 0.0, 0.0, 0.0, 1.7296927629172351E9, 0.0, 2024-10-23 19:42:42.917
53.0, 6808.117843641979, 29029.97631191925, 42390.99978101251, 16944.92452680165, 26264.19380476401, 23305.80631563739, -187500.02235174447, -187500.02235174447, 0.2, 0.9540000000000001, -0.036000000000000004, 192.0, 0.0, 0.0, 0.0, 0.0, 0.0, 0.0, 0.0, 0.0, 0.0, 1.7296927629212704E9, 0.0, 2024-10-23 19:42:42.921
54.0, 6821.797111248626, 28739.9847793561, 42386.3059146769, 16886.72058424003, 26250.894516813103, 23245.143681185687, -187500.02235174447, -187500.02235174447, 0.188, 0.9500000000000001, -0.042, 192.0, 5.0, 224.0, 29.0, 176.0, 254.0, 176.0, 0.0, 0.0, 0.0, 1.7296927629252815E9, 0.0, 2024-10-23 19:42:42.925
55.0, 6834.403495121419, 28170.86466203507, 42395.33601943684, 16861.48546474999, 26253.86729882566, 23264.32147792834, -187500.02235174447, -187500.02235174447, 0.188, 0.9500000000000001, -0.042, 192.0, 0.0, 0.0, 0.0, 0.0, 0.0, 0.0, 0.0, 0.0, 0.0, 1.729692762929292E9, 0.0, 2024-10-23 19:42:42.929
56.0, 6786.257837564688, 28154.36907462705, 42391.26800194597, 16897.158848900657, 26237.48347013992, 23299.99486207901, -187500.02235174447, -187500.02235174447, 0.188, 0.9500000000000001, -0.042, 192.0, 0.0, 0.0, 0.0, 0.0, 0.0, 0.0, 0.0, 0.0, 0.0, 1.7296927629322584E9, 0.0, 2024-10-23 19:42:42.932
57.0, 6791.778718445149, 28662.603040051825, 42395.693647348126, 16928.317180671358, 26230.599132847685, 23297.692632400114, -187500.02235174447, -187500.02235174447, 0.188, 0.9500000000000001, -0.042, 192.0, 0.0, 0.0, 0.0, 0.0, 0.0, 0.0, 0.0, 0.0, 0.0, 1.7296927629372897E9, 0.0, 2024-10-23 19:42:42.937
58.0, 6814.622201278473, 28922.822049000508, 42399.605202627805, 16901.025700691425, 26227.33577815721, 23263.60622210577, -187500.02235174447, -187500.02235174447, 0.188, 0.9500000000000001, -0.042, 192.0, 0.0, 0.0, 0.0, 0.0, 0.0, 0.0, 0.0, 0.0, 0.0, 1.729692762942295E9, 0.0, 2024-10-23 19:42:42.942
59.0, 6839.7679137906935, 28676.90815650322, 42414.13383652375, 16865.24055781848, 26233.728377071428, 23246.59654457528, -187500.02235174447, -187500.02235174447, 0.188, 0.9500000000000001, -0.042, 192.0, 0.0, 0.0, 0.0, 0.0, 0.0, 0.0, 0.0, 0.0, 0.0, 1.7296927629462569E9, 0.0, 2024-10-23 19:42:42.946
60.0, 6851.010841251713, 28146.300094878687, 42424.19212152864, 16842.262964518424, 26232.431975893018, 23237.678198537615, -187500.02235174447, -187500.02235174447, 0.188, 0.9500000000000001, -0.042, 192.0, 0.0, 0.0, 0.0, 0.0, 0.0, 0.0, 0.0, 0.0, 0.0, 1.7296927629502804E9, 0.0, 2024-10-23 19:42:42.950
61.0, 6805.055654651601, 28143.48377507732, 42429.40007798673, 16878.785714958398, 26237.774042817837, 23260.40992264866, -187500.02235174447, -187500.02235174447, 0.188, 0.9500000000000001, -0.042, 192.0, 0.0, 0.0, 0.0, 0.0, 0.0, 0.0, 0.0, 0.0, 0.0, 1.729692762953412E9, 0.0, 2024-10-23 19:42:42.953
62.0, 6816.589154790539, 28653.461176569603, 42446.47681075058, 16927.73603531552, 26246.401816177586, 23282.828722337334, -187500.02235174447, -187500.02235174447, 0.188, 0.9500000000000001, -0.042, 192.0, 0.0, 0.0, 0.0, 0.0, 0.0, 0.0, 0.0, 0.0, 0.0, 1.7296927629573493E9, 0.0, 2024-10-23 19:42:42.957
63.0, 6849.557977862118, 28931.29336014907, 42462.07832838039, 16924.62914283623, 26251.63212438013, 23291.009460807974, -187500.02235174447, -187500.02235174447, 0.188, 0.9500000000000001, -0.042, 192.0, 0.0, 0.0, 0.0, 0.0, 0.0, 0.0, 0.0, 0.0, 0.0, 1.7296927629603176E9, 0.0, 2024-10-23 19:42:42.960
64.0, 6867.5287804041845, 28686.29588917445, 42466.9733604161, 16887.6370057627, 26259.656400639582, 23265.28260293992, -187500.02235174447, -187500.02235174447, 0.182, 0.9580000000000001, -0.04, 192.0, 5.0, 176.0, 29.0, 240.0, 254.0, 192.0, 0.0, 0.0, 0.0, 1.7296927629643056E9, 0.0, 2024-10-23 19:42:42.964
65.0, 6870.166286249911, 28148.959952468867, 42468.94031392817, 16860.43493276059, 26259.566993661763, 23259.404094148173, -187500.02235174447, -187500.02235174447, 0.182, 0.9580000000000001, -0.04, 192.0, 0.0, 0.0, 0.0, 0.0, 0.0, 0.0, 0.0, 0.0, 0.0, 1.7296927629692872E9, 0.0, 2024-10-23 19:42:42.969
66.0, 6813.504614055707, 28140.265123875753, 42459.30671206793, 16890.609787775255, 26251.922697058046, 23271.138759987207, -187500.02235174447, -187500.02235174447, 0.182, 0.9580000000000001, -0.04, 192.0, 0.0, 0.0, 0.0, 0.0, 0.0, 0.0, 0.0, 0.0, 0.0, 1.7296927629733825E9, 0.0, 2024-10-23 19:42:42.973
67.0, 6818.846680980526, 28662.781854007466, 42464.626427248295, 16937.72726508704, 26256.594211649208, 23286.561463661368, -187500.02235174447, -187500.02235174447, 0.182, 0.9580000000000001, -0.04, 192.0, 0.0, 0.0, 0.0, 0.0, 0.0, 0.0, 0.0, 0.0, 0.0, 1.729692762977364E9, 0.0, 2024-10-23 19:42:42.977
68.0, 6847.211044694311, 28943.139784710384, 42474.37178783081, 16930.239430694513, 26259.34347621721, 23286.6955741281, -187500.02235174447, -187500.02235174447, 0.182, 0.9580000000000001, -0.04, 192.0, 0.0, 0.0, 0.0, 0.0, 0.0, 0.0, 0.0, 0.0, 0.0, 1.729692762981332E9, 0.0, 2024-10-23 19:42:42.981
69.0, 6854.765934320204, 28677.511653603513, 42459.77609870149, 16879.366860314236, 26239.204554462976, 23228.670445522126, -187500.02235174447, -187500.02235174447, 0.182, 0.9580000000000001, -0.04, 192.0, 0.0, 0.0, 0.0, 0.0, 0.0, 0.0, 0.0, 0.0, 0.0, 1.7296927629853263E9, 0.0, 2024-10-23 19:42:42.985
70.0, 6858.923358788891, 28117.868675931535, 42463.3747295588, 16855.852825147253, 26259.00820005038, 23230.16801240063, -187500.02235174447, -187500.02235174447, 0.182, 0.9580000000000001, -0.04, 192.0, 0.0, 0.0, 0.0, 0.0, 0.0, 0.0, 0.0, 0.0, 0.0, 1.7296927629883664E9, 0.0, 2024-10-23 19:42:42.988
71.0, 6807.648457008417, 28109.866751416535, 42453.67407246519, 16906.72539552753, 26243.47373765394, 23290.651832896692, -187500.02235174447, -187500.02235174447, 0.182, 0.9580000000000001, -0.04, 192.0, 0.0, 0.0, 0.0, 0.0, 0.0, 0.0, 0.0, 0.0, 0.0, 1.7296927629923253E9, 0.0, 2024-10-23 19:42:42.992
72.0, 6808.810747720093, 28648.05205441142, 42447.05795610642, 16955.83217809584, 26253.308505214278, 23302.23003652454, -187500.02235174447, -187500.02235174447, 0.182, 0.9580000000000001, -0.04, 192.0, 0.0, 0.0, 0.0, 0.0, 0.0, 0.0, 0.0, 0.0, 0.0, 1.729692762997384E9, 0.0, 2024-10-23 19:42:42.997
73.0, 6831.96715497579, 28940.21170618674, 42444.37574677179, 16938.3978174207, 26260.48341518443, 23266.46724539605, -187500.02235174447, -187500.02235174447, 0.182, 0.9580000000000001, -0.04, 192.0, 0.0, 0.0, 0.0, 0.0, 0.0, 0.0, 0.0, 0.0, 0.0, 1.7296927630013611E9, 0.0, 2024-10-23 19:42:43.001
74.0, 6848.3956871504415, 28678.383371637272, 42449.62840671878, 16904.043186192892, 26281.24818578341, 23280.03475428042, -187500.02235174447, -187500.02235174447, 0.19, 0.964, -0.04, 192.0, 5.0, 240.0, 30.0, 32.0, 254.0, 192.0, 0.0, 0.0, 0.0, 1.729692763005394E9, 0.0, 2024-10-23 19:42:43.005
75.0, 6848.663908083905, 28089.83958838458, 42444.576912471886, 16874.85180793426, 26267.323048987753, 23289.109562529276, -187500.02235174447, -187500.02235174447, 0.19, 0.964, -0.04, 192.0, 0.0, 0.0, 0.0, 0.0, 0.0, 0.0, 0.0, 0.0, 0.0, 1.729692763009426E9, 0.0, 2024-10-23 19:42:43.009
76.0, 6795.243238835721, 28079.468378957317, 42420.95111858263, 16906.077194938327, 26245.53009814383, 23263.069780238842, -187500.02235174447, -187500.02235174447, 0.19, 0.964, -0.04, 192.0, 0.0, 0.0, 0.0, 0.0, 0.0, 0.0, 0.0, 0.0, 0.0, 1.7296927630124383E9, 0.0, 2024-10-23 19:42:43.012
77.0, 6795.399701046908, 28646.84506021083, 42414.849092346325, 16951.518291415967, 26250.33572320172, 23289.37778346274, -187500.02235174447, -187500.02235174447, 0.19, 0.964, -0.04, 192.0, 0.0, 0.0, 0.0, 0.0, 0.0, 0.0, 0.0, 0.0, 0.0, 1.7296927630164063E9, 0.0, 2024-10-23 19:42:43.016
78.0, 6821.238317637243, 28955.38854067189, 42418.693592392636, 16932.854584795783, 26257.66709538306, 23292.261158497473, -187500.02235174447, -187500.02235174447, 0.19, 0.964, -0.04, 192.0, 0.0, 0.0, 0.0, 0.0, 0.0, 0.0, 0.0, 0.0, 0.0, 1.729692763020432E9, 0.0, 2024-10-23 19:42:43.020
79.0, 6839.678506812872, 28679.836235026865, 42422.85101686132, 16893.135534898705, 26260.48341518443, 23301.760649890977, -187500.02235174447, -187500.02235174447, 0.19, 0.964, -0.04, 192.0, 0.0, 0.0, 0.0, 0.0, 0.0, 0.0, 0.0, 0.0, 0.0, 1.729692763025375E9, 0.0, 2024-10-23 19:42:43.025
80.0, 6840.013782979701, 28063.911564816426, 42416.8607493473, 16853.684705935088, 26249.084025512224, 23272.211643721064, -187500.02235174447, -187500.02235174447, 0.19, 0.964, -0.04, 192.0, 0.0, 0.0, 0.0, 0.0, 0.0, 0.0, 0.0, 0.0, 0.0, 1.7296927630294137E9, 0.0, 2024-10-23 19:42:43.029
81.0, 6786.459003264786, 28051.305180943633, 42400.99101078403, 16888.642834263188, 26232.454327637475, 23269.305916941874, -187500.02235174447, -187500.02235174447, 0.19, 0.964, -0.04, 192.0, 0.0, 0.0, 0.0, 0.0, 0.0, 0.0, 0.0, 0.0, 0.0, 1.7296927630334952E9, 0.0, 2024-10-23 19:42:43.033
82.0, 6793.186878345833, 28649.862545712298, 42405.0590282749, 16940.185956977126, 26238.422243407043, 23289.109562529276, -187500.02235174447, -187500.02235174447, 0.19, 0.964, -0.04, 192.0, 0.0, 0.0, 0.0, 0.0, 0.0, 0.0, 0.0, 0.0, 0.0, 1.7296927630374534E9, 0.0, 2024-10-23 19:42:43.037
83.0, 6817.594983291028, 28980.176625272827, 42411.18340625565, 16926.26082018147, 26242.80318532028, 23286.18148400563, -187500.02235174447, -187500.02235174447, 0.19, 0.964, -0.04, 192.0, 0.0, 0.0, 0.0, 0.0, 0.0, 0.0, 0.0, 0.0, 0.0, 1.7296927630404277E9, 0.0, 2024-10-23 19:42:43.040
84.0, 6829.73198053026, 28698.25407245804, 42408.769417854484, 16877.377555057712, 26240.299789941288, 23263.36035291676, -187500.02235174447, -187500.02235174447, 0.196, 0.9580000000000001, -0.034, 192.0, 6.0, 32.0, 29.0, 240.0, 254.0, 240.0, 0.0, 0.0, 0.0, 1.7296927630444417E9, 0.0, 2024-10-23 19:42:43.044
85.0, 6829.150835174422, 28063.93391656088, 42403.40499918521, 16837.90437434964, 26234.488336382907, 23235.174803158618, -187500.02235174447, -187500.02235174447, 0.196, 0.9580000000000001, -0.034, 192.0, 0.0, 0.0, 0.0, 0.0, 0.0, 0.0, 0.0, 0.0, 0.0, 1.729692763048462E9, 0.0, 2024-10-23 19:42:43.048
86.0, 6791.1081661114895, 28066.258497984232, 42404.366124196786, 16896.041261677892, 26235.315350927754, 23264.41088490616, -187500.02235174447, -187500.02235174447, 0.196, 0.9580000000000001, -0.034, 192.0, 0.0, 0.0, 0.0, 0.0, 0.0, 0.0, 0.0, 0.0, 0.0, 1.729692763052472E9, 0.0, 2024-10-23 19:42:43.052
87.0, 6805.413282562886, 28693.314336933418, 42416.36901096928, 16965.041096811427, 26239.47277539644, 23303.347623747304, -187500.02235174447, -187500.02235174447, 0.196, 0.9580000000000001, -0.034, 192.0, 0.0, 0.0, 0.0, 0.0, 0.0, 0.0, 0.0, 0.0, 0.0, 1.7296927630574756E9, 0.0, 2024-10-23 19:42:43.057
88.0, 6828.4355793518525, 29031.31741658657, 42423.230996517064, 16952.814692594373, 26245.194821977, 23297.93850158912, -187500.02235174447, -187500.02235174447, 0.196, 0.9580000000000001, -0.034, 192.0, 0.0, 0.0, 0.0, 0.0, 0.0, 0.0, 0.0, 0.0, 0.0, 1.729692763061428E9, 0.0, 2024-10-23 19:42:43.061
89.0, 6843.3441929035425, 28748.6349044603, 42424.12506629527, 16907.77592751693, 26242.914944042557, 23271.183463476118, -187500.02235174447, -187500.02235174447, 0.196, 0.9580000000000001, -0.034, 192.0, 0.0, 0.0, 0.0, 0.0, 0.0, 0.0, 0.0, 0.0, 0.0, 1.7296927630664444E9, 0.0, 2024-10-23 19:42:43.066
90.0, 6846.361678405008, 28116.482867775307, 42423.56627268389, 16875.05297363436, 26240.411548663564, 23253.056198722865, -187500.02235174447, -187500.02235174447, 0.196, 0.9580000000000001, -0.034, 192.0, 0.0, 0.0, 0.0, 0.0, 0.0, 0.0, 0.0, 0.0, 0.0, 1.729692763070452E9, 0.0, 2024-10-23 19:42:43.070
91.0, 6812.655247766405, 28119.723870721326, 42425.68968840715, 16936.78849181992, 26240.1433277301, 23288.88604508472, -187500.02235174447, -187500.02235174447, 0.196, 0.9580000000000001, -0.034, 192.0, 0.0, 0.0, 0.0, 0.0, 0.0, 0.0, 0.0, 0.0, 0.0, 1.7296927630734856E9, 0.0, 2024-10-23 19:42:43.073
92.0, 6815.359808845497, 28728.428927472705, 42423.20864477261, 16986.789344166442, 26236.835269550716, 23297.223245766552, -187500.02235174447, -187500.02235174447, 0.196, 0.9580000000000001, -0.034, 192.0, 0.0, 0.0, 0.0, 0.0, 0.0, 0.0, 0.0, 0.0, 0.0, 1.729692763077463E9, 0.0, 2024-10-23 19:42:43.077
93.0, 6841.533701602662, 29064.12977744696, 42437.223188546086, 16968.125637546258, 26249.24048772341, 23281.93465255912, -187500.02235174447, -187500.02235174447, 0.196, 0.9580000000000001, -0.034, 192.0, 0.0, 0.0, 0.0, 0.0, 0.0, 0.0, 0.0, 0.0, 0.0, 1.7296927630805387E9, 0.0, 2024-10-23 19:42:43.080
94.0, 6861.158533234422, 28785.35882060037, 42446.25329330603, 16926.909020770672, 26251.72153135795, 23269.998821019988, -187500.02235174447, -187500.02235174447, 0.202, 0.9540000000000001, -0.034, 192.0, 6.0, 80.0, 29.0, 208.0, 254.0, 240.0, 0.0, 0.0, 0.0, 1.7296927630854445E9, 0.0, 2024-10-23 19:42:43.085
95.0, 6864.757164091727, 28154.9949234718, 42446.365052028304, 16896.82357273383, 26257.108301771677, 23269.015344263953, -187500.02235174447, -187500.02235174447, 0.202, 0.9540000000000001, -0.034, 192.0, 0.0, 0.0, 0.0, 0.0, 0.0, 0.0, 0.0, 0.0, 0.0, 1.7296927630894861E9, 0.0, 2024-10-23 19:42:43.089
96.0, 6819.785454247649, 28147.23886814581, 42438.22901704658, 16949.417227437167, 26251.408606935576, 23310.813106395377, -187500.02235174447, -187500.02235174447, 0.202, 0.9540000000000001, -0.034, 192.0, 0.0, 0.0, 0.0, 0.0, 0.0, 0.0, 0.0, 0.0, 0.0, 1.7296927630934827E9, 0.0, 2024-10-23 19:42:43.093
97.0, 6820.232489136754, 28742.68934043519, 42441.0676885924, 16995.50652450401, 26253.599077892195, 23313.115336074276, -187500.02235174447, -187500.02235174447, 0.202, 0.9540000000000001, -0.034, 192.0, 0.0, 0.0, 0.0, 0.0, 0.0, 0.0, 0.0, 0.0, 0.0, 1.7296927630965571E9, 0.0, 2024-10-23 19:42:43.096
98.0, 6836.437503866852, 29058.072454699573, 42442.36408977081, 16972.528931203953, 26250.492185412906, 23291.836475352822, -187500.02235174447, -187500.02235174447, 0.202, 0.9540000000000001, -0.034, 192.0, 0.0, 0.0, 0.0, 0.0, 0.0, 0.0, 0.0, 0.0, 0.0, 1.729692763100542E9, 0.0, 2024-10-23 19:42:43.100
99.0, 6849.177998206377, 28775.88168095132, 42440.084211836365, 16925.43380563662, 26250.2463162239, 23267.56248087436, -187500.02235174447, -187500.02235174447, 0.202, 0.9540000000000001, -0.034, 192.0, 0.0, 0.0, 0.0, 0.0, 0.0, 0.0, 0.0, 0.0, 0.0, 1.729692763104509E9, 0.0, 2024-10-23 19:42:43.104
100.0, 6847.211044694311, 28156.87247000605, 42430.852941376324, 16885.982976673007, 26237.05878699527, 23237.342922370783, -187500.02235174447, -187500.02235174447, 0.202, 0.9540000000000001, -0.034, 192.0, 0.0, 0.0, 0.0, 0.0, 0.0, 0.0, 0.0, 0.0, 0.0, 1.7296927631085093E9, 0.0, 2024-10-23 19:42:43.108
101.0, 6803.222811606266, 28150.077539691632, 42428.99774658653, 16940.789454077418, 26257.66709538306, 23329.47681301556, -187500.02235174447, -187500.02235174447, 0.202, 0.9540000000000001, -0.034, 192.0, 0.0, 0.0, 0.0, 0.0, 0.0, 0.0, 0.0, 0.0, 0.0, 1.729692763113514E9, 0.0, 2024-10-23 19:42:43.113
102.0, 6817.393817590931, 28738.330750266407, 42440.91122638121, 16994.679509959165, 26258.181185505535, 23380.6176043293, -187500.02235174447, -187500.02235174447, 0.202, 0.9540000000000001, -0.034, 192.0, 0.0, 0.0, 0.0, 0.0, 0.0, 0.0, 0.0, 0.0, 0.0, 1.729692763118526E9, 0.0, 2024-10-23 19:42:43.118
103.0, 6840.930204502369, 29047.27656212766, 42438.899569380235, 16958.335573474833, 26252.012104035868, 23327.15223159221, -187500.02235174447, -187500.02235174447, 0.202, 0.9540000000000001, -0.034, 192.0, 0.0, 0.0, 0.0, 0.0, 0.0, 0.0, 0.0, 0.0, 0.0, 1.7296927631215725E9, 0.0, 2024-10-23 19:42:43.121
104.0, 6853.134256974967, 28775.16642512875, 42430.13768555375, 16899.639892535197, 26235.60592360567, 23285.913263072165, -187500.02235174447, -187500.02235174447, 0.202, 0.9540000000000001, -0.034, 192.0, 0.0, 0.0, 0.0, 0.0, 0.0, 0.0, 0.0, 0.0, 0.0, 1.729692763125557E9, 0.0, 2024-10-23 19:42:43.125
105.0, 6852.463704641307, 28185.661516864482, 42419.76647612649, 16859.205586815548, 26224.96649324495, 23267.74129483, -187500.02235174447, -187500.02235174447, 0.198, 0.9560000000000001, -0.034, 192.0, 6.0, 48.0, 29.0, 224.0, 254.0, 240.0, 0.0, 0.0, 0.0, 1.7296927631285377E9, 0.0, 2024-10-23 19:42:43.128
106.0, 6804.295695340121, 28172.563394613673, 42413.172711512176, 16892.464982565045, 26228.743938057894, 23282.649908381693, -187500.02235174447, -187500.02235174447, 0.198, 0.9560000000000001, -0.034, 192.0, 0.0, 0.0, 0.0, 0.0, 0.0, 0.0, 0.0, 0.0, 0.0, 1.7296927631325173E9, 0.0, 2024-10-23 19:42:43.132
107.0, 6801.993465661224, 28713.96734881012, 42413.68680163465, 16929.16654696066, 26230.62148459214, 23282.672260126146, -187500.02235174447, -187500.02235174447, 0.198, 0.9560000000000001, -0.034, 192.0, 0.0, 0.0, 0.0, 0.0, 0.0, 0.0, 0.0, 0.0, 0.0, 1.72969276313658E9, 0.0, 2024-10-23 19:42:43.136
108.0, 6823.361733360498, 29003.578901717534, 42414.40205745722, 16908.491183339498, 26223.401871133075, 23268.210681463563, -187500.02235174447, -187500.02235174447, 0.198, 0.9560000000000001, -0.034, 192.0, 0.0, 0.0, 0.0, 0.0, 0.0, 0.0, 0.0, 0.0, 0.0, 1.72969276314055E9, 0.0, 2024-10-23 19:42:43.140
109.0, 6845.646422582438, 28739.940075867187, 42425.53322619596, 16869.018002631426, 26243.026702764833, 23270.55761463137, -187500.02235174447, -187500.02235174447, 0.198, 0.9560000000000001, -0.034, 192.0, 0.0, 0.0, 0.0, 0.0, 0.0, 0.0, 0.0, 0.0, 0.0, 1.729692763145583E9, 0.0, 2024-10-23 19:42:43.145
110.0, 6848.485094128263, 28160.58285958563, 42420.995822071534, 16835.020999314904, 26231.247333436888, 23255.626649335223, -187500.02235174447, -187500.02235174447, 0.198, 0.9560000000000001, -0.034, 192.0, 0.0, 0.0, 0.0, 0.0, 0.0, 0.0, 0.0, 0.0, 0.0, 1.7296927631495478E9, 0.0, 2024-10-23 19:42:43.149
111.0, 6796.383177802942, 28140.935676209414, 42407.40596144271, 16868.05687761985, 26223.692443810993, 23259.9405360151, -187500.02235174447, -187500.02235174447, 0.198, 0.9560000000000001, -0.034, 192.0, 0.0, 0.0, 0.0, 0.0, 0.0, 0.0, 0.0, 0.0, 0.0, 1.729692763152593E9, 0.0, 2024-10-23 19:42:43.152
112.0, 6798.640703992928, 28674.918851246697, 42411.31751672239, 16912.15686943017, 26225.1900106895, 23275.899681556188, -187500.02235174447, -187500.02235174447, 0.198, 0.9560000000000001, -0.034, 192.0, 0.0, 0.0, 0.0, 0.0, 0.0, 0.0, 0.0, 0.0, 0.0, 1.7296927631565592E9, 0.0, 2024-10-23 19:42:43.156
113.0, 6828.010896207202, 28964.999790787675, 42423.45451396162, 16903.86437223725, 26231.113222970158, 23279.543015902404, -187500.02235174447, -187500.02235174447, 0.198, 0.9560000000000001, -0.034, 192.0, 0.0, 0.0, 0.0, 0.0, 0.0, 0.0, 0.0, 0.0, 0.0, 1.7296927631606083E9, 0.0, 2024-10-23 19:42:43.160
114.0, 6850.742620318249, 28705.853665572842, 42428.550711697426, 16873.533055011398, 26233.57191486024, 23270.17763497563, -187500.02235174447, -187500.02235174447, 0.198, 0.9560000000000001, -0.034, 192.0, 0.0, 0.0, 0.0, 0.0, 0.0, 0.0, 0.0, 0.0, 0.0, 1.7296927631645925E9, 0.0, 2024-10-23 19:42:43.164
115.0, 6847.143989460945, 28120.796754455183, 42417.710115636604, 16840.988915084472, 26232.09669972619, 23257.615954591747, -187500.02235174447, -187500.02235174447, 0.188, 0.964, -0.034, 192.0, 5.0, 224.0, 30.0, 32.0, 254.0, 240.0, 0.0, 0.0, 0.0, 1.7296927631686234E9, 0.0, 2024-10-23 19:42:43.168
116.0, 6803.289866839632, 28102.62478621302, 42419.23003425956, 16885.848866206274, 26236.120013728145, 23284.885082827223, -187500.02235174447, -187500.02235174447, 0.188, 0.964, -0.034, 192.0, 0.0, 0.0, 0.0, 0.0, 0.0, 0.0, 0.0, 0.0, 0.0, 1.7296927631738448E9, 0.0, 2024-10-23 19:42:43.173
117.0, 6806.0167796631795, 28632.249371081518, 42416.99485981403, 16926.35022715929, 26224.921789756037, 23257.951230758576, -187500.02235174447, -187500.02235174447, 0.188, 0.964, -0.034, 192.0, 0.0, 0.0, 0.0, 0.0, 0.0, 0.0, 0.0, 0.0, 0.0, 1.7296927631776493E9, 0.0, 2024-10-23 19:42:43.177
118.0, 6822.758236260204, 28905.09711564745, 42416.793694113934, 16903.283226881413, 26222.261932165853, 23243.824928262824, -187500.02235174447, -187500.02235174447, 0.188, 0.964, -0.034, 192.0, 0.0, 0.0, 0.0, 0.0, 0.0, 0.0, 0.0, 0.0, 0.0, 1.7296927631806157E9, 0.0, 2024-10-23 19:42:43.180
119.0, 6840.371410890986, 28630.23771408054, 42423.40981047271, 16875.29884282337, 26229.23567643591, 23285.8462078388, -187500.02235174447, -187500.02235174447, 0.188, 0.964, -0.034, 192.0, 0.0, 0.0, 0.0, 0.0, 0.0, 0.0, 0.0, 0.0, 0.0, 1.7296927631856084E9, 0.0, 2024-10-23 19:42:43.185
120.0, 6844.97587024878, 28039.25759068222, 42425.28735700695, 16851.71775242302, 26250.849813324192, 23275.98908853401, -187500.02235174447, -187500.02235174447, 0.188, 0.964, -0.034, 192.0, 0.0, 0.0, 0.0, 0.0, 0.0, 0.0, 0.0, 0.0, 0.0, 1.7296927631887484E9, 0.0, 2024-10-23 19:42:43.188
121.0, 6797.411358047886, 28016.414107848897, 42420.660545904706, 16897.762346000953, 26245.999484777392, 23297.156190533184, -187500.02235174447, -187500.02235174447, 0.188, 0.964, -0.034, 192.0, 0.0, 0.0, 0.0, 0.0, 0.0, 0.0, 0.0, 0.0, 0.0, 1.7296927631926856E9, 0.0, 2024-10-23 19:42:43.192
122.0, 6803.178108117356, 28560.299105679886, 42424.50504595102, 16951.98767804953, 26245.57480163274, 23314.299978530405, -187500.02235174447, -187500.02235174447, 0.188, 0.964, -0.034, 192.0, 0.0, 0.0, 0.0, 0.0, 0.0, 0.0, 0.0, 0.0, 0.0, 1.72969276319671E9, 0.0, 2024-10-23 19:42:43.196
123.0, 6831.006029964213, 28853.933972589253, 42434.988014100556, 16944.142215745713, 26252.079159269233, 23309.67316742816, -187500.02235174447, -187500.02235174447, 0.188, 0.964, -0.034, 192.0, 0.0, 0.0, 0.0, 0.0, 0.0, 0.0, 0.0, 0.0, 0.0, 1.7296927632017105E9, 0.0, 2024-10-23 19:42:43.201
124.0, 6847.680431327872, 28581.399152445694, 42431.94817685463, 16905.47369783803, 26246.938258044513, 23308.533228460936, -187500.02235174447, -187500.02235174447, 0.188, 0.964, -0.034, 192.0, 0.0, 0.0, 0.0, 0.0, 0.0, 0.0, 0.0, 0.0, 0.0, 1.7296927632057414E9, 0.0, 2024-10-23 19:42:43.205
125.0, 6849.110942973011, 27987.02156389017, 42423.365106983794, 16870.09088636528, 26241.640894608605, 23285.198007249597, -187500.02235174447, -187500.02235174447, 0.18, 0.966, -0.038, 192.0, 5.0, 160.0, 30.0, 48.0, 254.0, 208.0, 0.0, 0.0, 0.0, 1.7296927632087417E9, 0.0, 2024-10-23 19:42:43.208
126.0, 6803.893363939926, 27975.666877706873, 42414.49146443504, 16907.217133905546, 26237.550525373284, 23286.382649705727, -187500.02235174447, -187500.02235174447, 0.18, 0.966, -0.038, 192.0, 0.0, 0.0, 0.0, 0.0, 0.0, 0.0, 0.0, 0.0, 0.0, 1.729692763212746E9, 0.0, 2024-10-23 19:42:43.212
127.0, 6812.364675088486, 28539.64609380318, 42418.49242669254, 16953.194672250112, 26231.180278203523, 23305.113411559276, -187500.02235174447, -187500.02235174447, 0.18, 0.966, -0.038, 192.0, 0.0, 0.0, 0.0, 0.0, 0.0, 0.0, 0.0, 0.0, 0.0, 1.729692763216705E9, 0.0, 2024-10-23 19:42:43.216
128.0, 6830.44723635283, 28838.354806703905, 42410.71401962209, 16924.45032888059, 26220.965530987447, 23266.668411096147, -187500.02235174447, -187500.02235174447, 0.18, 0.966, -0.038, 192.0, 0.0, 0.0, 0.0, 0.0, 0.0, 0.0, 0.0, 0.0, 0.0, 1.729692763220702E9, 0.0, 2024-10-23 19:42:43.220
129.0, 6850.496751129241, 28568.07751275033, 42412.479807434065, 16878.048107391372, 26229.28037992482, 23259.828777292823, -187500.02235174447, -187500.02235174447, 0.18, 0.966, -0.038, 192.0, 0.0, 0.0, 0.0, 0.0, 0.0, 0.0, 0.0, 0.0, 0.0, 1.729692763224697E9, 0.0, 2024-10-23 19:42:43.224
130.0, 6858.1410477329555, 27970.101293337502, 42415.20672025761, 16847.672086676608, 26225.77115604534, 23267.69659134109, -187500.02235174447, -187500.02235174447, 0.18, 0.966, -0.038, 192.0, 0.0, 0.0, 0.0, 0.0, 0.0, 0.0, 0.0, 0.0, 0.0, 1.7296927632297063E9, 0.0, 2024-10-23 19:42:43.229
131.0, 6812.364675088486, 27956.511432708674, 42403.47205441858, 16884.53011328341, 26218.350376886177, 23272.926899543632, -187500.02235174447, -187500.02235174447, 0.18, 0.966, -0.038, 192.0, 0.0, 0.0, 0.0, 0.0, 0.0, 0.0, 0.0, 0.0, 0.0, 1.7296927632337885E9, 0.0, 2024-10-23 19:42:43.233
132.0, 6820.1654339033885, 28529.811326242845, 42407.38360969825, 16928.607753349275, 26225.838211278704, 23281.219396736553, -187500.02235174447, -187500.02235174447, 0.18, 0.966, -0.038, 192.0, 0.0, 0.0, 0.0, 0.0, 0.0, 0.0, 0.0, 0.0, 0.0, 1.7296927632366931E9, 0.0, 2024-10-23 19:42:43.236
133.0, 6848.440390639352, 28843.495707928625, 42420.68289764916, 16909.698177540085, 26237.014083506358, 23279.811236835867, -187500.02235174447, -187500.02235174447, 0.18, 0.966, -0.038, 192.0, 0.0, 0.0, 0.0, 0.0, 0.0, 0.0, 0.0, 0.0, 0.0, 1.7296927632407308E9, 0.0, 2024-10-23 19:42:43.240
134.0, 6858.588082622062, 28560.097939979787, 42418.87240634828, 16857.104522836747, 26231.448499136986, 23259.35939065926, -187500.02235174447, -187500.02235174447, 0.18, 0.966, -0.038, 192.0, 0.0, 0.0, 0.0, 0.0, 0.0, 0.0, 0.0, 0.0, 0.0, 1.7296927632447157E9, 0.0, 2024-10-23 19:42:43.244
135.0, 6859.616262867005, 27942.47453719074, 42414.82674060187, 16823.219278242505, 26224.206533933466, 23233.945457213576, -187500.02235174447, -187500.02235174447, 0.186, 0.968, -0.036000000000000004, 192.0, 5.0, 208.0, 30.0, 64.0, 254.0, 224.0, 0.0, 0.0, 0.0, 1.7296927632507317E9, 0.0, 2024-10-23 19:42:43.250
136.0, 6812.856413466503, 27927.364757938954, 42404.67904861916, 16872.706040466554, 26217.210437918955, 23253.905565012166, -187500.02235174447, -187500.02235174447, 0.186, 0.968, -0.036000000000000004, 192.0, 0.0, 0.0, 0.0, 0.0, 0.0, 0.0, 0.0, 0.0, 0.0, 1.7296927632537258E9, 0.0, 2024-10-23 19:42:43.253
137.0, 6815.1586431454, 28513.136924879185, 42406.91422306469, 16926.93137251513, 26219.959702486958, 23271.630498365226, -187500.02235174447, -187500.02235174447, 0.186, 0.968, -0.036000000000000004, 192.0, 0.0, 0.0, 0.0, 0.0, 0.0, 0.0, 0.0, 0.0, 0.0, 1.7296927632577555E9, 0.0, 2024-10-23 19:42:43.257
138.0, 6826.78155026216, 28823.42384140776, 42407.67418237617, 16908.044148450394, 26224.787679289304, 23272.792789076902, -187500.02235174447, -187500.02235174447, 0.186, 0.968, -0.036000000000000004, 192.0, 0.0, 0.0, 0.0, 0.0, 0.0, 0.0, 0.0, 0.0, 0.0, 1.7296927632617443E9, 0.0, 2024-10-23 19:42:43.261
139.0, 6841.600756836028, 28542.17184092663, 42411.65279288922, 16864.81587467383, 26227.492240368396, 23250.64221032169, -187500.02235174447, -187500.02235174447, 0.186, 0.968, -0.036000000000000004, 192.0, 0.0, 0.0, 0.0, 0.0, 0.0, 0.0, 0.0, 0.0, 0.0, 1.7296927632647836E9, 0.0, 2024-10-23 19:42:43.264
140.0, 6835.655192810917, 27907.628167584917, 42404.232013730056, 16829.388359712168, 26221.591379832196, 23226.301160609863, -187500.02235174447, -187500.02235174447, 0.186, 0.968, -0.036000000000000004, 192.0, 0.0, 0.0, 0.0, 0.0, 0.0, 0.0, 0.0, 0.0, 0.0, 1.7296927632687733E9, 0.0, 2024-10-23 19:42:43.268
141.0, 6785.184953830833, 27882.370696350423, 42390.597449612316, 16877.19874110207, 26211.980129716412, 23236.337093870294, -187500.02235174447, -187500.02235174447, 0.186, 0.968, -0.036000000000000004, 192.0, 0.0, 0.0, 0.0, 0.0, 0.0, 0.0, 0.0, 0.0, 0.0, 1.7296927632727773E9, 0.0, 2024-10-23 19:42:43.272
142.0, 6786.749575942705, 28470.95918309202, 42386.64119084373, 16931.736997573018, 26195.015155674835, 23258.018285991944, -187500.02235174447, -187500.02235174447, 0.186, 0.968, -0.036000000000000004, 192.0, 0.0, 0.0, 0.0, 0.0, 0.0, 0.0, 0.0, 0.0, 0.0, 1.729692763276745E9, 0.0, 2024-10-23 19:42:43.276
143.0, 6812.901116955414, 28800.110971940874, 42400.38751368374, 16928.607753349275, 26232.543734615298, 23291.724716630546, -187500.02235174447, -187500.02235174447, 0.186, 0.968, -0.036000000000000004, 192.0, 0.0, 0.0, 0.0, 0.0, 0.0, 0.0, 0.0, 0.0, 0.0, 1.729692763282756E9, 0.0, 2024-10-23 19:42:43.282
