%OpenBCI Raw EXG Data
%Number of channels = 8
%Sample Rate = 250 Hz
%Board = OpenBCI_GUI$BoardCytonSerial
Sample Index, EXG Channel 0, EXG Channel 1, EXG Channel 2, EXG Channel 3, EXG Channel 4, EXG Channel 5, EXG Channel 6, EXG Channel 7, Accel Channel 0, Accel Channel 1, Accel Channel 2, Other, Other, Other, Other, Other, Other, Other, Analog Channel 0, Analog Channel 1, Analog Channel 2, Timestamp, Other, Timestamp (Formatted)
0.0, 0.0, 0.0, 0.0, 0.0, 0.0, 0.0, 0.0, 0.0, 0.152, 0.968, 0.132, 192.0, 4.0, 192.0, 30.0, 64.0, 4.0, 32.0, 0.0, 0.0, 0.0, 1.7297107749767184E9, 0.0, 2024-10-24 00:42:54.976
1.0, -52056.56463582094, -51773.43508880557, -53862.920863976586, -60123.443320207996, -59661.85744546145, -52329.36767689797, -455.9979386327194, 30035.044853096588, 0.152, 0.968, 0.132, 192.0, 0.0, 0.0, 0.0, 0.0, 0.0, 0.0, 0.0, 0.0, 0.0, 1.7297107749977844E9, 0.0, 2024-10-24 00:42:54.997
2.0, -52067.51699060405, -51792.143498914666, -53882.54569560834, -60144.43160825153, -59691.27234116464, -52354.491037665735, -113.90448974424478, 30423.58522696319, 0.152, 0.968, 0.132, 192.0, 0.0, 0.0, 0.0, 0.0, 0.0, 0.0, 0.0, 0.0, 0.0, 1.7297107750017803E9, 0.0, 2024-10-24 00:42:55.001
3.0, -52088.348816436395, -51803.76640603142, -53896.113204492714, -60150.690096699014, -59700.81653604705, -52358.38024120095, 170.76732763854596, 30737.31431213788, 0.152, 0.968, 0.132, 192.0, 0.0, 0.0, 0.0, 0.0, 0.0, 0.0, 0.0, 0.0, 0.0, 1.729710775004928E9, 0.0, 2024-10-24 00:42:55.004
4.0, -52082.78323206702, -51781.32525459829, -53882.836268286264, -60126.25964000937, -59671.468695577234, -52330.708781565285, -41.127209797765, 30487.13123644963, 0.152, 0.968, 0.132, 192.0, 0.0, 0.0, 0.0, 0.0, 0.0, 0.0, 0.0, 0.0, 0.0, 1.7297107750078652E9, 0.0, 2024-10-24 00:42:55.007
5.0, -52059.671528300234, -51761.1192776107, -53861.17742790907, -60103.2373432204, -59643.81958768602, -52305.92069696435, -388.6297808444239, 30103.284728918643, 0.152, 0.968, 0.132, 192.0, 0.0, 0.0, 0.0, 0.0, 0.0, 0.0, 0.0, 0.0, 0.0, 1.7297107750108092E9, 0.0, 2024-10-24 00:42:55.010
6.0, -52041.41015308024, -51754.36905078519, -53853.22020688298, -60103.6843781095, -59654.414314557835, -52315.44254010231, -438.45181923530333, 30064.61621101096, 0.152, 0.968, 0.132, 192.0, 0.0, 0.0, 0.0, 0.0, 0.0, 0.0, 0.0, 0.0, 0.0, 1.7297107750148559E9, 0.0, 2024-10-24 00:42:55.014
7.0, -52064.566560335945, -51780.609998775726, -53882.03160548587, -60133.009866834866, -59691.7864312871, -52352.14410449793, -105.29906812895157, 30442.047767883276, 0.152, 0.968, 0.132, 192.0, 0.0, 0.0, 0.0, 0.0, 0.0, 0.0, 0.0, 0.0, 0.0, 1.7297107750177736E9, 0.0, 2024-10-24 00:42:55.017
8.0, -52099.390578197315, -51802.201783919554, -53909.03251278788, -60150.91361414357, -59707.07502449454, -52368.058546550106, 182.30082777748441, 30758.28024843696, 0.158, 0.962, 0.152, 192.0, 4.0, 240.0, 30.0, 16.0, 4.0, 192.0, 0.0, 0.0, 0.0, 1.7297107750210097E9, 0.0, 2024-10-24 00:42:55.021
9.0, -52083.18556346722, -51781.32525459829, -53895.44265215906, -60127.8913173546, -59675.156733412354, -52339.2024444583, -52.79482040343528, 30485.164282937563, 0.158, 0.962, 0.152, 192.0, 0.0, 0.0, 0.0, 0.0, 0.0, 0.0, 0.0, 0.0, 0.0, 1.7297107750247405E9, 0.0, 2024-10-24 00:42:55.024
10.0, -52063.538380091, -51768.00361490293, -53877.114221705706, -60113.25092473638, -59653.85552094645, -52320.49403434921, -404.23129847422825, 30096.489798604227, 0.158, 0.962, 0.152, 192.0, 0.0, 0.0, 0.0, 0.0, 0.0, 0.0, 0.0, 0.0, 0.0, 1.72971077502779E9, 0.0, 2024-10-24 00:42:55.027
11.0, -52055.02236545353, -51773.9715306725, -53877.76242229491, -60127.690151654504, -59670.57462579902, -52340.61060435899, -445.5149704831804, 30064.415045310863, 0.158, 0.962, 0.152, 192.0, 0.0, 0.0, 0.0, 0.0, 0.0, 0.0, 0.0, 0.0, 0.0, 1.729710775031872E9, 0.0, 2024-10-24 00:42:55.031
12.0, -52071.78617379501, -51794.55748731583, -53899.980056283486, -60152.88056765564, -59698.76017555716, -52373.06533730809, -113.99389672206603, 30443.12065161713, 0.158, 0.962, 0.152, 192.0, 0.0, 0.0, 0.0, 0.0, 0.0, 0.0, 0.0, 0.0, 0.0, 1.7297107750358531E9, 0.0, 2024-10-24 00:42:55.035
13.0, -52087.83472631392, -51807.45444386655, -53913.30169597885, -60160.278995070345, -59703.81166980406, -52375.68049140937, 150.2931297174847, 30737.001387715507, 0.158, 0.962, 0.152, 192.0, 0.0, 0.0, 0.0, 0.0, 0.0, 0.0, 0.0, 0.0, 0.0, 1.7297107750398798E9, 0.0, 2024-10-24 00:42:55.039
14.0, -52086.42656641323, -51794.781004760385, -53901.164698739616, -60140.564756460764, -59676.96722471324, -52339.49301713622, -79.84043119435682, 30468.735750762913, 0.158, 0.962, 0.152, 192.0, 0.0, 0.0, 0.0, 0.0, 0.0, 0.0, 0.0, 0.0, 0.0, 1.7297107750438101E9, 0.0, 2024-10-24 00:42:55.043
15.0, -52070.53447610551, -51783.96276044402, -53883.104489219724, -60125.723198142434, -59658.61644251543, -52321.276345405146, -416.36829571346, 30094.187568925332, 0.158, 0.962, 0.152, 192.0, 0.0, 0.0, 0.0, 0.0, 0.0, 0.0, 0.0, 0.0, 0.0, 1.7297107750488007E9, 0.0, 2024-10-24 00:42:55.048
16.0, -52058.37512712183, -51787.06965292331, -53878.008291483915, -60132.85340462368, -59669.07705892051, -52338.44248514682, -458.2778165671607, 30060.9952284092, 0.158, 0.962, 0.152, 192.0, 0.0, 0.0, 0.0, 0.0, 0.0, 0.0, 0.0, 0.0, 0.0, 1.7297107750518348E9, 0.0, 2024-10-24 00:42:55.051
17.0, -52072.16615345075, -51805.24162116547, -53895.30854169233, -60149.86308215417, -59691.898190009386, -52356.03330803315, -129.4389521406832, 30434.381119535105, 0.158, 0.962, 0.152, 192.0, 0.0, 0.0, 0.0, 0.0, 0.0, 0.0, 0.0, 0.0, 0.0, 1.7297107750548768E9, 0.0, 2024-10-24 00:42:55.054
18.0, -52097.08834851842, -51818.31739167183, -53912.6758471341, -60158.62496598065, -59700.61537034695, -52364.92930232636, 154.53996116399304, 30745.115070952783, 0.16, 0.9580000000000001, 0.168, 192.0, 5.0, 0.0, 29.0, 240.0, 5.0, 64.0, 0.0, 0.0, 0.0, 1.729710775059902E9, 0.0, 2024-10-24 00:42:55.059
19.0, -52101.826918342944, -51805.10751069874, -53905.18801274157, -60142.934041373024, -59675.112029923446, -52348.38901142943, -57.6004454613263, 30492.31684116326, 0.16, 0.9580000000000001, 0.168, 192.0, 0.0, 0.0, 0.0, 0.0, 0.0, 0.0, 0.0, 0.0, 0.0, 1.729710775063856E9, 0.0, 2024-10-24 00:42:55.063
20.0, -52084.3925576678, -51791.2717808809, -53888.69242533355, -60126.08082605372, -59653.76611396863, -52331.35698215449, -387.4674901327479, 30123.825982073067, 0.16, 0.9580000000000001, 0.168, 192.0, 0.0, 0.0, 0.0, 0.0, 0.0, 0.0, 0.0, 0.0, 0.0, 1.7297107750678494E9, 0.0, 2024-10-24 00:42:55.067
21.0, -52060.5879498229, -51779.8723912087, -53874.1190879487, -60120.11291028415, -59658.0800006485, -52324.11501695097, -428.5052929526917, 30091.99709796871, 0.16, 0.9580000000000001, 0.168, 192.0, 0.0, 0.0, 0.0, 0.0, 0.0, 0.0, 0.0, 0.0, 0.0, 1.7297107750718455E9, 0.0, 2024-10-24 00:42:55.071
22.0, -52073.8425342849, -51794.91511522712, -53890.05588174533, -60138.44134073751, -59682.376346871424, -52343.851607305005, -111.46814959861632, 30455.592925023193, 0.16, 0.9580000000000001, 0.168, 192.0, 0.0, 0.0, 0.0, 0.0, 0.0, 0.0, 0.0, 0.0, 0.0, 1.7297107750758011E9, 0.0, 2024-10-24 00:42:55.075
23.0, -52101.73751136512, -51809.66726656762, -53908.58547789878, -60151.897090899605, -59695.161544699855, -52357.03913653364, 162.20660951216334, 30757.766158314487, 0.16, 0.9580000000000001, 0.168, 192.0, 0.0, 0.0, 0.0, 0.0, 0.0, 0.0, 0.0, 0.0, 0.0, 1.7297107750798604E9, 0.0, 2024-10-24 00:42:55.079
24.0, -52087.47709840263, -51790.4224145916, -53893.878030047184, -60129.94767784449, -59664.15967514035, -52330.865243776476, -60.39441351823968, 30494.88729177562, 0.16, 0.9580000000000001, 0.168, 192.0, 0.0, 0.0, 0.0, 0.0, 0.0, 0.0, 0.0, 0.0, 0.0, 1.729710775082908E9, 0.0, 2024-10-24 00:42:55.082
25.0, -52070.0427377275, -51769.81410620381, -53876.91305600561, -60110.54636365728, -59643.21609058572, -52311.3968743559, -405.3935891859042, 30112.359537167496, 0.16, 0.9580000000000001, 0.168, 192.0, 0.0, 0.0, 0.0, 0.0, 0.0, 0.0, 0.0, 0.0, 0.0, 1.7297107750878563E9, 0.0, 2024-10-24 00:42:55.087
26.0, -52052.56367356345, -51771.8704666937, -53872.62152107019, -60116.69309338249, -59658.95171868226, -52324.96438324027, -454.0980403540183, 30073.691019259815, 0.16, 0.9580000000000001, 0.168, 192.0, 0.0, 0.0, 0.0, 0.0, 0.0, 0.0, 0.0, 0.0, 0.0, 1.7297107750918849E9, 0.0, 2024-10-24 00:42:55.091
27.0, -52072.54613310649, -51794.60219080475, -53890.949951523544, -60142.88933788411, -59693.485163865706, -52357.3073574671, -118.33013514639559, 30457.91750644654, 0.16, 0.9580000000000001, 0.168, 192.0, 0.0, 0.0, 0.0, 0.0, 0.0, 0.0, 0.0, 0.0, 0.0, 1.7297107750959551E9, 0.0, 2024-10-24 00:42:55.095
28.0, -52098.4965084191, -51809.08612121179, -53910.53007966639, -60157.46267526897, -59708.57259137304, -52370.40547971791, 166.29697874748456, 30771.80305383242, 0.162, 0.964, 0.168, 192.0, 5.0, 16.0, 30.0, 32.0, 5.0, 64.0, 0.0, 0.0, 0.0, 1.7297107750999427E9, 0.0, 2024-10-24 00:42:55.099
29.0, -52092.84151707191, -51795.80918500533, -53896.18025972608, -60137.346105259196, -59682.26458814915, -52336.56493861257, -52.66070993670344, 30513.61805362917, 0.162, 0.964, 0.168, 192.0, 0.0, 0.0, 0.0, 0.0, 0.0, 0.0, 0.0, 0.0, 0.0, 1.7297107751039264E9, 0.0, 2024-10-24 00:42:55.103
30.0, -52074.78130755202, -51783.40396683264, -53880.35522465173, -60122.28102949632, -59662.25977686165, -52321.008124471686, -394.48593789171434, 30134.82304034508, 0.162, 0.964, 0.168, 192.0, 0.0, 0.0, 0.0, 0.0, 0.0, 0.0, 0.0, 0.0, 0.0, 1.7297107751078503E9, 0.0, 2024-10-24 00:42:55.107
31.0, -52058.755106777564, -51784.163926144116, -53875.32608214928, -60129.07595981073, -59673.27918687811, -52337.39195315742, -458.12135435597355, 30083.838711242523, 0.162, 0.964, 0.168, 192.0, 0.0, 0.0, 0.0, 0.0, 0.0, 0.0, 0.0, 0.0, 0.0, 1.729710775110848E9, 0.0, 2024-10-24 00:42:55.110
32.0, -52081.93386577772, -51811.76833054642, -53901.45527141754, -60159.161407847576, -59706.493879138696, -52374.339386742045, -123.96277474913298, 30466.36646585065, 0.162, 0.964, 0.168, 192.0, 0.0, 0.0, 0.0, 0.0, 0.0, 0.0, 0.0, 0.0, 0.0, 1.7297107751148744E9, 0.0, 2024-10-24 00:42:55.114
33.0, -52097.6471421298, -51826.028743508905, -53918.353190225745, -60169.91259693058, -59714.83107982053, -52383.97298860228, 154.1599815082528, 30772.205385232617, 0.162, 0.964, 0.168, 192.0, 0.0, 0.0, 0.0, 0.0, 0.0, 0.0, 0.0, 0.0, 0.0, 1.7297107751199937E9, 0.0, 2024-10-24 00:42:55.119
34.0, -52093.13208974983, -51816.01516199293, -53903.98101854099, -60152.589994977716, -59686.086736451005, -52358.84962783452, -53.688890181647565, 30523.72104212297, 0.162, 0.964, 0.168, 192.0, 0.0, 0.0, 0.0, 0.0, 0.0, 0.0, 0.0, 0.0, 0.0, 1.72971077512401E9, 0.0, 2024-10-24 00:42:55.124
35.0, -52067.5393423485, -51790.98120820299, -53874.99080598245, -60122.035160307314, -59654.88370119139, -52323.66798206187, -411.205042744284, 30128.273979219673, 0.162, 0.964, 0.168, 192.0, 0.0, 0.0, 0.0, 0.0, 0.0, 0.0, 0.0, 0.0, 0.0, 1.72971077512803E9, 0.0, 2024-10-24 00:42:55.128
36.0, -52057.01167071005, -51795.071577438306, -53872.10743094772, -60128.02542782133, -59670.775791499116, -52336.40847640139, -452.4887147532362, 30096.489798604227, 0.162, 0.964, 0.168, 192.0, 0.0, 0.0, 0.0, 0.0, 0.0, 0.0, 0.0, 0.0, 0.0, 1.729710775131976E9, 0.0, 2024-10-24 00:42:55.131
37.0, -52079.60928435437, -51824.01708650793, -53896.895515548655, -60158.043820624815, -59702.47056513674, -52373.22179951928, -100.22522213759687, 30494.12733246414, 0.162, 0.964, 0.168, 192.0, 0.0, 0.0, 0.0, 0.0, 0.0, 0.0, 0.0, 0.0, 0.0, 1.7297107751360395E9, 0.0, 2024-10-24 00:42:55.136
38.0, -52099.47998517514, -51839.97623204902, -53909.121919765705, -60166.04574513981, -59706.560934372064, -52380.24024727825, 169.76149913805713, 30792.09843779784, 0.16, 0.966, 0.17, 192.0, 5.0, 0.0, 30.0, 48.0, 5.0, 80.0, 0.0, 0.0, 0.0, 1.7297107751389675E9, 0.0, 2024-10-24 00:42:55.138
39.0, -52083.05145300049, -51813.71293231403, -53888.915942778105, -60135.0438755803, -59674.977919456716, -52337.146083968415, -58.82979140636819, 30523.251655489406, 0.16, 0.966, 0.17, 192.0, 0.0, 0.0, 0.0, 0.0, 0.0, 0.0, 0.0, 0.0, 0.0, 1.7297107751429963E9, 0.0, 2024-10-24 00:42:55.142
40.0, -52058.620996310834, -51791.696464025554, -53863.27849188787, -60109.92051481253, -59650.52511102261, -52313.11795867896, -423.69966789480065, 30119.62385411547, 0.16, 0.966, 0.17, 192.0, 0.0, 0.0, 0.0, 0.0, 0.0, 0.0, 0.0, 0.0, 0.0, 1.729710775148988E9, 0.0, 2024-10-24 00:42:55.148
41.0, -52044.60645253736, -51792.09879542575, -53859.67986103056, -60116.514279426854, -59665.85840771895, -52330.97700249875, -467.978473660764, 30086.207996154786, 0.16, 0.966, 0.17, 192.0, 0.0, 0.0, 0.0, 0.0, 0.0, 0.0, 0.0, 0.0, 0.0, 1.729710775152012E9, 0.0, 2024-10-24 00:42:55.152
42.0, -52061.32555738992, -51809.98019099, -53883.14919270864, -60139.98361110492, -59695.9885592447, -52362.7611831142, -124.27569917150727, 30475.821253755243, 0.16, 0.966, 0.17, 192.0, 0.0, 0.0, 0.0, 0.0, 0.0, 0.0, 0.0, 0.0, 0.0, 1.7297107751560044E9, 0.0, 2024-10-24 00:42:55.156
43.0, -52091.634522871325, -51819.97142076152, -53905.344474952755, -60150.690096699014, -59711.25480070768, -52369.511409939696, 151.72364136262433, 30779.447350436134, 0.16, 0.966, 0.17, 192.0, 0.0, 0.0, 0.0, 0.0, 0.0, 0.0, 0.0, 0.0, 0.0, 1.7297107751599824E9, 0.0, 2024-10-24 00:42:55.159
44.0, -52092.461537416166, -51808.572031089316, -53896.91786729311, -60138.1954715485, -59691.65232082037, -52353.17228474287, -52.48189598106098, 30533.153478283108, 0.16, 0.966, 0.17, 192.0, 0.0, 0.0, 0.0, 0.0, 0.0, 0.0, 0.0, 0.0, 0.0, 1.7297107751639752E9, 0.0, 2024-10-24 00:42:55.163
45.0, -52069.99803423858, -51787.85196397924, -53872.10743094772, -60115.888430582105, -59661.58922452798, -52329.390028642425, -397.4363681598149, 30148.502307951727, 0.16, 0.966, 0.17, 192.0, 0.0, 0.0, 0.0, 0.0, 0.0, 0.0, 0.0, 0.0, 0.0, 1.7297107751686974E9, 0.0, 2024-10-24 00:42:55.168
46.0, -52054.62003405333, -51788.32135061281, -53864.70900353301, -60120.358779473165, -59670.418163587834, -52338.01780200217, -452.8239909200658, 30104.648185330414, 0.16, 0.966, 0.17, 192.0, 0.0, 0.0, 0.0, 0.0, 0.0, 0.0, 0.0, 0.0, 0.0, 1.7297107751709905E9, 0.0, 2024-10-24 00:42:55.170
47.0, -52073.03787148451, -51813.511766613934, -53887.597189855245, -60144.0963320847, -59695.56387610005, -52362.33649996955, -129.8189317964234, 30472.334381620218, 0.16, 0.966, 0.17, 192.0, 0.0, 0.0, 0.0, 0.0, 0.0, 0.0, 0.0, 0.0, 0.0, 1.7297107751761456E9, 0.0, 2024-10-24 00:42:55.176
48.0, -52094.45084267269, -51832.35428718976, -53905.79150984187, -60155.0486868678, -59702.939951770306, -52365.733965126754, 149.91315006174446, 30777.18982424615, 0.162, 0.964, 0.17200000000000001, 192.0, 5.0, 16.0, 30.0, 32.0, 5.0, 96.0, 0.0, 0.0, 0.0, 1.7297107751799371E9, 0.0, 2024-10-24 00:42:55.179
49.0, -52086.4936216466, -51813.9811532475, -53890.90524803463, -60128.58422143271, -59666.39484958588, -52330.082932720536, -72.12907935727588, 30513.70746060699, 0.162, 0.964, 0.17200000000000001, 192.0, 0.0, 0.0, 0.0, 0.0, 0.0, 0.0, 0.0, 0.0, 0.0, 1.7297107751839917E9, 0.0, 2024-10-24 00:42:55.183
50.0, -52072.70259531768, -51794.06574893782, -53877.56125659481, -60112.4909654249, -59646.166520853825, -52313.27442089015, -410.5344904106248, 30136.030034545667, 0.162, 0.964, 0.17200000000000001, 192.0, 0.0, 0.0, 0.0, 0.0, 0.0, 0.0, 0.0, 0.0, 0.0, 1.7297107751879911E9, 0.0, 2024-10-24 00:42:55.187
51.0, -52059.87269400033, -51793.328141370795, -53878.09769846174, -60120.44818645099, -59660.80691347205, -52327.04309547462, -449.6947466963228, 30107.553912109604, 0.162, 0.964, 0.17200000000000001, 192.0, 0.0, 0.0, 0.0, 0.0, 0.0, 0.0, 0.0, 0.0, 0.0, 1.72971077519109E9, 0.0, 2024-10-24 00:42:55.191
52.0, -52072.43437438421, -51814.294077669874, -53899.17539348309, -60143.00109660639, -59690.557085342065, -52353.10522950951, -115.98320197858835, 30486.438332371516, 0.162, 0.964, 0.17200000000000001, 192.0, 0.0, 0.0, 0.0, 0.0, 0.0, 0.0, 0.0, 0.0, 0.0, 1.7297107751951125E9, 0.0, 2024-10-24 00:42:55.195
53.0, -52103.50329917709, -51838.29985121487, -53923.449387961555, -60165.799875950805, -59708.21496346176, -52377.3121687546, 175.75176665207943, 30803.564882703413, 0.162, 0.964, 0.17200000000000001, 192.0, 0.0, 0.0, 0.0, 0.0, 0.0, 0.0, 0.0, 0.0, 0.0, 1.7297107752010293E9, 0.0, 2024-10-24 00:42:55.201
54.0, -52090.60634262638, -51824.97821151951, -53907.6243528872, -60146.55502397478, -59679.023585203126, -52354.51338941019, -44.41291623269513, 30540.507202208904, 0.162, 0.964, 0.17200000000000001, 192.0, 0.0, 0.0, 0.0, 0.0, 0.0, 0.0, 0.0, 0.0, 0.0, 1.7297107752040856E9, 0.0, 2024-10-24 00:42:55.204
55.0, -52066.0864789589, -51809.06376946733, -53887.35132066624, -60127.2431167654, -59659.26464310463, -52332.519272866164, -383.86885927544347, 30160.90752612442, 0.162, 0.964, 0.17200000000000001, 192.0, 0.0, 0.0, 0.0, 0.0, 0.0, 0.0, 0.0, 0.0, 0.0, 1.7297107752081213E9, 0.0, 2024-10-24 00:42:55.208
56.0, -52053.68126078621, -51807.722664800014, -53880.75755605192, -60135.02152383584, -59674.57558805652, -52349.104267252005, -430.62870867594586, 30122.35076693902, 0.162, 0.964, 0.17200000000000001, 192.0, 0.0, 0.0, 0.0, 0.0, 0.0, 0.0, 0.0, 0.0, 0.0, 1.729710775211984E9, 0.0, 2024-10-24 00:42:55.211
57.0, -52060.789115522995, -51819.43497889459, -53897.67782660459, -60154.556948489786, -59699.47543137973, -52375.99341583174, -111.0658181984208, 30483.331439892227, 0.162, 0.964, 0.17200000000000001, 192.0, 0.0, 0.0, 0.0, 0.0, 0.0, 0.0, 0.0, 0.0, 0.0, 1.7297107752161753E9, 0.0, 2024-10-24 00:42:55.216
58.0, -52085.48779314611, -51836.69052561409, -53914.441634946066, -60164.1011433722, -59709.13138498442, -52381.335482756556, 164.8441153578896, 30785.102341783328, 0.158, 0.966, 0.17400000000000002, 192.0, 4.0, 240.0, 30.0, 48.0, 5.0, 112.0, 0.0, 0.0, 0.0, 1.7297107752202258E9, 0.0, 2024-10-24 00:42:55.220
59.0, -52077.217647697646, -51814.94227825908, -53896.94021903756, -60137.45786398147, -59678.4871433362, -52349.19367422983, -62.271960052485476, 30518.356623453692, 0.158, 0.966, 0.17400000000000002, 192.0, 0.0, 0.0, 0.0, 0.0, 0.0, 0.0, 0.0, 0.0, 0.0, 1.729710775223033E9, 0.0, 2024-10-24 00:42:55.223
60.0, -52059.58212132241, -51794.11045242673, -53876.756593794424, -60117.006017804866, -59655.040163402584, -52328.92064200886, -405.0359612746193, 30136.566476412594, 0.158, 0.966, 0.17400000000000002, 192.0, 0.0, 0.0, 0.0, 0.0, 0.0, 0.0, 0.0, 0.0, 0.0, 1.729710775227108E9, 0.0, 2024-10-24 00:42:55.227
61.0, -52050.999051451574, -51797.84319375076, -53872.93444549256, -60122.48219519642, -59663.5338262956, -52341.191749714824, -450.0970780965183, 30100.58016783955, 0.158, 0.966, 0.17400000000000002, 192.0, 0.0, 0.0, 0.0, 0.0, 0.0, 0.0, 0.0, 0.0, 0.0, 1.7297107752320364E9, 0.0, 2024-10-24 00:42:55.232
62.0, -52067.24876967058, -51823.74886557447, -53892.358111424226, -60146.935003630526, -59693.418108632344, -52372.528895441166, -108.94240247516662, 30486.438332371516, 0.158, 0.966, 0.17400000000000002, 192.0, 0.0, 0.0, 0.0, 0.0, 0.0, 0.0, 0.0, 0.0, 0.0, 1.7297107752362063E9, 0.0, 2024-10-24 00:42:55.236
63.0, -52089.868735059354, -51840.3338599603, -53906.685579620076, -60154.91457640107, -59705.68921633831, -52370.94192158484, 200.6069064863809, 30821.647443967755, 0.158, 0.966, 0.17400000000000002, 192.0, 0.0, 0.0, 0.0, 0.0, 0.0, 0.0, 0.0, 0.0, 0.0, 1.7297107752400649E9, 0.0, 2024-10-24 00:42:55.240
64.0, -52074.17781045173, -51811.38835089068, -53880.98107349647, -60119.0400265503, -59661.253948361154, -52327.4007233859, -45.28463426645211, 30533.444050961025, 0.158, 0.966, 0.17400000000000002, 192.0, 0.0, 0.0, 0.0, 0.0, 0.0, 0.0, 0.0, 0.0, 0.0, 1.729710775244064E9, 0.0, 2024-10-24 00:42:55.244
65.0, -52060.54324633399, -51795.16098441613, -53865.96070122251, -60101.1362792416, -59639.84097717297, -52305.45131033079, -398.7774728271333, 30141.416804959394, 0.158, 0.966, 0.17400000000000002, 192.0, 0.0, 0.0, 0.0, 0.0, 0.0, 0.0, 0.0, 0.0, 0.0, 1.729710775247234E9, 0.0, 2024-10-24 00:42:55.247
66.0, -52055.17882766471, -51804.48166185399, -53870.408698369116, -60116.98366606041, -59659.46580880473, -52328.8535867755, -425.9571940847867, 30124.474182662274, 0.158, 0.966, 0.17400000000000002, 192.0, 0.0, 0.0, 0.0, 0.0, 0.0, 0.0, 0.0, 0.0, 0.0, 1.7297107752511444E9, 0.0, 2024-10-24 00:42:55.251
67.0, -52073.46255462916, -51826.07344699782, -53894.52623063639, -60139.84950063819, -59686.064384706544, -52348.947805040814, -83.90844868522271, 30508.857132060188, 0.158, 0.966, 0.17400000000000002, 192.0, 0.0, 0.0, 0.0, 0.0, 0.0, 0.0, 0.0, 0.0, 0.0, 1.7297107752551825E9, 0.0, 2024-10-24 00:42:55.255
68.0, -52096.46249967367, -51836.71287735854, -53911.915887822615, -60145.86211989667, -59692.90401850987, -52352.389973686935, 182.12201382184196, 30799.742734401556, 0.158, 0.962, 0.17400000000000002, 192.0, 4.0, 240.0, 30.0, 16.0, 5.0, 112.0, 0.0, 0.0, 0.0, 1.729710775259144E9, 0.0, 2024-10-24 00:42:55.259
69.0, -52086.47126990215, -51823.57005161882, -53901.47762316199, -60129.25477376638, -59667.75830599765, -52331.6028513435, -58.047480350432444, 30518.37897519815, 0.158, 0.962, 0.17400000000000002, 192.0, 0.0, 0.0, 0.0, 0.0, 0.0, 0.0, 0.0, 0.0, 0.0, 1.7297107752641532E9, 0.0, 2024-10-24 00:42:55.264
70.0, -52073.61901684034, -51808.16969968912, -53886.613713099214, -60116.33546547121, -59648.7816749551, -52314.19084241281, -399.4256734163372, 30137.996988057734, 0.158, 0.962, 0.17400000000000002, 192.0, 0.0, 0.0, 0.0, 0.0, 0.0, 0.0, 0.0, 0.0, 0.0, 1.7297107752682445E9, 0.0, 2024-10-24 00:42:55.268
71.0, -52060.94557773419, -51809.15317644515, -53885.83140204327, -60125.745549886895, -59662.662108261844, -52330.12763620945, -433.42267673285926, 30113.186551712344, 0.158, 0.962, 0.17400000000000002, 192.0, 0.0, 0.0, 0.0, 0.0, 0.0, 0.0, 0.0, 0.0, 0.0, 1.729710775272136E9, 0.0, 2024-10-24 00:42:55.272
72.0, -52074.557790107465, -51832.398990678674, -53907.579649398285, -60151.98649787742, -59693.8874952659, -52360.436601690846, -111.57990832089286, 30478.25759390087, 0.158, 0.962, 0.17400000000000002, 192.0, 0.0, 0.0, 0.0, 0.0, 0.0, 0.0, 0.0, 0.0, 0.0, 1.7297107752752347E9, 0.0, 2024-10-24 00:42:55.275
73.0, -52105.6490666448, -51858.21525552455, -53935.541681711875, -60171.0525358978, -59712.95353328628, -52374.31703499759, 167.4369177147052, 30782.88951908225, 0.158, 0.962, 0.17400000000000002, 192.0, 0.0, 0.0, 0.0, 0.0, 0.0, 0.0, 0.0, 0.0, 0.0, 1.729710775279234E9, 0.0, 2024-10-24 00:42:55.279
74.0, -52102.34100846542, -51838.746886103974, -53925.125768795704, -60153.506416500386, -59686.064384706544, -52352.30056670911, -52.25837853650791, 30522.29053047783, 0.158, 0.962, 0.17400000000000002, 192.0, 0.0, 0.0, 0.0, 0.0, 0.0, 0.0, 0.0, 0.0, 0.0, 1.7297107752832112E9, 0.0, 2024-10-24 00:42:55.283
75.0, -52079.385766909814, -51817.28921142688, -53903.24341097396, -60133.54630870179, -59662.55034953956, -52332.07223797706, -385.0311499871195, 30150.62572367498, 0.158, 0.962, 0.17400000000000002, 192.0, 0.0, 0.0, 0.0, 0.0, 0.0, 0.0, 0.0, 0.0, 0.0, 1.7297107752871373E9, 0.0, 2024-10-24 00:42:55.287
76.0, -52060.20797016716, -51816.64101083768, -53895.73322483698, -60138.17311980404, -59673.502704322666, -52343.24811020472, -433.2662145216721, 30111.33135692255, 0.158, 0.962, 0.17400000000000002, 192.0, 0.0, 0.0, 0.0, 0.0, 0.0, 0.0, 0.0, 0.0, 0.0, 1.729710775292192E9, 0.0, 2024-10-24 00:42:55.292
77.0, -52081.46447914416, -51846.74881061898, -53923.04705656136, -60169.42085855256, -59707.81263206156, -52381.0672618231, -97.92299245870024, 30489.455817872982, 0.158, 0.962, 0.17400000000000002, 192.0, 0.0, 0.0, 0.0, 0.0, 0.0, 0.0, 0.0, 0.0, 0.0, 1.729710775296244E9, 0.0, 2024-10-24 00:42:55.296
78.0, -52107.16898526776, -51863.244398026996, -53942.87305389322, -60182.854256970204, -59719.05555952258, -52396.355855030524, 178.4563277311716, 30792.634879664765, 0.152, 0.9580000000000001, 0.168, 192.0, 4.0, 192.0, 29.0, 240.0, 5.0, 64.0, 0.0, 0.0, 0.0, 1.729710775300167E9, 0.0, 2024-10-24 00:42:55.300
79.0, -52104.08444453293, -51851.01799380994, -53931.11603630973, -60162.04478288231, -59693.6416260769, -52367.835029105554, -30.89011083723436, 30540.216629530983, 0.152, 0.9580000000000001, 0.168, 192.0, 0.0, 0.0, 0.0, 0.0, 0.0, 0.0, 0.0, 0.0, 0.0, 1.729710775303337E9, 0.0, 2024-10-24 00:42:55.303
80.0, -52077.709386075665, -51824.285307441394, -53905.411530186124, -60133.45690172397, -59664.31613735153, -52337.146083968415, -384.29354242009435, 30143.696682893835, 0.152, 0.9580000000000001, 0.168, 192.0, 0.0, 0.0, 0.0, 0.0, 0.0, 0.0, 0.0, 0.0, 0.0, 1.7297107753072417E9, 0.0, 2024-10-24 00:42:55.307
81.0, -52060.76676377854, -51823.86062429674, -53901.47762316199, -60140.363590760666, -59679.60473055896, -52355.29570046612, -414.5354526681248, 30121.63551111645, 0.152, 0.9580000000000001, 0.168, 192.0, 0.0, 0.0, 0.0, 0.0, 0.0, 0.0, 0.0, 0.0, 0.0, 1.7297107753112385E9, 0.0, 2024-10-24 00:42:55.311
82.0, -52075.94359826369, -51847.19584550808, -53922.555318183346, -60164.682288728036, -59708.70670183977, -52387.50456422622, -68.64220722224799, 30510.265291960874, 0.152, 0.9580000000000001, 0.168, 192.0, 0.0, 0.0, 0.0, 0.0, 0.0, 0.0, 0.0, 0.0, 0.0, 1.72971077531525E9, 0.0, 2024-10-24 00:42:55.315
83.0, -52110.20882251368, -51862.68560441561, -53942.135446326196, -60173.10889638769, -59717.35682694398, -52391.79609916164, 205.68075247773558, 30808.214045550114, 0.152, 0.9580000000000001, 0.168, 192.0, 0.0, 0.0, 0.0, 0.0, 0.0, 0.0, 0.0, 0.0, 0.0, 1.7297107753191812E9, 0.0, 2024-10-24 00:42:55.319
84.0, -52098.83178458593, -51845.810037351854, -53927.47270196351, -60147.0467623528, -59685.81851551754, -52353.61931963197, -31.27009049297458, 30526.313844479784, 0.152, 0.9580000000000001, 0.168, 192.0, 0.0, 0.0, 0.0, 0.0, 0.0, 0.0, 0.0, 0.0, 0.0, 1.729710775324129E9, 0.0, 2024-10-24 00:42:55.324
85.0, -52070.40036563878, -51826.11815048673, -53900.62825687269, -60124.493852197396, -59659.21993961572, -52327.64659257491, -403.40428392938185, 30113.655938345903, 0.152, 0.9580000000000001, 0.168, 192.0, 0.0, 0.0, 0.0, 0.0, 0.0, 0.0, 0.0, 0.0, 0.0, 1.7297107753283997E9, 0.0, 2024-10-24 00:42:55.328
86.0, -52061.61613006784, -51838.43396168161, -53905.411530186124, -60141.28001228333, -59680.23057940371, -52354.356927199, -428.99703133070847, 30098.61321432748, 0.152, 0.9580000000000001, 0.168, 192.0, 0.0, 0.0, 0.0, 0.0, 0.0, 0.0, 0.0, 0.0, 0.0, 1.7297107753314843E9, 0.0, 2024-10-24 00:42:55.331
87.0, -52084.45961290117, -51863.55732244937, -53931.25014677646, -60164.77169570586, -59708.86316405096, -52377.692148410344, -92.49151855606063, 30476.8941374891, 0.152, 0.9580000000000001, 0.168, 192.0, 0.0, 0.0, 0.0, 0.0, 0.0, 0.0, 0.0, 0.0, 0.0, 1.7297107753351684E9, 0.0, 2024-10-24 00:42:55.335
88.0, -52108.10775853488, -51881.1481453357, -53948.59510047378, -60175.165256877575, -59717.468585666255, -52381.961331601306, 203.02089488755405, 30794.937109343664, 0.158, 0.962, 0.17200000000000001, 192.0, 4.0, 240.0, 30.0, 16.0, 5.0, 96.0, 0.0, 0.0, 0.0, 1.7297107753392508E9, 0.0, 2024-10-24 00:42:55.339
89.0, -52103.235078243626, -51867.46887772905, -53934.13352181119, -60153.03702986682, -59685.61734981744, -52351.94293879783, -13.388694928728931, 30534.069899805774, 0.158, 0.962, 0.17200000000000001, 192.0, 0.0, 0.0, 0.0, 0.0, 0.0, 0.0, 0.0, 0.0, 0.0, 1.7297107753431933E9, 0.0, 2024-10-24 00:42:55.343
90.0, -52078.42464189824, -51847.441714697095, -53909.747768610454, -60132.92045985704, -59664.31613735153, -52335.08972347853, -363.9534549657649, 30139.78512761416, 0.158, 0.962, 0.17200000000000001, 192.0, 0.0, 0.0, 0.0, 0.0, 0.0, 0.0, 0.0, 0.0, 0.0, 1.7297107753481996E9, 0.0, 2024-10-24 00:42:55.348
91.0, -52067.986377237605, -51850.705069387564, -53907.512594164924, -60142.82228265075, -59680.7893730151, -52349.95363354131, -387.5121936216585, 30124.317720451087, 0.158, 0.962, 0.17200000000000001, 192.0, 0.0, 0.0, 0.0, 0.0, 0.0, 0.0, 0.0, 0.0, 0.0, 1.729710775352197E9, 0.0, 2024-10-24 00:42:55.352
92.0, -52083.386729167316, -51870.95574986408, -53926.80214962985, -60164.9505096615, -59708.304370439575, -52375.099346053525, -68.97748338907759, 30484.627841070636, 0.158, 0.962, 0.17200000000000001, 192.0, 0.0, 0.0, 0.0, 0.0, 0.0, 0.0, 0.0, 0.0, 0.0, 1.7297107753561969E9, 0.0, 2024-10-24 00:42:55.356
93.0, -52102.00573229858, -51886.69137796061, -53943.11892308223, -60175.656995255595, -59716.909792054874, -52384.21885779129, 199.24345007460715, 30775.021705033985, 0.158, 0.962, 0.17200000000000001, 192.0, 0.0, 0.0, 0.0, 0.0, 0.0, 0.0, 0.0, 0.0, 0.0, 1.7297107753591971E9, 0.0, 2024-10-24 00:42:55.359
94.0, -52096.75307235159, -51870.73223241952, -53929.886690364685, -60156.52390200185, -59686.89139925139, -52358.42494468987, -29.392543958728787, 30500.184655211528, 0.158, 0.962, 0.17200000000000001, 192.0, 0.0, 0.0, 0.0, 0.0, 0.0, 0.0, 0.0, 0.0, 0.0, 1.7297107753632338E9, 0.0, 2024-10-24 00:42:55.363
95.0, -52077.03883374201, -51850.16862752064, -53909.70306512155, -60136.07205582524, -59664.3831925849, -52336.40847640139, -367.5520858230693, 30118.595673870528, 0.158, 0.962, 0.17200000000000001, 192.0, 0.0, 0.0, 0.0, 0.0, 0.0, 0.0, 0.0, 0.0, 0.0, 1.7297107753672438E9, 0.0, 2024-10-24 00:42:55.367
96.0, -52060.386784122806, -51847.8887495862, -53903.601038885245, -60141.72704717244, -59679.76119277015, -52348.92545329636, -409.1933857433064, 30084.48691183173, 0.158, 0.962, 0.17200000000000001, 192.0, 0.0, 0.0, 0.0, 0.0, 0.0, 0.0, 0.0, 0.0, 0.0, 1.7297107753712192E9, 0.0, 2024-10-24 00:42:55.371
97.0, -52085.21957221265, -51875.26963654395, -53931.51836770992, -60172.28188184284, -59715.166355987356, -52383.347139757534, -75.48184102557195, 30459.258611113863, 0.158, 0.962, 0.17200000000000001, 192.0, 0.0, 0.0, 0.0, 0.0, 0.0, 0.0, 0.0, 0.0, 0.0, 1.729710775375303E9, 0.0, 2024-10-24 00:42:55.375
98.0, -52106.81135735648, -51891.8993344187, -53949.08683885179, -60187.57047505027, -59726.990428804216, -52399.775671932184, 211.91688918076625, 30770.350190442827, 0.158, 0.964, 0.166, 192.0, 4.0, 240.0, 30.0, 32.0, 5.0, 48.0, 0.0, 0.0, 0.0, 1.729710775380248E9, 0.0, 2024-10-24 00:42:55.380
99.0, -52102.8998020768, -51874.10734583227, -53933.462969477536, -60165.62106199516, -59694.267474921646, -52370.159610528906, -21.278860721452325, 30491.869806274153, 0.158, 0.964, 0.166, 192.0, 0.0, 0.0, 0.0, 0.0, 0.0, 0.0, 0.0, 0.0, 0.0, 1.7297107753842657E9, 0.0, 2024-10-24 00:42:55.384
100.0, -52065.66179581425, -51854.86249385626, -53906.79733834235, -60144.677477440535, -59668.741782753685, -52346.69027885083, -372.7823940256112, 30097.272109660164, 0.158, 0.964, 0.166, 192.0, 0.0, 0.0, 0.0, 0.0, 0.0, 0.0, 0.0, 0.0, 0.0, 1.729710775387374E9, 0.0, 2024-10-24 00:42:55.387
101.0, -52053.34598461938, -51851.17445602113, -53903.042245273864, -60150.15365483209, -59681.750498026675, -52363.02940404766, -415.2283567462393, 30064.482100544228, 0.158, 0.964, 0.166, 192.0, 0.0, 0.0, 0.0, 0.0, 0.0, 0.0, 0.0, 0.0, 0.0, 1.7297107753913248E9, 0.0, 2024-10-24 00:42:55.391
102.0, -52065.37122313634, -51872.60977895377, -53922.51061469443, -60173.57828302125, -59711.7912425746, -52390.18677356086, -75.34773055884011, 30446.562820263247, 0.158, 0.964, 0.166, 192.0, 0.0, 0.0, 0.0, 0.0, 0.0, 0.0, 0.0, 0.0, 0.0, 1.7297107753953836E9, 0.0, 2024-10-24 00:42:55.395
103.0, -52090.092252503906, -51889.46299427307, -53943.76712367143, -60185.98350119394, -59724.28586772512, -52394.254791051724, 211.7827787140344, 30755.530983868957, 0.158, 0.964, 0.166, 192.0, 0.0, 0.0, 0.0, 0.0, 0.0, 0.0, 0.0, 0.0, 0.0, 1.7297107753992832E9, 0.0, 2024-10-24 00:42:55.399
104.0, -52083.00674951157, -51869.27936902993, -53929.193786286574, -60162.73768696043, -59690.4900301087, -52366.426869204864, -22.1505787552093, 30476.84943400019, 0.158, 0.964, 0.166, 192.0, 0.0, 0.0, 0.0, 0.0, 0.0, 0.0, 0.0, 0.0, 0.0, 1.7297107754053059E9, 0.0, 2024-10-24 00:42:55.405
105.0, -52063.7395457911, -51853.40963046666, -53912.02764654489, -60143.4481314955, -59668.09358216448, -52342.57755787105, -371.75421378066704, 30084.732781020735, 0.158, 0.964, 0.166, 192.0, 0.0, 0.0, 0.0, 0.0, 0.0, 0.0, 0.0, 0.0, 0.0, 1.729710775408384E9, 0.0, 2024-10-24 00:42:55.408
106.0, -52051.40138285177, -51860.3386712478, -53912.09470177826, -60150.86891065466, -59684.99150097269, -52354.02165103217, -386.7075308212675, 30080.217728640764, 0.158, 0.964, 0.166, 192.0, 0.0, 0.0, 0.0, 0.0, 0.0, 0.0, 0.0, 0.0, 0.0, 1.729710775412255E9, 0.0, 2024-10-24 00:42:55.412
107.0, -52067.51699060405, -51884.344444792805, -53933.39591424417, -60173.6006347657, -59713.15469898638, -52379.12266005548, -55.18645706015314, 30453.938895933497, 0.158, 0.964, 0.166, 192.0, 0.0, 0.0, 0.0, 0.0, 0.0, 0.0, 0.0, 0.0, 0.0, 1.729710775415486E9, 0.0, 2024-10-24 00:42:55.415
108.0, -52093.243848472106, -51904.43866305813, -53948.86332140724, -60188.57630355076, -59723.905888069385, -52397.13816608646, 228.90421496679963, 30760.94010602714, 0.158, 0.964, 0.166, 192.0, 0.0, 0.0, 0.0, 0.0, 0.0, 0.0, 0.0, 0.0, 0.0, 1.7297107754203076E9, 0.0, 2024-10-24 00:42:55.420
109.0, -52080.7939268105, -51884.67972095963, -53921.81771061632, -60159.787256692325, -59686.31025389556, -52362.22474124727, -20.071866520865743, 30466.142948406097, 0.154, 0.962, 0.17, 192.0, 4.0, 208.0, 30.0, 16.0, 5.0, 80.0, 0.0, 0.0, 0.0, 1.729710775424322E9, 0.0, 2024-10-24 00:42:55.424
110.0, -52064.432449869215, -51867.26771202895, -53897.90134404914, -60139.17894830453, -59664.98668968519, -52336.20731070129, -387.1769174548289, 30056.23430684022, 0.154, 0.962, 0.17, 192.0, 0.0, 0.0, 0.0, 0.0, 0.0, 0.0, 0.0, 0.0, 0.0, 1.7297107754272664E9, 0.0, 2024-10-24 00:42:55.427
111.0, -52045.45581882666, -51871.29102603091, -53888.53596312237, -60147.91848038656, -59679.29180613659, -52352.05469752011, -394.88826929190986, 30059.832937697523, 0.154, 0.962, 0.17, 192.0, 0.0, 0.0, 0.0, 0.0, 0.0, 0.0, 0.0, 0.0, 0.0, 1.7297107754312744E9, 0.0, 2024-10-24 00:42:55.431
112.0, -52063.11369694635, -51899.34246532231, -53907.6243528872, -60172.639509754124, -59706.426823905334, -52381.44724147883, -45.172875544175575, 30451.74842497688, 0.154, 0.962, 0.17, 192.0, 0.0, 0.0, 0.0, 0.0, 0.0, 0.0, 0.0, 0.0, 0.0, 1.7297107754363031E9, 0.0, 2024-10-24 00:42:55.436
113.0, -52092.37213043834, -51916.016866685975, -53925.841024618276, -60180.552027291305, -59714.83107982053, -52380.977854845274, 247.41145937579387, 30764.51638513999, 0.154, 0.962, 0.17, 192.0, 0.0, 0.0, 0.0, 0.0, 0.0, 0.0, 0.0, 0.0, 0.0, 1.729710775440393E9, 0.0, 2024-10-24 00:42:55.440
114.0, -52092.10390950488, -51899.81185195588, -53911.37944595569, -60158.177931091544, -59681.54933232658, -52352.79230508713, 18.19431998661995, 30487.75708529438, 0.154, 0.962, 0.17, 192.0, 0.0, 0.0, 0.0, 0.0, 0.0, 0.0, 0.0, 0.0, 0.0, 1.7297107754433897E9, 0.0, 2024-10-24 00:42:55.443
115.0, -52077.03883374201, -51883.45037501459, -53892.17929746858, -60140.698866927494, -59661.52216929462, -52333.90508102239, -326.983669636687, 30098.0544207161, 0.154, 0.962, 0.17, 192.0, 0.0, 0.0, 0.0, 0.0, 0.0, 0.0, 0.0, 0.0, 0.0, 1.729710775447365E9, 0.0, 2024-10-24 00:42:55.447
116.0, -52059.895045744786, -51881.192848824605, -53888.13363172217, -60145.12451232965, -59675.939044468294, -52345.058601505596, -361.51711482013644, 30071.34408609201, 0.154, 0.962, 0.17, 192.0, 0.0, 0.0, 0.0, 0.0, 0.0, 0.0, 0.0, 0.0, 0.0, 1.72971077545135E9, 0.0, 2024-10-24 00:42:55.451
117.0, -52070.60153133888, -51901.667046745664, -53912.273515733905, -60169.66672774157, -59702.87289653694, -52372.75241288572, -40.367250486284554, 30434.135250346095, 0.154, 0.962, 0.17, 192.0, 0.0, 0.0, 0.0, 0.0, 0.0, 0.0, 0.0, 0.0, 0.0, 1.7297107754553878E9, 0.0, 2024-10-24 00:42:55.455
118.0, -52106.83370910093, -51924.30936387889, -53938.33564976879, -60188.039861683836, -59721.514251412664, -52388.398634004436, 245.6680233082799, 30742.388158129237, 0.154, 0.962, 0.17, 192.0, 0.0, 0.0, 0.0, 0.0, 0.0, 0.0, 0.0, 0.0, 0.0, 1.729710775459381E9, 0.0, 2024-10-24 00:42:55.459
119.0, -52101.22342124265, -51903.164613624176, -53919.470777448514, -60163.207073593985, -59690.73589929771, -52356.74856385572, 9.410084415684274, 30460.577364036726, 0.168, 0.9580000000000001, 0.17400000000000002, 192.0, 5.0, 64.0, 29.0, 240.0, 5.0, 112.0, 0.0, 0.0, 0.0, 1.7297107754634128E9, 0.0, 2024-10-24 00:42:55.463
120.0, -52086.247752457595, -51882.176325580636, -53904.04807377435, -60145.169215818554, -59670.01583218764, -52340.0518107476, -334.8291319404998, 30073.914536704367, 0.168, 0.9580000000000001, 0.17400000000000002, 192.0, 0.0, 0.0, 0.0, 0.0, 0.0, 0.0, 0.0, 0.0, 0.0, 1.729710775468486E9, 0.0, 2024-10-24 00:42:55.468
121.0, -52068.85809527137, -51880.499944746494, -53898.81776557181, -60150.824207165744, -59684.678576550315, -52352.32291845357, -348.1284198914075, 30069.779463980136, 0.168, 0.9580000000000001, 0.17400000000000002, 192.0, 0.0, 0.0, 0.0, 0.0, 0.0, 0.0, 0.0, 0.0, 0.0, 1.7297107754714675E9, 0.0, 2024-10-24 00:42:55.471
122.0, -52091.768633338055, -51905.75741598099, -53921.3259722383, -60179.74736449091, -59719.90492581188, -52388.33157877107, -7.15255822569826, 30452.79895696628, 0.168, 0.9580000000000001, 0.17400000000000002, 192.0, 0.0, 0.0, 0.0, 0.0, 0.0, 0.0, 0.0, 0.0, 0.0, 1.7297107754754565E9, 0.0, 2024-10-24 00:42:55.475
123.0, -52107.012523056575, -51916.1062736638, -53930.26667002043, -60186.564646549785, -59725.13523401442, -52392.64546545094, 261.6942240827351, 30744.64568431922, 0.168, 0.9580000000000001, 0.17400000000000002, 192.0, 0.0, 0.0, 0.0, 0.0, 0.0, 0.0, 0.0, 0.0, 0.0, 1.7297107754794042E9, 0.0, 2024-10-24 00:42:55.479
124.0, -52099.88231657533, -51894.760357708976, -53911.55825991133, -60161.95537590449, -59693.418108632344, -52362.18003775836, 32.49943643801647, 30466.388817595103, 0.168, 0.9580000000000001, 0.17400000000000002, 192.0, 0.0, 0.0, 0.0, 0.0, 0.0, 0.0, 0.0, 0.0, 0.0, 1.7297107754834642E9, 0.0, 2024-10-24 00:42:55.483
125.0, -52074.22251394064, -51870.37460450824, -53885.33966366526, -60137.077884325736, -59668.56296879804, -52338.464836891275, -344.66389950083493, 30043.38205377842, 0.168, 0.9580000000000001, 0.17400000000000002, 192.0, 0.0, 0.0, 0.0, 0.0, 0.0, 0.0, 0.0, 0.0, 0.0, 1.7297107754874895E9, 0.0, 2024-10-24 00:42:55.487
126.0, -52053.54715031948, -51869.90521787468, -53879.93054150708, -60143.67164894005, -59682.62221606043, -52353.37345044297, -363.6852340323012, 30035.022501352134, 0.168, 0.9580000000000001, 0.17400000000000002, 192.0, 0.0, 0.0, 0.0, 0.0, 0.0, 0.0, 0.0, 0.0, 0.0, 1.7297107754924912E9, 0.0, 2024-10-24 00:42:55.492
127.0, -52067.87461851533, -51901.01884615646, -53897.163736482114, -60176.282844100344, -59714.0934722535, -52389.89620088294, -9.43243616013958, 30434.671692213025, 0.168, 0.9580000000000001, 0.17400000000000002, 192.0, 0.0, 0.0, 0.0, 0.0, 0.0, 0.0, 0.0, 0.0, 0.0, 1.7297107754954185E9, 0.0, 2024-10-24 00:42:55.495
128.0, -52096.529554907036, -51923.7058667786, -53912.92171632311, -60192.42080359707, -59723.01181829117, -52402.010846377714, 272.7583375881121, 30737.582533071345, 0.168, 0.9580000000000001, 0.17400000000000002, 192.0, 0.0, 0.0, 0.0, 0.0, 0.0, 0.0, 0.0, 0.0, 0.0, 1.7297107754983823E9, 0.0, 2024-10-24 00:42:55.498
129.0, -52093.377958938836, -51912.84291897332, -53895.844983559255, -60173.66768999907, -59691.40645163137, -52371.478363451766, 19.02133453146631, 30433.26353231234, 0.166, 0.96, 0.178, 192.0, 5.0, 48.0, 30.0, 0.0, 5.0, 144.0, 0.0, 0.0, 0.0, 1.729710775503456E9, 0.0, 2024-10-24 00:42:55.503
130.0, -52070.869752272345, -51899.67774148915, -53869.44757335754, -60152.27707055534, -59662.77386698412, -52338.01780200217, -360.91361771984316, 30009.072126039522, 0.166, 0.96, 0.178, 192.0, 0.0, 0.0, 0.0, 0.0, 0.0, 0.0, 0.0, 0.0, 0.0, 1.729710775507502E9, 0.0, 2024-10-24 00:42:55.507
131.0, -52056.519932332034, -51899.61068625578, -53865.40190761112, -60160.52486425935, -59681.258759648656, -52356.2568254777, -376.8504115164771, 30004.601777148462, 0.166, 0.96, 0.178, 192.0, 0.0, 0.0, 0.0, 0.0, 0.0, 0.0, 0.0, 0.0, 0.0, 1.7297107755114348E9, 0.0, 2024-10-24 00:42:55.511
132.0, -52076.07770873043, -51922.856500489295, -53885.13849796516, -60183.2565883704, -59710.42778616283, -52384.15180255793, -6.727875081047426, 30418.846657138667, 0.166, 0.96, 0.178, 192.0, 0.0, 0.0, 0.0, 0.0, 0.0, 0.0, 0.0, 0.0, 0.0, 1.7297107755153909E9, 0.0, 2024-10-24 00:42:55.515
133.0, -52097.848307829896, -51942.369573398784, -53898.48248940498, -60193.44898384202, -59712.931181541826, -52390.209125305315, 285.4764801831818, 30732.46398359108, 0.166, 0.96, 0.178, 192.0, 0.0, 0.0, 0.0, 0.0, 0.0, 0.0, 0.0, 0.0, 0.0, 1.7297107755205631E9, 0.0, 2024-10-24 00:42:55.520
134.0, -52105.671418389255, -51930.72431453757, -53886.971341010496, -60172.48304754294, -59685.796163773084, -52358.89433132343, 38.42264871867284, 30432.21300032294, 0.166, 0.96, 0.178, 192.0, 0.0, 0.0, 0.0, 0.0, 0.0, 0.0, 0.0, 0.0, 0.0, 1.7297107755235033E9, 0.0, 2024-10-24 00:42:55.523
135.0, -52083.386729167316, -51914.474596318556, -53864.37372736618, -60153.95345138949, -59666.014869930135, -52339.69418283632, -321.1722160783072, 30025.746527403182, 0.166, 0.96, 0.178, 192.0, 0.0, 0.0, 0.0, 0.0, 0.0, 0.0, 0.0, 0.0, 0.0, 1.7297107755264313E9, 0.0, 2024-10-24 00:42:55.526
136.0, -52056.34111837639, -51910.22776487205, -53855.723602261976, -60154.02050662286, -59675.179085156815, -52347.09261025103, -347.99430942467563, 30010.167361517833, 0.166, 0.96, 0.178, 192.0, 0.0, 0.0, 0.0, 0.0, 0.0, 0.0, 0.0, 0.0, 0.0, 1.729710775531412E9, 0.0, 2024-10-24 00:42:55.531
137.0, -52069.55099934948, -51929.025581958966, -53876.71189030551, -60173.04184115432, -59703.45404189278, -52375.12169779798, 8.113683237276463, 30409.63773842308, 0.166, 0.96, 0.178, 192.0, 0.0, 0.0, 0.0, 0.0, 0.0, 0.0, 0.0, 0.0, 0.0, 1.729710775535556E9, 0.0, 2024-10-24 00:42:55.535
138.0, -52099.032950286026, -51944.31417516639, -53896.00144577044, -60182.27311161436, -59715.345169943, -52381.7154624123, 291.8914308418549, 30713.621463015257, 0.166, 0.96, 0.178, 192.0, 0.0, 0.0, 0.0, 0.0, 0.0, 0.0, 0.0, 0.0, 0.0, 1.7297107755394464E9, 0.0, 2024-10-24 00:42:55.539
139.0, -52098.38474969682, -51928.80206451441, -53881.159887452115, -60157.753247946894, -59682.6892712938, -52346.69027885083, 45.5528551999158, 30417.39379374907, 0.16, 0.962, 0.17400000000000002, 192.0, 5.0, 0.0, 30.0, 16.0, 5.0, 112.0, 0.0, 0.0, 0.0, 1.7297107755434687E9, 0.0, 2024-10-24 00:42:55.543
140.0, -52076.86001978636, -51912.61940152877, -53861.42329709808, -60139.84950063819, -59662.14801813937, -52330.842892032015, -327.47540801470376, 29998.209178234243, 0.16, 0.962, 0.17400000000000002, 192.0, 0.0, 0.0, 0.0, 0.0, 0.0, 0.0, 0.0, 0.0, 0.0, 1.7297107755484514E9, 0.0, 2024-10-24 00:42:55.548
141.0, -52053.658909041755, -51912.68645676213, -53859.74691626393, -60149.013715864865, -59684.32094863903, -52350.40066843041, -321.35103003394966, 30013.60953016395, 0.16, 0.962, 0.17400000000000002, 192.0, 0.0, 0.0, 0.0, 0.0, 0.0, 0.0, 0.0, 0.0, 0.0, 1.729710775551514E9, 0.0, 2024-10-24 00:42:55.551
142.0, -52067.62874932632, -51931.84190176033, -53883.104489219724, -60171.320756831265, -59714.02641702013, -52374.45114546432, 58.76273617300227, 30438.15856434805, 0.16, 0.962, 0.17400000000000002, 192.0, 0.0, 0.0, 0.0, 0.0, 0.0, 0.0, 0.0, 0.0, 0.0, 1.729710775554463E9, 0.0, 2024-10-24 00:42:55.554
143.0, -52096.55190665149, -51943.64362283274, -53901.34351269526, -60182.496629058915, -59724.26351598067, -52383.905933368915, 344.5297890341031, 30746.970265742573, 0.16, 0.962, 0.17400000000000002, 192.0, 0.0, 0.0, 0.0, 0.0, 0.0, 0.0, 0.0, 0.0, 0.0, 1.7297107755595396E9, 0.0, 2024-10-24 00:42:55.559
144.0, -52094.80847058397, -51921.69420977762, -53884.22207644249, -60161.57539624875, -59697.66494007885, -52362.805886603106, 89.40697782122825, 30441.153698105063, 0.16, 0.962, 0.17400000000000002, 192.0, 0.0, 0.0, 0.0, 0.0, 0.0, 0.0, 0.0, 0.0, 0.0, 1.7297107755634892E9, 0.0, 2024-10-24 00:42:55.563
145.0, -52072.188505195205, -51893.88863967522, -53858.47286682998, -60137.547270959294, -59667.89241646438, -52335.62616534546, -314.04200959706424, 29991.146026986367, 0.16, 0.962, 0.17400000000000002, 192.0, 0.0, 0.0, 0.0, 0.0, 0.0, 0.0, 0.0, 0.0, 0.0, 1.7297107755675032E9, 0.0, 2024-10-24 00:42:55.567
146.0, -52059.82799051142, -51898.15782286618, -53860.03748894185, -60155.0486868678, -59689.59596033049, -52364.772840115176, -338.20424535325117, 29976.438579134774, 0.16, 0.962, 0.17400000000000002, 192.0, 0.0, 0.0, 0.0, 0.0, 0.0, 0.0, 0.0, 0.0, 0.0, 1.7297107755714908E9, 0.0, 2024-10-24 00:42:55.571
147.0, -52081.129202977325, -51926.32102087987, -53887.463079388515, -60187.190495394534, -59725.55991715907, -52404.20131733434, 45.79872438892417, 30402.574587175204, 0.16, 0.962, 0.17400000000000002, 192.0, 0.0, 0.0, 0.0, 0.0, 0.0, 0.0, 0.0, 0.0, 0.0, 1.729710775575638E9, 0.0, 2024-10-24 00:42:55.575
148.0, -52114.54506093801, -51942.72720131007, -53905.836213330775, -60195.371233865175, -59733.02539980715, -52405.92240165739, 344.75330647865616, 30720.37168984076, 0.16, 0.962, 0.17400000000000002, 192.0, 0.0, 0.0, 0.0, 0.0, 0.0, 0.0, 0.0, 0.0, 0.0, 1.72971077558051E9, 0.0, 2024-10-24 00:42:55.580
149.0, -52113.27101150406, -51926.67864879115, -53890.257047445426, -60168.70560272999, -59698.603713345976, -52364.191694759334, 84.69075974115846, 30408.050764566753, 0.162, 0.962, 0.18, 192.0, 5.0, 16.0, 30.0, 16.0, 5.0, 160.0, 0.0, 0.0, 0.0, 1.7297107755835595E9, 0.0, 2024-10-24 00:42:55.583
150.0, -52094.96493279516, -51903.142261879715, -53868.508800090414, -60145.9962303634, -59672.586282799995, -52340.67765959235, -292.78550062006724, 29983.591137360472, 0.162, 0.962, 0.18, 192.0, 0.0, 0.0, 0.0, 0.0, 0.0, 0.0, 0.0, 0.0, 0.0, 1.7297107755864992E9, 0.0, 2024-10-24 00:42:55.586
151.0, -52073.70842381816, -51899.65538974469, -53859.03166044136, -60147.538500730814, -59684.94679748378, -52353.06052602059, -307.13532056037434, 29980.50659662564, 0.162, 0.962, 0.18, 192.0, 0.0, 0.0, 0.0, 0.0, 0.0, 0.0, 0.0, 0.0, 0.0, 1.729710775591618E9, 0.0, 2024-10-24 00:42:55.591
152.0, -52079.050490742986, -51918.2073376426, -53877.85182927273, -60167.252739340394, -59709.220791962245, -52376.88748560995, 69.49157351154966, 30400.33941272967, 0.162, 0.962, 0.18, 192.0, 0.0, 0.0, 0.0, 0.0, 0.0, 0.0, 0.0, 0.0, 0.0, 1.729710775595641E9, 0.0, 2024-10-24 00:42:55.595
153.0, -52111.84049985892, -51941.49785536502, -53895.777928325886, -60185.49176281593, -59720.21785023426, -52392.10902358402, 338.53952152008077, 30687.156997580172, 0.162, 0.962, 0.18, 192.0, 0.0, 0.0, 0.0, 0.0, 0.0, 0.0, 0.0, 0.0, 0.0, 1.729710775599664E9, 0.0, 2024-10-24 00:42:55.599
154.0, -52120.46827321867, -51930.43374185965, -53882.836268286264, -60169.06323064128, -59690.57943708652, -52366.31511048259, 78.00758814902164, 30372.802063560735, 0.162, 0.962, 0.18, 192.0, 0.0, 0.0, 0.0, 0.0, 0.0, 0.0, 0.0, 0.0, 0.0, 1.7297107756036012E9, 0.0, 2024-10-24 00:42:55.603
155.0, -52083.07380474494, -51909.82543347185, -53857.399983096126, -60146.73383793043, -59666.46190481924, -52339.89534853642, -290.2821052410728, 29958.69129403726, 0.162, 0.962, 0.18, 192.0, 0.0, 0.0, 0.0, 0.0, 0.0, 0.0, 0.0, 0.0, 0.0, 1.7297107756075635E9, 0.0, 2024-10-24 00:42:55.607
156.0, -52060.54324633399, -51906.07034040336, -53849.42041032558, -60151.13713158812, -59678.97888171422, -52350.51242715269, -307.6047071939358, 29953.12570966789, 0.162, 0.962, 0.18, 192.0, 0.0, 0.0, 0.0, 0.0, 0.0, 0.0, 0.0, 0.0, 0.0, 1.729710775610564E9, 0.0, 2024-10-24 00:42:55.610
157.0, -52080.05631924347, -51933.495930850026, -53873.537942592855, -60177.95922493449, -59710.15956522937, -52379.726157155776, 72.03967237945466, 30375.886604295567, 0.162, 0.962, 0.18, 192.0, 0.0, 0.0, 0.0, 0.0, 0.0, 0.0, 0.0, 0.0, 0.0, 1.7297107756146843E9, 0.0, 2024-10-24 00:42:55.614
158.0, -52107.705427134686, -51953.701907837625, -53888.89359103365, -60185.29059711583, -59712.90882979737, -52384.48707872476, 362.52294332062525, 30687.022887113442, 0.162, 0.962, 0.18, 192.0, 0.0, 0.0, 0.0, 0.0, 0.0, 0.0, 0.0, 0.0, 0.0, 1.729710775619578E9, 0.0, 2024-10-24 00:42:55.619
159.0, -52105.06792128896, -51938.01098322999, -53871.50393384742, -60162.178893349046, -59677.50366658017, -52354.31222371009, 108.98710596407724, 30380.222842719897, 0.158, 0.9580000000000001, 0.176, 192.0, 4.0, 240.0, 29.0, 240.0, 5.0, 128.0, 0.0, 0.0, 0.0, 1.7297107756236722E9, 0.0, 2024-10-24 00:42:55.623
160.0, -52084.3925576678, -51916.9556399531, -53848.90632020311, -60141.16825356105, -59652.15678836784, -52330.418208887364, -257.8497240364223, 29964.100416195444, 0.158, 0.9580000000000001, 0.176, 192.0, 0.0, 0.0, 0.0, 0.0, 0.0, 0.0, 0.0, 0.0, 0.0, 1.7297107756276205E9, 0.0, 2024-10-24 00:42:55.627
161.0, -52067.11465920385, -51919.10140742081, -53848.74985799192, -60142.03997159481, -59672.943910711285, -52347.04790676211, -274.792346333545, 29956.38906435836, 0.158, 0.9580000000000001, 0.176, 192.0, 0.0, 0.0, 0.0, 0.0, 0.0, 0.0, 0.0, 0.0, 0.0, 1.7297107756315842E9, 0.0, 2024-10-24 00:42:55.631
162.0, -52088.88525830332, -51947.555178112416, -53876.8683525167, -60168.86206494118, -59708.25966695067, -52386.54343921464, 92.55857378942655, 30367.504700124828, 0.158, 0.9580000000000001, 0.176, 192.0, 0.0, 0.0, 0.0, 0.0, 0.0, 0.0, 0.0, 0.0, 0.0, 1.7297107756355963E9, 0.0, 2024-10-24 00:42:55.635
163.0, -52107.1019300344, -51960.832114318866, -53888.290093933356, -60175.455829555496, -59715.27811470963, -52391.79609916164, 395.3129524365607, 30688.58750922531, 0.158, 0.9580000000000001, 0.176, 192.0, 0.0, 0.0, 0.0, 0.0, 0.0, 0.0, 0.0, 0.0, 0.0, 1.7297107756385877E9, 0.0, 2024-10-24 00:42:55.638
164.0, -52101.066959031465, -51946.23642518955, -53869.984015224465, -60148.70079144249, -59681.77284977113, -52353.641671376434, 138.8937400452781, 30379.217014219408, 0.158, 0.9580000000000001, 0.176, 192.0, 0.0, 0.0, 0.0, 0.0, 0.0, 0.0, 0.0, 0.0, 0.0, 1.729710775642558E9, 0.0, 2024-10-24 00:42:55.642
165.0, -52076.70355757518, -51920.24134638803, -53845.03946841234, -60126.729026642926, -59659.309346593545, -52332.29575542161, -242.27055815107326, 29951.65049453384, 0.158, 0.9580000000000001, 0.176, 192.0, 0.0, 0.0, 0.0, 0.0, 0.0, 0.0, 0.0, 0.0, 0.0, 1.7297107756475885E9, 0.0, 2024-10-24 00:42:55.647
166.0, -52059.09038294439, -51918.252041131505, -53843.38543932265, -60137.10023607019, -59678.86712299194, -52359.34136621253, -268.3773956748719, 29937.345378082442, 0.158, 0.9580000000000001, 0.176, 192.0, 0.0, 0.0, 0.0, 0.0, 0.0, 0.0, 0.0, 0.0, 0.0, 1.729710775651641E9, 0.0, 2024-10-24 00:42:55.651
167.0, -52073.97664475163, -51943.3083466659, -53870.07342220228, -60164.16819860556, -59713.28880945311, -52383.99534034674, 110.17174842020852, 30359.167499442996, 0.158, 0.9580000000000001, 0.176, 192.0, 0.0, 0.0, 0.0, 0.0, 0.0, 0.0, 0.0, 0.0, 0.0, 1.7297107756557214E9, 0.0, 2024-10-24 00:42:55.655
168.0, -52111.25935450308, -51956.80880031691, -53893.69921609154, -60177.53454178984, -59725.33639971452, -52390.25382879422, 406.15354849738463, 30675.15411080767, 0.158, 0.9580000000000001, 0.176, 192.0, 0.0, 0.0, 0.0, 0.0, 0.0, 0.0, 0.0, 0.0, 0.0, 1.7297107756596084E9, 0.0, 2024-10-24 00:42:55.659
169.0, -52106.02904630054, -51935.75345704001, -53875.90722750512, -60155.76394269037, -59691.5405620981, -52363.27527323667, 142.671184858225, 30358.318133153694, 0.158, 0.9560000000000001, 0.17400000000000002, 192.0, 4.0, 240.0, 29.0, 224.0, 5.0, 112.0, 0.0, 0.0, 0.0, 1.7297107756656425E9, 0.0, 2024-10-24 00:42:55.665
170.0, -52089.533458892525, -51913.915802707175, -53855.34362260623, -60135.98264884742, -59665.90311120786, -52342.51050263769, -231.0276306900538, 29939.15586938332, 0.158, 0.9560000000000001, 0.17400000000000002, 192.0, 0.0, 0.0, 0.0, 0.0, 0.0, 0.0, 0.0, 0.0, 0.0, 1.7297107756691942E9, 0.0, 2024-10-24 00:42:55.669
171.0, -52055.11177243135, -51907.32203809286, -53844.99476492343, -60139.916555871554, -59683.628044560915, -52359.654290634906, -250.54070359953687, 29930.885723934858, 0.158, 0.9560000000000001, 0.17400000000000002, 192.0, 0.0, 0.0, 0.0, 0.0, 0.0, 0.0, 0.0, 0.0, 0.0, 1.7297107756726472E9, 0.0, 2024-10-24 00:42:55.672
172.0, -52070.62388308333, -51930.344334881825, -53871.36982338069, -60168.86206494118, -59720.77664384564, -52393.628942206975, 129.1036759738536, 30353.803080773723, 0.158, 0.9560000000000001, 0.17400000000000002, 192.0, 0.0, 0.0, 0.0, 0.0, 0.0, 0.0, 0.0, 0.0, 0.0, 1.729710775675632E9, 0.0, 2024-10-24 00:42:55.675
173.0, -52102.16219450977, -51948.67276533518, -53893.676864347086, -60183.30129185931, -59732.3995509624, -52407.37526504699, 428.1253132969515, 30671.778997394922, 0.158, 0.9560000000000001, 0.17400000000000002, 192.0, 0.0, 0.0, 0.0, 0.0, 0.0, 0.0, 0.0, 0.0, 0.0, 1.729710775679656E9, 0.0, 2024-10-24 00:42:55.679
174.0, -52104.620886399854, -51934.747628539524, -53877.22598042798, -60160.1001811147, -59697.754347056674, -52377.28981701015, 155.85871408685614, 30347.745758026336, 0.158, 0.9560000000000001, 0.17400000000000002, 192.0, 0.0, 0.0, 0.0, 0.0, 0.0, 0.0, 0.0, 0.0, 0.0, 1.72971077568366E9, 0.0, 2024-10-24 00:42:55.683
175.0, -52079.92220877674, -51915.659238774686, -53849.353355092215, -60134.28391626882, -59665.947814696774, -52340.18592121434, -223.07040966396448, 29921.810915686005, 0.158, 0.9560000000000001, 0.17400000000000002, 192.0, 0.0, 0.0, 0.0, 0.0, 0.0, 0.0, 0.0, 0.0, 0.0, 1.729710775687662E9, 0.0, 2024-10-24 00:42:55.687
176.0, -52056.184656165206, -51914.69811376311, -53840.457360799, -60139.00013434889, -59678.44243984729, -52352.524084153665, -248.4619913651933, 29907.550502723516, 0.158, 0.9560000000000001, 0.17400000000000002, 192.0, 0.0, 0.0, 0.0, 0.0, 0.0, 0.0, 0.0, 0.0, 0.0, 1.7297107756906471E9, 0.0, 2024-10-24 00:42:55.690
177.0, -52078.335234920414, -51944.58239609985, -53866.85477100072, -60170.33728007523, -59711.92535304134, -52390.67851193887, 120.11827470282016, 30319.157876867997, 0.158, 0.9560000000000001, 0.17400000000000002, 192.0, 0.0, 0.0, 0.0, 0.0, 0.0, 0.0, 0.0, 0.0, 0.0, 1.7297107756947925E9, 0.0, 2024-10-24 00:42:55.694
178.0, -52106.9007643343, -51966.71062311061, -53884.62440784269, -60183.88243721514, -59720.70958861227, -52401.00501787723, 411.4732636777477, 30628.863648040733, 0.158, 0.9560000000000001, 0.17400000000000002, 192.0, 0.0, 0.0, 0.0, 0.0, 0.0, 0.0, 0.0, 0.0, 0.0, 1.7297107756986508E9, 0.0, 2024-10-24 00:42:55.698
179.0, -52105.35849396688, -51951.0644019919, -53865.625425055674, -60155.96510839047, -59683.27041664963, -52357.106191767, 132.47878938660497, 30297.700202190903, 0.156, 0.9580000000000001, 0.178, 192.0, 4.0, 224.0, 29.0, 240.0, 5.0, 144.0, 0.0, 0.0, 0.0, 1.7297107757036664E9, 0.0, 2024-10-24 00:42:55.703
180.0, -52086.515973391055, -51935.239366917536, -53845.62061376818, -60136.04970408079, -59660.51634079413, -52335.55911011209, -258.76614555908986, 29861.23768821212, 0.156, 0.9580000000000001, 0.178, 192.0, 0.0, 0.0, 0.0, 0.0, 0.0, 0.0, 0.0, 0.0, 0.0, 1.729710775707801E9, 0.0, 2024-10-24 00:42:55.707
181.0, -52071.3391389059, -51940.62613733127, -53843.56425327829, -60146.95735537498, -59675.82728574602, -52353.35109869851, -263.7058810837127, 29866.937383048225, 0.156, 0.9580000000000001, 0.178, 192.0, 0.0, 0.0, 0.0, 0.0, 0.0, 0.0, 0.0, 0.0, 0.0, 1.7297107757127168E9, 0.0, 2024-10-24 00:42:55.712
182.0, -52089.46640365916, -51967.403527188726, -53868.08411694576, -60173.89120744362, -59707.70087333929, -52382.5648287016, 113.07747519939844, 30286.680792174437, 0.156, 0.9580000000000001, 0.178, 192.0, 0.0, 0.0, 0.0, 0.0, 0.0, 0.0, 0.0, 0.0, 0.0, 1.7297107757159293E9, 0.0, 2024-10-24 00:42:55.715
183.0, -52117.763712139575, -51983.675597152185, -53888.20068695554, -60182.0048906809, -59712.97588503073, -52385.89523862544, 383.42182438633733, 30575.71119972601, 0.156, 0.9580000000000001, 0.178, 192.0, 0.0, 0.0, 0.0, 0.0, 0.0, 0.0, 0.0, 0.0, 0.0, 1.72971077571987E9, 0.0, 2024-10-24 00:42:55.719
184.0, -52115.57324118295, -51966.08477426586, -53871.10160244723, -60159.228463080944, -59681.6387393044, -52356.63680513344, 114.28446939998501, 30252.99671328029, 0.156, 0.9580000000000001, 0.178, 192.0, 0.0, 0.0, 0.0, 0.0, 0.0, 0.0, 0.0, 0.0, 0.0, 1.7297107757241328E9, 0.0, 2024-10-24 00:42:55.724
185.0, -52091.38865368231, -51942.52603560997, -53844.6594887566, -60137.88254712612, -59658.61644251543, -52337.16843571287, -254.56401760149214, 29837.94717048969, 0.156, 0.9580000000000001, 0.178, 192.0, 0.0, 0.0, 0.0, 0.0, 0.0, 0.0, 0.0, 0.0, 0.0, 1.729710775727918E9, 0.0, 2024-10-24 00:42:55.727
186.0, -52064.7900777805, -51941.18493094265, -53838.378648564656, -60145.92917513003, -59676.56489331304, -52357.754392356204, -254.87694202386643, 29850.82177529595, 0.156, 0.9580000000000001, 0.178, 192.0, 0.0, 0.0, 0.0, 0.0, 0.0, 0.0, 0.0, 0.0, 0.0, 1.7297107757318897E9, 0.0, 2024-10-24 00:42:55.731
187.0, -52090.27106645955, -51967.604692888825, -53865.31250063331, -60173.28771034333, -59710.2936756961, -52387.16928805939, 120.34179214737323, 30272.286268745218, 0.156, 0.9580000000000001, 0.178, 192.0, 0.0, 0.0, 0.0, 0.0, 0.0, 0.0, 0.0, 0.0, 0.0, 1.7297107757348151E9, 0.0, 2024-10-24 00:42:55.734
188.0, -52111.10289229189, -51977.21594300461, -53882.38923339716, -60181.06611741378, -59715.27811470963, -52392.868982895496, 414.043714290108, 30588.00465917643, 0.156, 0.9580000000000001, 0.178, 192.0, 0.0, 0.0, 0.0, 0.0, 0.0, 0.0, 0.0, 0.0, 0.0, 1.7297107757387385E9, 0.0, 2024-10-24 00:42:55.738
189.0, -52096.03781652902, -51950.34914616933, -53857.28822437385, -60148.70079144249, -59673.703870022764, -52355.92154931087, 134.06576324293175, 30254.918963303444, 0.158, 0.9520000000000001, 0.18, 192.0, 4.0, 240.0, 29.0, 192.0, 5.0, 160.0, 0.0, 0.0, 0.0, 1.7297107757427495E9, 0.0, 2024-10-24 00:42:55.742
190.0, -52068.05343247097, -51919.7049045211, -53828.00743913739, -60119.53176492832, -59644.24427083067, -52326.88663326343, -266.56690437399203, 29807.705260241662, 0.158, 0.9520000000000001, 0.18, 192.0, 0.0, 0.0, 0.0, 0.0, 0.0, 0.0, 0.0, 0.0, 0.0, 1.7297107757478664E9, 0.0, 2024-10-24 00:42:55.747
191.0, -52050.954347962666, -51916.26273587498, -53829.52735776036, -60131.28878251181, -59668.250044375665, -52353.015822531685, -271.37252943188304, 29815.081335911913, 0.158, 0.9520000000000001, 0.18, 192.0, 0.0, 0.0, 0.0, 0.0, 0.0, 0.0, 0.0, 0.0, 0.0, 1.729710775751906E9, 0.0, 2024-10-24 00:42:55.751
192.0, -52073.70842381816, -51939.66501231969, -53860.30570987531, -60162.55887300478, -59706.58328611652, -52390.276180538676, 114.5526903334487, 30245.710044587857, 0.158, 0.9520000000000001, 0.18, 192.0, 0.0, 0.0, 0.0, 0.0, 0.0, 0.0, 0.0, 0.0, 0.0, 1.7297107757558377E9, 0.0, 2024-10-24 00:42:55.755
193.0, -52100.1952409977, -51953.63485260426, -53879.30469266233, -60175.098201644214, -59715.83690832101, -52398.34516028705, 406.4441211753036, 30555.684036694056, 0.158, 0.9520000000000001, 0.18, 192.0, 0.0, 0.0, 0.0, 0.0, 0.0, 0.0, 0.0, 0.0, 0.0, 1.729710775761774E9, 0.0, 2024-10-24 00:42:55.761
194.0, -52094.74141535061, -51934.07707620586, -53860.14924766413, -60149.997192620904, -59682.376346871424, -52361.621244146976, 122.57696659290393, 30217.569198318626, 0.158, 0.9520000000000001, 0.18, 192.0, 0.0, 0.0, 0.0, 0.0, 0.0, 0.0, 0.0, 0.0, 0.0, 1.72971077576496E9, 0.0, 2024-10-24 00:42:55.764
195.0, -52071.3391389059, -51918.877889976255, -53840.8596921992, -60133.54630870179, -59663.66793676233, -52342.5552061266, -259.43669789274907, 29789.80151293296, 0.158, 0.9520000000000001, 0.18, 192.0, 0.0, 0.0, 0.0, 0.0, 0.0, 0.0, 0.0, 0.0, 0.0, 1.7297107757678804E9, 0.0, 2024-10-24 00:42:55.767
196.0, -52059.24684515558, -51928.310326136394, -53844.815950967786, -60146.935003630526, -59684.43270736131, -52362.112982524995, -254.16168620129662, 29808.24170210859, 0.158, 0.9520000000000001, 0.18, 192.0, 0.0, 0.0, 0.0, 0.0, 0.0, 0.0, 0.0, 0.0, 0.0, 1.72971077577098E9, 0.0, 2024-10-24 00:42:55.770
197.0, -52080.16807796575, -51955.154771227215, -53871.14630593614, -60174.606463266195, -59714.54050714261, -52395.46178525231, 119.87240551381177, 30226.375785634016, 0.158, 0.9520000000000001, 0.18, 192.0, 0.0, 0.0, 0.0, 0.0, 0.0, 0.0, 0.0, 0.0, 0.0, 1.7297107757758975E9, 0.0, 2024-10-24 00:42:55.775
198.0, -52118.23309877314, -51978.84762034984, -53896.56023938182, -60191.12440241867, -59727.3480567155, -52409.54338425915, 425.19723477330626, 30549.582010457758, 0.158, 0.9520000000000001, 0.18, 192.0, 0.0, 0.0, 0.0, 0.0, 0.0, 0.0, 0.0, 0.0, 0.0, 1.729710775779791E9, 0.0, 2024-10-24 00:42:55.779
199.0, -52109.62767715784, -51962.82141957539, -53871.70509954752, -60164.43641953903, -59689.59596033049, -52372.0595088076, 146.4933331600825, 30218.84324775258, 0.156, 0.9580000000000001, 0.176, 192.0, 4.0, 224.0, 29.0, 240.0, 5.0, 128.0, 0.0, 0.0, 0.0, 1.7297107757837813E9, 0.0, 2024-10-24 00:42:55.783
200.0, -52087.141822235804, -51945.99055600054, -53849.73333474795, -60144.118683829154, -59662.4832943062, -52350.33361319704, -234.00041270260965, 29794.763600202037, 0.156, 0.9580000000000001, 0.176, 192.0, 0.0, 0.0, 0.0, 0.0, 0.0, 0.0, 0.0, 0.0, 0.0, 1.7297107757879655E9, 0.0, 2024-10-24 00:42:55.787
201.0, -52067.427583626224, -51943.822436788374, -53846.71584924649, -60149.505454242884, -59678.44243984729, -52363.588197659046, -269.13735498635236, 29774.31175402543, 0.156, 0.9580000000000001, 0.176, 192.0, 0.0, 0.0, 0.0, 0.0, 0.0, 0.0, 0.0, 0.0, 0.0, 1.729710775790892E9, 0.0, 2024-10-24 00:42:55.790
202.0, -52088.66174085876, -51967.515285911, -53871.593340825246, -60172.88537894314, -59709.354902428975, -52378.385052488455, 99.3758558482952, 30188.199006104354, 0.156, 0.9580000000000001, 0.176, 192.0, 0.0, 0.0, 0.0, 0.0, 0.0, 0.0, 0.0, 0.0, 0.0, 1.729710775794844E9, 0.0, 2024-10-24 00:42:55.794
203.0, -52121.42939823025, -51988.59298093236, -53887.798355555344, -60185.804687238306, -59713.57938213103, -52388.733910171264, 372.58122832551345, 30481.833873013722, 0.156, 0.9580000000000001, 0.176, 192.0, 0.0, 0.0, 0.0, 0.0, 0.0, 0.0, 0.0, 0.0, 0.0, 1.7297107757988336E9, 0.0, 2024-10-24 00:42:55.798
204.0, -52122.5022819641, -51978.62410290529, -53871.32511989178, -60167.07392538476, -59682.75632652716, -52363.69995638132, 107.66835304121412, 30164.103825581533, 0.156, 0.9580000000000001, 0.176, 192.0, 0.0, 0.0, 0.0, 0.0, 0.0, 0.0, 0.0, 0.0, 0.0, 1.7297107758028252E9, 0.0, 2024-10-24 00:42:55.802
205.0, -52095.344912450906, -51963.335509697856, -53847.14053239114, -60147.11381758616, -59659.734029738196, -52338.66600259137, -264.51054388410375, 29745.612114144817, 0.156, 0.9580000000000001, 0.176, 192.0, 0.0, 0.0, 0.0, 0.0, 0.0, 0.0, 0.0, 0.0, 0.0, 1.7297107758079557E9, 0.0, 2024-10-24 00:42:55.807
206.0, -52074.848362785386, -51960.38507942976, -53840.63617475465, -60152.299422299795, -59675.35789911245, -52353.21698823178, -271.77486083207856, 29752.87643109279, 0.156, 0.9580000000000001, 0.176, 192.0, 0.0, 0.0, 0.0, 0.0, 0.0, 0.0, 0.0, 0.0, 0.0, 1.7297107758119175E9, 0.0, 2024-10-24 00:42:55.811
207.0, -52083.11850823385, -51972.87970458028, -53858.62932904116, -60172.080716142744, -59701.26357093616, -52378.00507283272, 98.52648955899353, 30171.03286636268, 0.156, 0.9580000000000001, 0.176, 192.0, 0.0, 0.0, 0.0, 0.0, 0.0, 0.0, 0.0, 0.0, 0.0, 1.7297107758158433E9, 0.0, 2024-10-24 00:42:55.815
208.0, -52116.55671793899, -51992.16926004521, -53883.14919270864, -60190.63266404065, -59718.25089672219, -52398.54632598715, 402.2643449621612, 30494.75318130889, 0.156, 0.9580000000000001, 0.176, 192.0, 0.0, 0.0, 0.0, 0.0, 0.0, 0.0, 0.0, 0.0, 0.0, 1.7297107758188224E9, 0.0, 2024-10-24 00:42:55.818
209.0, -52109.56062192448, -51971.98563480206, -53862.94321572104, -60166.559835262284, -59686.913750995845, -52371.27719775167, 133.05993474244295, 30172.843357663558, 0.156, 0.962, 0.176, 192.0, 4.0, 224.0, 30.0, 16.0, 5.0, 128.0, 0.0, 0.0, 0.0, 1.7297107758228648E9, 0.0, 2024-10-24 00:42:55.822
210.0, -52082.44795590019, -51940.335564653346, -53835.53997701883, -60139.73774191592, -59656.62713725891, -52343.96336602728, -256.8438955359335, 29737.07374776289, 0.156, 0.962, 0.176, 192.0, 0.0, 0.0, 0.0, 0.0, 0.0, 0.0, 0.0, 0.0, 0.0, 1.729710775826857E9, 0.0, 2024-10-24 00:42:55.826
211.0, -52056.251711398574, -51934.09942795032, -53829.61676473818, -60146.73383793043, -59673.68151827831, -52362.805886603106, -258.07324148097535, 29749.680131635683, 0.156, 0.962, 0.176, 192.0, 0.0, 0.0, 0.0, 0.0, 0.0, 0.0, 0.0, 0.0, 0.0, 1.7297107758310187E9, 0.0, 2024-10-24 00:42:55.831
212.0, -52071.83087728392, -51955.87002704979, -53853.980166194466, -60175.165256877575, -59710.98657977422, -52403.843689423054, 125.86267302783406, 30178.83362517758, 0.156, 0.962, 0.176, 192.0, 0.0, 0.0, 0.0, 0.0, 0.0, 0.0, 0.0, 0.0, 0.0, 1.7297107758358543E9, 0.0, 2024-10-24 00:42:55.835
213.0, -52094.495546161605, -51964.3636899428, -53865.24544539994, -60179.32268134626, -59714.33934144251, -52407.73289295827, 407.4275979313371, 30481.61035556917, 0.156, 0.962, 0.176, 192.0, 0.0, 0.0, 0.0, 0.0, 0.0, 0.0, 0.0, 0.0, 0.0, 1.7297107758400493E9, 0.0, 2024-10-24 00:42:55.840
214.0, -52095.07669151744, -51941.721372809574, -53846.93936669104, -60149.75132343189, -59679.090640436494, -52367.276235494166, 131.0035742525547, 30155.54310745515, 0.156, 0.962, 0.176, 192.0, 0.0, 0.0, 0.0, 0.0, 0.0, 0.0, 0.0, 0.0, 0.0, 1.7297107758440487E9, 0.0, 2024-10-24 00:42:55.844
215.0, -52076.18946745271, -51913.11113990678, -53826.10754085869, -60122.01280856285, -59656.023640158615, -52337.07902873505, -235.7885522590342, 29745.433300189175, 0.156, 0.962, 0.176, 192.0, 0.0, 0.0, 0.0, 0.0, 0.0, 0.0, 0.0, 0.0, 0.0, 1.7297107758469052E9, 0.0, 2024-10-24 00:42:55.846
216.0, -52060.61030156736, -51903.164613624176, -53824.542918746825, -60127.690151654504, -59674.9332159678, -52353.84283707653, -241.5105988395928, 29754.88808809377, 0.156, 0.962, 0.176, 192.0, 0.0, 0.0, 0.0, 0.0, 0.0, 0.0, 0.0, 0.0, 0.0, 1.7297107758509367E9, 0.0, 2024-10-24 00:42:55.850
217.0, -52086.96300828016, -51926.768055768975, -53856.43885808455, -60160.65897472608, -59712.61825711945, -52394.388901518454, 150.0472605284763, 30191.819988706113, 0.156, 0.962, 0.176, 192.0, 0.0, 0.0, 0.0, 0.0, 0.0, 0.0, 0.0, 0.0, 0.0, 1.7297107758548572E9, 0.0, 2024-10-24 00:42:55.854
218.0, -52113.96391558217, -51951.734954325555, -53878.47767811748, -60178.89799820161, -59724.24116423621, -52407.10704411352, 451.3934792749261, 30511.80756232829, 0.156, 0.962, 0.176, 192.0, 0.0, 0.0, 0.0, 0.0, 0.0, 0.0, 0.0, 0.0, 0.0, 1.7297107758589275E9, 0.0, 2024-10-24 00:42:55.858
219.0, -52097.66949387425, -51936.26754716248, -53855.12010516168, -60156.65801246858, -59689.797126030586, -52376.59691293203, 176.10939456336433, 30185.78501770318, 0.156, 0.962, 0.18, 192.0, 4.0, 224.0, 30.0, 16.0, 5.0, 160.0, 0.0, 0.0, 0.0, 1.7297107758639479E9, 0.0, 2024-10-24 00:42:55.863
220.0, -52085.621903612846, -51925.8069307574, -53838.80333170931, -60143.42577975104, -59667.73595425319, -52356.726212111265, -191.1968220706966, 29773.88707088078, 0.156, 0.962, 0.18, 192.0, 0.0, 0.0, 0.0, 0.0, 0.0, 0.0, 0.0, 0.0, 0.0, 1.729710775867906E9, 0.0, 2024-10-24 00:42:55.867
221.0, -52059.51506608904, -51927.21509065809, -53827.89568041512, -60145.39273326311, -59674.15090491187, -52358.42494468987, -216.29783109400645, 29762.331218997388, 0.156, 0.962, 0.18, 192.0, 0.0, 0.0, 0.0, 0.0, 0.0, 0.0, 0.0, 0.0, 0.0, 1.7297107758718953E9, 0.0, 2024-10-24 00:42:55.871
222.0, -52077.23999944211, -51964.609559131815, -53852.214378382494, -60177.892169701125, -59708.3937774174, -52393.85245965153, 164.30767349096223, 30188.780151460192, 0.156, 0.962, 0.18, 192.0, 0.0, 0.0, 0.0, 0.0, 0.0, 0.0, 0.0, 0.0, 0.0, 1.729710775875007E9, 0.0, 2024-10-24 00:42:55.875
223.0, -52111.92990683674, -51988.771794888, -53870.7663262804, -60191.526733818864, -59711.1430419854, -52401.56381148861, 431.61218543197936, 30476.02241945534, 0.156, 0.962, 0.18, 192.0, 0.0, 0.0, 0.0, 0.0, 0.0, 0.0, 0.0, 0.0, 0.0, 1.7297107758790047E9, 0.0, 2024-10-24 00:42:55.879
224.0, -52112.06401730347, -51971.11391676831, -53852.214378382494, -60165.55400676179, -59675.40260260137, -52362.02357554717, 146.2474639710741, 30138.511078180207, 0.156, 0.962, 0.18, 192.0, 0.0, 0.0, 0.0, 0.0, 0.0, 0.0, 0.0, 0.0, 0.0, 1.7297107758829598E9, 0.0, 2024-10-24 00:42:55.882
225.0, -52084.97370302364, -51949.90211128022, -53825.101712358206, -60138.41898899305, -59646.97118365421, -52322.57274658355, -230.78176150104542, 29716.331328908367, 0.156, 0.962, 0.18, 192.0, 0.0, 0.0, 0.0, 0.0, 0.0, 0.0, 0.0, 0.0, 0.0, 1.7297107758870754E9, 0.0, 2024-10-24 00:42:55.887
226.0, -52072.680243573224, -51950.08092523586, -53826.24165132543, -60151.42770426604, -59666.32779435251, -52348.6572323629, -231.54172081252585, 29730.12235523729, 0.156, 0.962, 0.18, 192.0, 0.0, 0.0, 0.0, 0.0, 0.0, 0.0, 0.0, 0.0, 0.0, 1.72971077589214E9, 0.0, 2024-10-24 00:42:55.892
227.0, -52088.21470596966, -51974.95841681462, -53852.54965454932, -60179.09916390171, -59702.53762037011, -52383.905933368915, 145.3086907039512, 30151.519793453193, 0.156, 0.962, 0.18, 192.0, 0.0, 0.0, 0.0, 0.0, 0.0, 0.0, 0.0, 0.0, 0.0, 1.7297107758962097E9, 0.0, 2024-10-24 00:42:55.896
228.0, -52120.490624963124, -51993.756233901535, -53875.1696199381, -60195.460640843, -59713.78054783113, -52399.39569227645, 433.4673802217699, 30459.79505298079, 0.156, 0.962, 0.18, 192.0, 0.0, 0.0, 0.0, 0.0, 0.0, 0.0, 0.0, 0.0, 0.0, 1.7297107758999467E9, 0.0, 2024-10-24 00:42:55.899
229.0, -52110.432339958235, -51967.112954510805, -53854.583663294754, -60164.77169570586, -59674.9332159678, -52362.62707264746, 139.16196097874177, 30112.270130189674, 0.156, 0.962, 0.18, 192.0, 0.0, 0.0, 0.0, 0.0, 0.0, 0.0, 0.0, 0.0, 0.0, 1.7297107759029684E9, 0.0, 2024-10-24 00:42:55.902
230.0, -52091.88039206033, -51953.16546597069, -53835.27175608537, -60151.78533217732, -59656.26950934762, -52348.053735262605, -237.7108022821906, 29691.140912907234, 0.156, 0.962, 0.17, 192.0, 4.0, 224.0, 30.0, 16.0, 5.0, 80.0, 0.0, 0.0, 0.0, 1.729710775907099E9, 0.0, 2024-10-24 00:42:55.907
231.0, -52068.92515050473, -51954.05953574891, -53832.6566019841, -60163.87762592765, -59676.40843110185, -52370.71840414029, -237.12965692635262, 29707.345927637332, 0.156, 0.962, 0.17, 192.0, 0.0, 0.0, 0.0, 0.0, 0.0, 0.0, 0.0, 0.0, 0.0, 1.7297107759109983E9, 0.0, 2024-10-24 00:42:55.910
232.0, -52081.553886121976, -51969.638701634256, -53854.27073887238, -60185.62587328266, -59702.716434325754, -52395.08180559657, 135.00453651005466, 30124.876514062467, 0.156, 0.962, 0.17, 192.0, 0.0, 0.0, 0.0, 0.0, 0.0, 0.0, 0.0, 0.0, 0.0, 1.7297107759149992E9, 0.0, 2024-10-24 00:42:55.914
233.0, -52119.90947960728, -51985.776661130985, -53878.32121590629, -60196.89115248813, -59712.03711176362, -52401.89908765544, 391.1778797123289, 30400.518226685315, 0.156, 0.962, 0.17, 192.0, 0.0, 0.0, 0.0, 0.0, 0.0, 0.0, 0.0, 0.0, 0.0, 1.729710775918995E9, 0.0, 2024-10-24 00:42:55.918
234.0, -52117.16021503928, -51965.034242276466, -53863.70317503252, -60172.14777137611, -59678.71066078075, -52371.4113082184, 135.58568186589264, 30091.61711831297, 0.156, 0.962, 0.17, 192.0, 0.0, 0.0, 0.0, 0.0, 0.0, 0.0, 0.0, 0.0, 0.0, 1.7297107759241853E9, 0.0, 2024-10-24 00:42:55.924
235.0, -52089.82403157044, -51936.647526818226, -53836.903433430605, -60146.219747807954, -59652.08973313448, -52344.969194527774, -231.6534795348024, 29679.182729623644, 0.156, 0.962, 0.17, 192.0, 0.0, 0.0, 0.0, 0.0, 0.0, 0.0, 0.0, 0.0, 0.0, 1.7297107759280295E9, 0.0, 2024-10-24 00:42:55.928
236.0, -52069.2380749271, -51933.4065238722, -53833.26009908439, -60152.25471881089, -59672.96626245574, -52360.83893309104, -247.34440414242795, 29679.048619156914, 0.156, 0.962, 0.17, 192.0, 0.0, 0.0, 0.0, 0.0, 0.0, 0.0, 0.0, 0.0, 0.0, 1.7297107759310825E9, 0.0, 2024-10-24 00:42:55.931
237.0, -52072.43437438421, -51955.020660760485, -53852.70611676051, -60174.71822198847, -59705.2421814492, -52389.784442160664, 117.88310025728944, 30089.784275267637, 0.156, 0.962, 0.17, 192.0, 0.0, 0.0, 0.0, 0.0, 0.0, 0.0, 0.0, 0.0, 0.0, 1.7297107759350576E9, 0.0, 2024-10-24 00:42:55.935
238.0, -52108.24186900161, -51972.81264934691, -53874.52141934889, -60187.50341981691, -59715.76985308765, -52405.18479409037, 403.69485660730084, 30394.729124871392, 0.156, 0.962, 0.17, 192.0, 0.0, 0.0, 0.0, 0.0, 0.0, 0.0, 0.0, 0.0, 0.0, 1.7297107759391143E9, 0.0, 2024-10-24 00:42:55.939
239.0, -52107.45955794568, -51951.64554734773, -53858.584625552256, -60162.53652126033, -59683.5386375831, -52377.37922398797, 133.864597542834, 30070.33825759152, 0.156, 0.962, 0.17, 192.0, 0.0, 0.0, 0.0, 0.0, 0.0, 0.0, 0.0, 0.0, 0.0, 1.7297107759431367E9, 0.0, 2024-10-24 00:42:55.943
240.0, -52082.73852857811, -51920.33075336585, -53834.26592758488, -60133.74747440189, -59657.94589018177, -52350.44537191932, -249.60193033241396, 29639.217810537557, 0.148, 0.962, 0.176, 192.0, 4.0, 160.0, 30.0, 16.0, 5.0, 128.0, 0.0, 0.0, 0.0, 1.7297107759470122E9, 0.0, 2024-10-24 00:42:55.947
241.0, -52068.36635689335, -51914.89927946321, -53834.98118340745, -60139.46952098245, -59678.040108447094, -52361.7106511248, -246.29387215302853, 29656.942743890613, 0.148, 0.962, 0.176, 192.0, 0.0, 0.0, 0.0, 0.0, 0.0, 0.0, 0.0, 0.0, 0.0, 1.729710775952046E9, 0.0, 2024-10-24 00:42:55.952
242.0, -52080.54805762149, -51922.70003827811, -53855.857712728706, -60157.17210259105, -59702.60467560348, -52385.49290722524, 129.21543469613013, 30075.56856579406, 0.148, 0.962, 0.176, 192.0, 0.0, 0.0, 0.0, 0.0, 0.0, 0.0, 0.0, 0.0, 0.0, 1.7297107759562955E9, 0.0, 2024-10-24 00:42:55.956
243.0, -52114.299191749, -51942.52603560997, -53879.23763742896, -60169.82318995276, -59710.271323951645, -52393.58423871807, 418.0223248031527, 30380.334601442173, 0.148, 0.962, 0.176, 192.0, 0.0, 0.0, 0.0, 0.0, 0.0, 0.0, 0.0, 0.0, 0.0, 1.7297107759590755E9, 0.0, 2024-10-24 00:42:55.959
244.0, -52115.327371993946, -51920.777788254956, -53863.70317503252, -60140.832977394224, -59672.76509675564, -52346.9584997843, 135.29510918797365, 30044.544344490096, 0.148, 0.962, 0.176, 192.0, 0.0, 0.0, 0.0, 0.0, 0.0, 0.0, 0.0, 0.0, 0.0, 1.72971077596314E9, 0.0, 2024-10-24 00:42:55.963
245.0, -52096.70836886267, -51900.9517909231, -53842.87134920018, -60122.68336089652, -59648.267584832625, -52328.11597920847, -261.2918926825396, 29603.186798475603, 0.148, 0.962, 0.176, 192.0, 0.0, 0.0, 0.0, 0.0, 0.0, 0.0, 0.0, 0.0, 0.0, 1.7297107759672828E9, 0.0, 2024-10-24 00:42:55.967
246.0, -52082.045624499995, -51908.17140438216, -53847.72167774697, -60137.480215725926, -59671.64750953287, -52350.75829634169, -256.24039843564015, 29623.14690627419, 0.148, 0.962, 0.176, 192.0, 0.0, 0.0, 0.0, 0.0, 0.0, 0.0, 0.0, 0.0, 0.0, 1.7297107759712412E9, 0.0, 2024-10-24 00:42:55.971
247.0, -52107.97364806815, -51939.933233253156, -53882.41158514161, -60170.35963181969, -59707.18678321681, -52384.01769209119, 153.44472568568298, 30076.887318716923, 0.148, 0.962, 0.176, 192.0, 0.0, 0.0, 0.0, 0.0, 0.0, 0.0, 0.0, 0.0, 0.0, 1.729710775975349E9, 0.0, 2024-10-24 00:42:55.975
248.0, -52129.878357634356, -51958.68634685116, -53895.062672503314, -60178.942701690525, -59708.81846056205, -52387.10223282602, 442.34102277052676, 30384.603784633135, 0.148, 0.962, 0.176, 192.0, 0.0, 0.0, 0.0, 0.0, 0.0, 0.0, 0.0, 0.0, 0.0, 1.7297107759800515E9, 0.0, 2024-10-24 00:42:55.980
249.0, -52119.998886585105, -51939.352087897314, -53871.77215478088, -60152.83586416672, -59668.96530019824, -52350.26655796368, 150.6507576287696, 30040.09634734349, 0.148, 0.962, 0.176, 192.0, 0.0, 0.0, 0.0, 0.0, 0.0, 0.0, 0.0, 0.0, 0.0, 1.72971077598408E9, 0.0, 2024-10-24 00:42:55.984
250.0, -52100.10583401988, -51919.928421965655, -53850.22507312597, -60136.27322152534, -59644.89247141987, -52333.45804613329, -243.27638665156206, 29599.029374006914, 0.154, 0.96, 0.17400000000000002, 192.0, 4.0, 208.0, 30.0, 0.0, 5.0, 112.0, 0.0, 0.0, 0.0, 1.729710775987075E9, 0.0, 2024-10-24 00:42:55.987
251.0, -52076.92707501973, -51921.31423012188, -53847.56521553579, -60148.67843969804, -59664.204378629256, -52354.28987196564, -262.20831420520716, 29593.530844870907, 0.154, 0.96, 0.17400000000000002, 192.0, 0.0, 0.0, 0.0, 0.0, 0.0, 0.0, 0.0, 0.0, 0.0, 1.72971077599124E9, 0.0, 2024-10-24 00:42:55.991
252.0, -52093.04268277201, -51946.61640484529, -53870.92278849158, -60180.93200694705, -59700.50361162468, -52390.052663094124, 110.30585888694036, 30010.480285940208, 0.154, 0.96, 0.17400000000000002, 192.0, 0.0, 0.0, 0.0, 0.0, 0.0, 0.0, 0.0, 0.0, 0.0, 1.7297107759951572E9, 0.0, 2024-10-24 00:42:55.995
253.0, -52113.18160452624, -51965.25775972102, -53888.021872999896, -60195.013605953885, -59708.25966695067, -52402.144956844444, 387.95922851076466, 30306.529141250747, 0.154, 0.96, 0.17400000000000002, 192.0, 0.0, 0.0, 0.0, 0.0, 0.0, 0.0, 0.0, 0.0, 0.0, 1.729710775999132E9, 0.0, 2024-10-24 00:42:55.999
254.0, -52117.204918528194, -51952.18198921466, -53875.90722750512, -60177.467486556474, -59680.47644859272, -52380.284950767156, 121.5487863479598, 29984.708724583237, 0.154, 0.96, 0.17400000000000002, 192.0, 0.0, 0.0, 0.0, 0.0, 0.0, 0.0, 0.0, 0.0, 0.0, 1.7297107760033507E9, 0.0, 2024-10-24 00:42:56.003
255.0, -52092.99797928309, -51927.75153252501, -53852.32613710477, -60152.05355311079, -59659.39875357137, -52351.22768297526, -242.1140959398861, 29574.844786506274, 0.154, 0.96, 0.17400000000000002, 192.0, 0.0, 0.0, 0.0, 0.0, 0.0, 0.0, 0.0, 0.0, 0.0, 1.729710776008351E9, 0.0, 2024-10-24 00:42:56.008
0.0, -52057.16813292124, -51913.982857940544, -53840.122084632174, -60149.013715864865, -59667.46773331973, -52358.246130734224, -251.54653210002567, 29582.04204822088, 0.154, 0.96, 0.17400000000000002, 192.0, 0.0, 0.0, 0.0, 0.0, 0.0, 0.0, 0.0, 0.0, 0.0, 1.7297107760123632E9, 0.0, 2024-10-24 00:42:56.012
1.0, -52066.44410687019, -51929.51732033698, -53862.11620117619, -60168.83971319672, -59693.37340514343, -52385.13527931396, 98.0794546698874, 29977.80203554655, 0.154, 0.96, 0.17400000000000002, 192.0, 0.0, 0.0, 0.0, 0.0, 0.0, 0.0, 0.0, 0.0, 0.0, 1.7297107760151632E9, 0.0, 2024-10-24 00:42:56.015
2.0, -52102.8998020768, -51953.50074213753, -53888.44655614455, -60186.96697794998, -59711.90300129688, -52404.536593501165, 385.1205569649407, 30284.155045050986, 0.154, 0.96, 0.17400000000000002, 192.0, 0.0, 0.0, 0.0, 0.0, 0.0, 0.0, 0.0, 0.0, 0.0, 1.7297107760202825E9, 0.0, 2024-10-24 00:42:56.020
3.0, -52104.08444453293, -51939.933233253156, -53872.55446583682, -60162.313003815776, -59674.77675375662, -52367.611511661, 122.97929799309946, 29967.520233097108, 0.154, 0.96, 0.17400000000000002, 192.0, 0.0, 0.0, 0.0, 0.0, 0.0, 0.0, 0.0, 0.0, 0.0, 1.72971077602313E9, 0.0, 2024-10-24 00:42:56.023
4.0, -52073.998996496084, -51912.66410501768, -53846.335869590745, -60131.46759646745, -59644.15486385285, -52332.89925252191, -288.29279998455047, 29509.73415490796, 0.154, 0.96, 0.17200000000000001, 192.0, 4.0, 208.0, 30.0, 0.0, 5.0, 96.0, 0.0, 0.0, 0.0, 1.7297107760271556E9, 0.0, 2024-10-24 00:42:56.027
5.0, -52056.7881532655, -51906.60678227029, -53848.99572718093, -60139.42481749354, -59666.6854222638, -52352.85936032049, -290.5950296634471, 29525.045099859846, 0.154, 0.96, 0.17200000000000001, 192.0, 0.0, 0.0, 0.0, 0.0, 0.0, 0.0, 0.0, 0.0, 0.0, 1.729710776031237E9, 0.0, 2024-10-24 00:42:56.031
6.0, -52083.31967393395, -51930.16552092618, -53882.29982641934, -60168.19151260752, -59701.55414361408, -52383.12362231298, 94.0114371790215, 29956.38906435836, 0.154, 0.96, 0.17200000000000001, 192.0, 0.0, 0.0, 0.0, 0.0, 0.0, 0.0, 0.0, 0.0, 0.0, 1.7297107760362065E9, 0.0, 2024-10-24 00:42:56.036
7.0, -52114.299191749, -51950.974995014076, -53904.785681341375, -60182.54133254783, -59711.25480070768, -52396.646427708445, 385.20996394276193, 30264.731379119323, 0.154, 0.96, 0.17200000000000001, 192.0, 0.0, 0.0, 0.0, 0.0, 0.0, 0.0, 0.0, 0.0, 0.0, 1.7297107760403616E9, 0.0, 2024-10-24 00:42:56.040
8.0, -52106.856060845384, -51929.785541270445, -53887.887762533166, -60155.33925954572, -59673.39094560039, -52359.69899412382, 105.41082685122811, 29931.444517546242, 0.154, 0.96, 0.17200000000000001, 192.0, 0.0, 0.0, 0.0, 0.0, 0.0, 0.0, 0.0, 0.0, 0.0, 1.7297107760434496E9, 0.0, 2024-10-24 00:42:56.043
9.0, -52087.25358095808, -51909.020770671465, -53866.89947448963, -60134.77565464684, -59651.28507033409, -52333.726267066755, -294.10425354293034, 29488.49999767542, 0.154, 0.96, 0.17200000000000001, 192.0, 0.0, 0.0, 0.0, 0.0, 0.0, 0.0, 0.0, 0.0, 0.0, 1.7297107760472453E9, 0.0, 2024-10-24 00:42:56.047
10.0, -52069.12631620483, -51912.3511805953, -53868.35233787922, -60148.18670132002, -59675.335547368, -52359.31901446808, -294.48423319867055, 29505.375564739177, 0.154, 0.96, 0.17200000000000001, 192.0, 0.0, 0.0, 0.0, 0.0, 0.0, 0.0, 0.0, 0.0, 0.0, 1.7297107760511708E9, 0.0, 2024-10-24 00:42:56.051
11.0, -52086.8959530468, -51937.76511404099, -53892.76044282442, -60176.43930631153, -59705.46569889376, -52390.52204972769, 80.86861143930095, 29927.152982610824, 0.154, 0.96, 0.17200000000000001, 192.0, 0.0, 0.0, 0.0, 0.0, 0.0, 0.0, 0.0, 0.0, 0.0, 1.7297107760551922E9, 0.0, 2024-10-24 00:42:56.055
12.0, -52117.897822606305, -51957.79227707294, -53912.6758471341, -60190.409146596096, -59711.5453733856, -52400.13329984347, 377.05157721657486, 30241.999655008276, 0.154, 0.96, 0.17200000000000001, 192.0, 0.0, 0.0, 0.0, 0.0, 0.0, 0.0, 0.0, 0.0, 0.0, 1.7297107760592232E9, 0.0, 2024-10-24 00:42:56.059
13.0, -52117.96487783967, -51938.41331463019, -53895.509707392426, -60165.33048931724, -59675.581416557005, -52366.04688954913, 101.9239547162002, 29912.557293481506, 0.154, 0.96, 0.17200000000000001, 192.0, 0.0, 0.0, 0.0, 0.0, 0.0, 0.0, 0.0, 0.0, 0.0, 1.72971077606324E9, 0.0, 2024-10-24 00:42:56.063
14.0, -52085.66660710175, -51919.9060702212, -53871.07925070277, -60145.28097454083, -59649.69809647776, -52343.62808986045, -291.28793374156163, 29471.69148584503, 0.156, 0.962, 0.17400000000000002, 192.0, 4.0, 224.0, 30.0, 16.0, 5.0, 112.0, 0.0, 0.0, 0.0, 1.7297107760682027E9, 0.0, 2024-10-24 00:42:56.068
15.0, -52072.56848485095, -51929.360858125794, -53871.861561758706, -60160.703678214995, -59668.585320542494, -52364.59402615953, -279.1285847578746, 29498.960614080504, 0.156, 0.962, 0.17400000000000002, 192.0, 0.0, 0.0, 0.0, 0.0, 0.0, 0.0, 0.0, 0.0, 0.0, 1.7297107760713327E9, 0.0, 2024-10-24 00:42:56.071
16.0, -52090.94161879321, -51956.71939333909, -53895.86733530371, -60189.24685588442, -59696.569704600544, -52396.73583468626, 98.83941398136783, 29924.15784885381, 0.156, 0.962, 0.17400000000000002, 192.0, 0.0, 0.0, 0.0, 0.0, 0.0, 0.0, 0.0, 0.0, 0.0, 1.7297107760753171E9, 0.0, 2024-10-24 00:42:56.075
17.0, -52121.92113660826, -51974.37727145878, -53913.14523376766, -60198.209905411, -59699.72130056874, -52399.23923006526, 364.62400729942414, 30209.008480192242, 0.156, 0.962, 0.17400000000000002, 192.0, 0.0, 0.0, 0.0, 0.0, 0.0, 0.0, 0.0, 0.0, 0.0, 1.7297107760792797E9, 0.0, 2024-10-24 00:42:56.079
18.0, -52114.79093012702, -51956.29471019444, -53890.30175093433, -60169.91259693058, -59666.84188447498, -52360.03427029065, 85.96480917511096, 29876.01219129708, 0.156, 0.962, 0.17400000000000002, 192.0, 0.0, 0.0, 0.0, 0.0, 0.0, 0.0, 0.0, 0.0, 0.0, 1.7297107760832071E9, 0.0, 2024-10-24 00:42:56.083
19.0, -52084.81724081245, -51924.73404702354, -53860.97626220898, -60137.25669828137, -59637.94107889427, -52333.21217694428, -328.59299523746915, 29416.750897973885, 0.156, 0.962, 0.17400000000000002, 192.0, 0.0, 0.0, 0.0, 0.0, 0.0, 0.0, 0.0, 0.0, 0.0, 1.729710776087248E9, 0.0, 2024-10-24 00:42:56.087
20.0, -52061.16909517874, -51919.61549754328, -53858.49521857443, -60143.224614050945, -59662.55034953956, -52357.776744100665, -340.5064750321478, 29423.367014332656, 0.156, 0.962, 0.17400000000000002, 192.0, 0.0, 0.0, 0.0, 0.0, 0.0, 0.0, 0.0, 0.0, 0.0, 1.729710776091354E9, 0.0, 2024-10-24 00:42:56.091
21.0, -52081.553886121976, -51945.6105763448, -53889.05005324484, -60176.215788866975, -59705.82332680504, -52399.88743065446, 43.83177087685715, 29853.593391608407, 0.156, 0.962, 0.17400000000000002, 192.0, 0.0, 0.0, 0.0, 0.0, 0.0, 0.0, 0.0, 0.0, 0.0, 1.7297107760963073E9, 0.0, 2024-10-24 00:42:56.096
22.0, -52116.869642361366, -51964.47544866508, -53912.38527445618, -60187.123440161165, -59717.20036473279, -52404.73775920126, 331.3646115499272, 30158.82881389008, 0.156, 0.962, 0.17400000000000002, 192.0, 0.0, 0.0, 0.0, 0.0, 0.0, 0.0, 0.0, 0.0, 0.0, 1.729710776099231E9, 0.0, 2024-10-24 00:42:56.099
23.0, -52109.02418005755, -51944.604747844314, -53895.554410881334, -60163.0506113828, -59685.61734981744, -52371.813639618595, 50.98432910255541, 29824.938455216703, 0.156, 0.962, 0.17400000000000002, 192.0, 0.0, 0.0, 0.0, 0.0, 0.0, 0.0, 0.0, 0.0, 0.0, 1.729710776103449E9, 0.0, 2024-10-24 00:42:56.103
24.0, -52084.16904022325, -51919.95077371011, -53874.83434377126, -60141.61528845016, -59666.439553074786, -52351.27238646417, -354.58807403899124, 29374.304935253258, 0.154, 0.9580000000000001, 0.182, 192.0, 4.0, 208.0, 29.0, 240.0, 5.0, 176.0, 0.0, 0.0, 0.0, 1.729710776107571E9, 0.0, 2024-10-24 00:42:56.107
25.0, -52070.62388308333, -51926.87981449125, -53880.534038607366, -60156.52390200185, -59689.61831207494, -52379.32382575558, -344.6415477563796, 29402.06580186675, 0.154, 0.9580000000000001, 0.182, 192.0, 0.0, 0.0, 0.0, 0.0, 0.0, 0.0, 0.0, 0.0, 0.0, 1.7297107761113224E9, 0.0, 2024-10-24 00:42:56.111
26.0, -52099.36822645286, -51957.747573584034, -53915.58157391329, -60188.7551175064, -59722.47537642424, -52413.38788430547, 39.517884196982884, 29834.08031869892, 0.154, 0.9580000000000001, 0.182, 192.0, 0.0, 0.0, 0.0, 0.0, 0.0, 0.0, 0.0, 0.0, 0.0, 1.7297107761152477E9, 0.0, 2024-10-24 00:42:56.115
27.0, -52124.91627036528, -51971.516248168504, -53933.21710028852, -60197.06996644378, -59725.224640992245, -52418.104102385536, 323.0944661014636, 30134.86774383399, 0.154, 0.9580000000000001, 0.182, 192.0, 0.0, 0.0, 0.0, 0.0, 0.0, 0.0, 0.0, 0.0, 0.0, 1.7297107761213884E9, 0.0, 2024-10-24 00:42:56.121
28.0, -52117.339028994924, -51944.29182342194, -53911.222983744505, -60164.816399194766, -59684.99150097269, -52371.32190124058, 27.336183468840538, 29785.04059136398, 0.154, 0.9580000000000001, 0.182, 192.0, 0.0, 0.0, 0.0, 0.0, 0.0, 0.0, 0.0, 0.0, 0.0, 1.729710776124379E9, 0.0, 2024-10-24 00:42:56.124
29.0, -52092.93092404973, -51919.45903533209, -53887.37367241069, -60140.52005297185, -59654.481369791196, -52339.31420318058, -369.3402253794939, 29344.845336061164, 0.154, 0.9580000000000001, 0.182, 192.0, 0.0, 0.0, 0.0, 0.0, 0.0, 0.0, 0.0, 0.0, 0.0, 1.7297107761283228E9, 0.0, 2024-10-24 00:42:56.128
30.0, -52069.61805458285, -51919.66020103219, -53883.97620725349, -60151.22653856594, -59669.70290776526, -52358.38024120095, -375.53165859361394, 29357.764644356328, 0.154, 0.9580000000000001, 0.182, 192.0, 0.0, 0.0, 0.0, 0.0, 0.0, 0.0, 0.0, 0.0, 0.0, 1.7297107761315653E9, 0.0, 2024-10-24 00:42:56.131
31.0, -52093.95910429467, -51948.1139717238, -53910.9771145555, -60185.04472792682, -59705.35394017148, -52396.89229689745, 5.811453558379836, 29786.56050998694, 0.154, 0.9580000000000001, 0.182, 192.0, 0.0, 0.0, 0.0, 0.0, 0.0, 0.0, 0.0, 0.0, 0.0, 1.7297107761355476E9, 0.0, 2024-10-24 00:42:56.135
32.0, -52130.03481984554, -51972.61148364681, -53932.613603188234, -60202.0097019684, -59713.33351294202, -52410.616267993006, 286.1023290279304, 30086.118589176967, 0.154, 0.9580000000000001, 0.182, 192.0, 0.0, 0.0, 0.0, 0.0, 0.0, 0.0, 0.0, 0.0, 0.0, 1.7297107761395736E9, 0.0, 2024-10-24 00:42:56.139
33.0, -52117.80841562849, -51952.025527003476, -53912.117053522714, -60180.03793716883, -59677.36955611343, -52385.112927569506, -8.426607659650763, 29741.119413509303, 0.154, 0.9580000000000001, 0.182, 192.0, 0.0, 0.0, 0.0, 0.0, 0.0, 0.0, 0.0, 0.0, 0.0, 1.7297107761433766E9, 0.0, 2024-10-24 00:42:56.143
34.0, -52100.48581367562, -51932.914785494184, -53894.34741668075, -60166.13515211763, -59657.74472448167, -52367.32093898308, -380.06906271804127, 29326.38279514108, 0.156, 0.9560000000000001, 0.184, 192.0, 4.0, 224.0, 29.0, 224.0, 5.0, 192.0, 0.0, 0.0, 0.0, 1.729710776147308E9, 0.0, 2024-10-24 00:42:56.147
35.0, -52077.642330842296, -51927.684477291645, -53888.6700735891, -60171.43251555354, -59673.45800083375, -52375.099346053525, -377.7891847836, 29346.074682006205, 0.156, 0.9560000000000001, 0.184, 192.0, 0.0, 0.0, 0.0, 0.0, 0.0, 0.0, 0.0, 0.0, 0.0, 1.7297107761523864E9, 0.0, 2024-10-24 00:42:56.152
36.0, -52094.33908395041, -51949.365669413295, -53911.75942561143, -60196.60057981021, -59704.05753899307, -52401.72027369979, -13.276936206452396, 29756.542117183464, 0.156, 0.9560000000000001, 0.184, 192.0, 0.0, 0.0, 0.0, 0.0, 0.0, 0.0, 0.0, 0.0, 0.0, 1.7297107761554313E9, 0.0, 2024-10-24 00:42:56.155
37.0, -52131.17475881276, -51972.34326271335, -53932.546547954866, -60211.35273115072, -59714.898135053896, -52410.973895904295, 260.1519537153189, 30047.785347436115, 0.156, 0.9560000000000001, 0.184, 192.0, 0.0, 0.0, 0.0, 0.0, 0.0, 0.0, 0.0, 0.0, 0.0, 1.7297107761593535E9, 0.0, 2024-10-24 00:42:56.159
38.0, -52132.91819488027, -51957.680518350666, -53919.51548093742, -60190.94558846302, -59685.37148062843, -52381.5142967122, -15.802683329902093, 29718.924131265183, 0.156, 0.9560000000000001, 0.184, 192.0, 0.0, 0.0, 0.0, 0.0, 0.0, 0.0, 0.0, 0.0, 0.0, 1.729710776163446E9, 0.0, 2024-10-24 00:42:56.163
39.0, -52107.50426143459, -51933.339468638835, -53892.29105619086, -60167.543312018315, -59657.11887563692, -52361.531837169154, -406.3323624530271, 29284.339163820645, 0.156, 0.9560000000000001, 0.184, 192.0, 0.0, 0.0, 0.0, 0.0, 0.0, 0.0, 0.0, 0.0, 0.0, 1.729710776167358E9, 0.0, 2024-10-24 00:42:56.167
40.0, -52080.48100238812, -51928.93617498114, -53883.59622759774, -60171.76779172037, -59672.40746884436, -52379.74850890023, -377.2303911722173, 29332.440117888465, 0.156, 0.9560000000000001, 0.184, 192.0, 0.0, 0.0, 0.0, 0.0, 0.0, 0.0, 0.0, 0.0, 0.0, 1.7297107761713943E9, 0.0, 2024-10-24 00:42:56.171
41.0, -52092.93092404973, -51951.37732641427, -53904.226887729994, -60190.76677450738, -59700.30244592458, -52405.721235957295, -1.6987325786033367, 29754.038721804467, 0.156, 0.9560000000000001, 0.184, 192.0, 0.0, 0.0, 0.0, 0.0, 0.0, 0.0, 0.0, 0.0, 0.0, 1.729710776175383E9, 0.0, 2024-10-24 00:42:56.175
42.0, -52119.48479646263, -51962.709660853114, -53922.62237341671, -60194.90184723161, -59704.124594226436, -52404.42483477889, 258.922607770277, 30032.630864695417, 0.156, 0.9560000000000001, 0.184, 192.0, 0.0, 0.0, 0.0, 0.0, 0.0, 0.0, 0.0, 0.0, 0.0, 1.7297107761793249E9, 0.0, 2024-10-24 00:42:56.179
43.0, -52118.92600285125, -51943.9118437662, -53907.24437323146, -60168.14680911861, -59671.35693685496, -52371.92539834087, -42.267148764985656, 29679.674468001664, 0.156, 0.9560000000000001, 0.184, 192.0, 0.0, 0.0, 0.0, 0.0, 0.0, 0.0, 0.0, 0.0, 0.0, 1.7297107761833446E9, 0.0, 2024-10-24 00:42:56.183
44.0, -52099.949371808696, -51923.61645980078, -53889.25121894493, -60146.018582107856, -59650.52511102261, -52353.3063952096, -424.16905452836215, 29253.806680894697, 0.156, 0.9580000000000001, 0.182, 192.0, 4.0, 224.0, 29.0, 240.0, 5.0, 176.0, 0.0, 0.0, 0.0, 1.729710776186485E9, 0.0, 2024-10-24 00:42:56.186
45.0, -52082.42560415574, -51919.45903533209, -53889.072404989296, -60147.91848038656, -59666.171332141326, -52362.1576860139, -432.99799358820843, 29263.619096710576, 0.156, 0.9580000000000001, 0.182, 192.0, 0.0, 0.0, 0.0, 0.0, 0.0, 0.0, 0.0, 0.0, 0.0, 1.7297107761913264E9, 0.0, 2024-10-24 00:42:56.191
46.0, -52096.61896188486, -51938.99445998603, -53911.44650118906, -60167.14098061812, -59697.821402290036, -52383.12362231298, -52.34778551432914, 29690.962098951593, 0.156, 0.9580000000000001, 0.182, 192.0, 0.0, 0.0, 0.0, 0.0, 0.0, 0.0, 0.0, 0.0, 0.0, 1.7297107761955605E9, 0.0, 2024-10-24 00:42:56.195
47.0, -52132.85113964691, -51958.57458812888, -53935.85460613425, -60178.875646457156, -59707.79028031711, -52394.813584663105, 231.11703766787502, 29993.60471887645, 0.156, 0.9580000000000001, 0.182, 192.0, 0.0, 0.0, 0.0, 0.0, 0.0, 0.0, 0.0, 0.0, 0.0, 1.7297107761993496E9, 0.0, 2024-10-24 00:42:56.199
48.0, -52127.68788667773, -51936.31225065139, -53917.637934403174, -60152.07590485524, -59675.89434097938, -52367.87973259446, -62.89780889723407, 29648.784357164426, 0.156, 0.9580000000000001, 0.182, 192.0, 0.0, 0.0, 0.0, 0.0, 0.0, 0.0, 0.0, 0.0, 0.0, 1.7297107762053618E9, 0.0, 2024-10-24 00:42:56.205
49.0, -52106.92311607875, -51914.6534102742, -53898.147213238146, -60130.52882320033, -59651.03920114508, -52343.62808986045, -454.38861303193727, 29213.372375175048, 0.156, 0.9580000000000001, 0.182, 192.0, 0.0, 0.0, 0.0, 0.0, 0.0, 0.0, 0.0, 0.0, 0.0, 1.7297107762094727E9, 0.0, 2024-10-24 00:42:56.209
50.0, -52086.98536002462, -51926.03044820195, -53895.66616960361, -60139.53657621582, -59668.29474786458, -52352.255863220205, -462.9940346472305, 29222.648349124, 0.156, 0.9580000000000001, 0.182, 192.0, 0.0, 0.0, 0.0, 0.0, 0.0, 0.0, 0.0, 0.0, 0.0, 1.7297107762124207E9, 0.0, 2024-10-24 00:42:56.212
51.0, -52110.901726591794, -51976.61244590431, -53921.43773096058, -60173.17595162105, -59704.72809132673, -52391.50552648372, -92.55857378942655, 29639.083700070823, 0.156, 0.9580000000000001, 0.182, 192.0, 0.0, 0.0, 0.0, 0.0, 0.0, 0.0, 0.0, 0.0, 0.0, 1.7297107762164505E9, 0.0, 2024-10-24 00:42:56.216
52.0, -52137.81322691598, -52009.80478642044, -53939.6320509472, -60191.325568118766, -59713.53467864212, -52407.554079002635, 183.9325051227218, 29931.086889634957, 0.156, 0.9580000000000001, 0.182, 192.0, 0.0, 0.0, 0.0, 0.0, 0.0, 0.0, 0.0, 0.0, 0.0, 1.7297107762194324E9, 0.0, 2024-10-24 00:42:56.219
53.0, -52136.785046671044, -51993.44330947916, -53920.320143737816, -60169.711431230484, -59678.19657065828, -52377.42392747688, -100.962829704622, 29591.00509774746, 0.156, 0.9580000000000001, 0.182, 192.0, 0.0, 0.0, 0.0, 0.0, 0.0, 0.0, 0.0, 0.0, 0.0, 1.7297107762264328E9, 0.0, 2024-10-24 00:42:56.226
54.0, -52109.78413936903, -51967.738803355554, -53896.604942870734, -60148.41021876458, -59650.99449765617, -52353.06052602059, -491.62661929447887, 29157.023627403218, 0.156, 0.96, 0.182, 192.0, 4.0, 224.0, 30.0, 0.0, 5.0, 176.0, 0.0, 0.0, 0.0, 1.729710776229408E9, 0.0, 2024-10-24 00:42:56.229
55.0, -52085.15251697928, -51965.74949809903, -53893.34158818026, -60157.01564037987, -59664.94198619628, -52367.276235494166, -495.71698852980006, 29173.49686306678, 0.156, 0.96, 0.182, 192.0, 0.0, 0.0, 0.0, 0.0, 0.0, 0.0, 0.0, 0.0, 0.0, 1.72971077623239E9, 0.0, 2024-10-24 00:42:56.232
56.0, -52100.1952409977, -51992.90686761223, -53916.76621636942, -60187.63753028364, -59699.81070754656, -52402.435529522365, -120.02886772499893, 29596.414219905644, 0.156, 0.96, 0.182, 192.0, 0.0, 0.0, 0.0, 0.0, 0.0, 0.0, 0.0, 0.0, 0.0, 1.7297107762363815E9, 0.0, 2024-10-24 00:42:56.236
57.0, -52134.818093158974, -52007.83783290838, -53937.1286555682, -60199.75217577841, -59707.18678321681, -52410.973895904295, 152.90828381875562, 29885.802255368504, 0.156, 0.96, 0.182, 192.0, 0.0, 0.0, 0.0, 0.0, 0.0, 0.0, 0.0, 0.0, 0.0, 1.7297107762396758E9, 0.0, 2024-10-24 00:42:56.239
58.0, -52130.05717158999, -51989.77762338849, -53913.50286167894, -60175.34407083322, -59667.51243680864, -52375.099346053525, -137.73144933360211, 29541.116004123214, 0.156, 0.96, 0.182, 192.0, 0.0, 0.0, 0.0, 0.0, 0.0, 0.0, 0.0, 0.0, 0.0, 1.7297107762426817E9, 0.0, 2024-10-24 00:42:56.242
59.0, -52106.92311607875, -51969.281073722974, -53890.52526837889, -60156.59095723522, -59644.7807126976, -52351.11592425298, -525.1765877218947, 29109.32500473559, 0.156, 0.96, 0.182, 192.0, 0.0, 0.0, 0.0, 0.0, 0.0, 0.0, 0.0, 0.0, 0.0, 1.7297107762475264E9, 0.0, 2024-10-24 00:42:56.247
60.0, -52081.86681054435, -51968.1187830113, -53886.63606484367, -60166.31396607328, -59664.15967514035, -52368.17030527238, -508.99392473625244, 29144.14902259696, 0.156, 0.96, 0.182, 192.0, 0.0, 0.0, 0.0, 0.0, 0.0, 0.0, 0.0, 0.0, 0.0, 1.7297107762513943E9, 0.0, 2024-10-24 00:42:56.251
61.0, -52096.998941540594, -51991.74457690056, -53910.06069303283, -60193.51603907538, -59694.62510283293, -52404.13426210097, -135.04923999896528, 29565.61351604623, 0.156, 0.96, 0.182, 192.0, 0.0, 0.0, 0.0, 0.0, 0.0, 0.0, 0.0, 0.0, 0.0, 1.7297107762554624E9, 0.0, 2024-10-24 00:42:56.255
62.0, -52129.56543321198, -52008.15075733075, -53928.09855080826, -60201.69677754603, -59699.1401552129, -52413.119663372, 126.08619047238714, 29844.607990337372, 0.156, 0.96, 0.182, 192.0, 0.0, 0.0, 0.0, 0.0, 0.0, 0.0, 0.0, 0.0, 0.0, 1.729710776259406E9, 0.0, 2024-10-24 00:42:56.259
63.0, -52120.11064530738, -51981.35101572884, -53908.071387776305, -60167.967995162966, -59662.52799779511, -52371.970101829786, -176.2658567745515, 29489.483474431454, 0.156, 0.96, 0.182, 192.0, 0.0, 0.0, 0.0, 0.0, 0.0, 0.0, 0.0, 0.0, 0.0, 1.7297107762634284E9, 0.0, 2024-10-24 00:42:56.263
64.0, -52088.57233388095, -51955.08771599385, -53884.445593887045, -60138.35193375969, -59637.13641609388, -52338.1519124689, -548.7576781222436, 29074.210414196303, 0.154, 0.964, 0.178, 192.0, 4.0, 208.0, 30.0, 32.0, 5.0, 144.0, 0.0, 0.0, 0.0, 1.7297107762684674E9, 0.0, 2024-10-24 00:42:56.268
65.0, -52063.18075217972, -51946.079962978365, -53880.265817673906, -60136.943773859, -59654.973108169215, -52351.16062774189, -526.5176923892132, 29115.71760364981, 0.154, 0.964, 0.178, 192.0, 0.0, 0.0, 0.0, 0.0, 0.0, 0.0, 0.0, 0.0, 0.0, 1.7297107762715824E9, 0.0, 2024-10-24 00:42:56.271
66.0, -52078.08936573141, -51966.93414055516, -53904.6739226191, -60158.06617236927, -59688.34426264099, -52384.10709906901, -145.5992633818702, 29543.485289035478, 0.154, 0.964, 0.178, 192.0, 0.0, 0.0, 0.0, 0.0, 0.0, 0.0, 0.0, 0.0, 0.0, 1.7297107762754593E9, 0.0, 2024-10-24 00:42:56.275
67.0, -52114.25448826009, -51985.91077159772, -53927.47270196351, -60167.00687015139, -59697.30731216757, -52392.4666514953, 132.97052776462172, 29840.383510635318, 0.154, 0.964, 0.178, 192.0, 0.0, 0.0, 0.0, 0.0, 0.0, 0.0, 0.0, 0.0, 0.0, 1.72971077627941E9, 0.0, 2024-10-24 00:42:56.279
68.0, -52121.8540813749, -51971.583303401865, -53912.60879190073, -60143.4481314955, -59661.745686739174, -52360.436601690846, -154.4058506972612, 29501.106381548212, 0.154, 0.964, 0.178, 192.0, 0.0, 0.0, 0.0, 0.0, 0.0, 0.0, 0.0, 0.0, 0.0, 1.7297107762834864E9, 0.0, 2024-10-24 00:42:56.283
69.0, -52087.20887746917, -51943.08482922135, -53885.004387498426, -60118.10125328318, -59634.52126199261, -52337.12373222396, -554.3009107471598, 29057.60306806601, 0.154, 0.964, 0.178, 192.0, 0.0, 0.0, 0.0, 0.0, 0.0, 0.0, 0.0, 0.0, 0.0, 1.729710776287573E9, 0.0, 2024-10-24 00:42:56.287
70.0, -52065.81825802544, -51947.331660667856, -53886.01021599892, -60132.585183690215, -59659.66697450483, -52358.961386556795, -534.4972651597578, 29098.976147052785, 0.154, 0.964, 0.178, 192.0, 0.0, 0.0, 0.0, 0.0, 0.0, 0.0, 0.0, 0.0, 0.0, 1.729710776293572E9, 0.0, 2024-10-24 00:42:56.293
71.0, -52083.49848788959, -51974.28786448096, -53913.83813784578, -60161.19541659301, -59695.00508248867, -52384.263561280204, -151.05308902896513, 29530.3201115513, 0.154, 0.964, 0.178, 192.0, 0.0, 0.0, 0.0, 0.0, 0.0, 0.0, 0.0, 0.0, 0.0, 1.729710776296708E9, 0.0, 2024-10-24 00:42:56.296
72.0, -52112.68986614822, -51984.21203901912, -53925.03636181788, -60167.252739340394, -59694.24512317719, -52388.08570958206, 84.42253880769478, 29782.26897505152, 0.154, 0.964, 0.178, 192.0, 0.0, 0.0, 0.0, 0.0, 0.0, 0.0, 0.0, 0.0, 0.0, 1.729710776299617E9, 0.0, 2024-10-24 00:42:56.299
73.0, -52114.209784771185, -51968.655224878225, -53908.74194010996, -60149.59486122071, -59667.065401919535, -52365.21987500428, -184.7818714120235, 29458.39219789412, 0.154, 0.964, 0.178, 192.0, 0.0, 0.0, 0.0, 0.0, 0.0, 0.0, 0.0, 0.0, 0.0, 1.7297107763035493E9, 0.0, 2024-10-24 00:42:56.303
74.0, -52085.890124546306, -51943.7106780661, -53882.65745433062, -60127.488985954406, -59642.56788999652, -52342.801075315605, -563.6439399294782, 29033.70905324329, 0.154, 0.96, 0.182, 192.0, 4.0, 208.0, 30.0, 0.0, 5.0, 176.0, 0.0, 0.0, 0.0, 1.729710776307626E9, 0.0, 2024-10-24 00:42:56.307
75.0, -52053.70361253066, -51933.45122736111, -53868.575855323776, -60128.271297010346, -59651.195663356266, -52354.960424299294, -567.5554952091569, 29050.070530184574, 0.154, 0.96, 0.182, 192.0, 0.0, 0.0, 0.0, 0.0, 0.0, 0.0, 0.0, 0.0, 0.0, 1.7297107763116708E9, 0.0, 2024-10-24 00:42:56.311
76.0, -52071.78617379501, -51962.352032941824, -53893.676864347086, -60159.6978497145, -59687.36078588496, -52390.834974150064, -196.1812610842301, 29467.131729976147, 0.154, 0.96, 0.182, 192.0, 0.0, 0.0, 0.0, 0.0, 0.0, 0.0, 0.0, 0.0, 0.0, 1.7297107763156188E9, 0.0, 2024-10-24 00:42:56.315
77.0, -52104.5985346554, -51985.95547508663, -53914.10635877924, -60172.97478592095, -59694.51334411065, -52395.2159160633, 54.40414600421739, 29734.950332039636, 0.154, 0.96, 0.182, 192.0, 0.0, 0.0, 0.0, 0.0, 0.0, 0.0, 0.0, 0.0, 0.0, 1.7297107763186517E9, 0.0, 2024-10-24 00:42:56.318
78.0, -52105.71612187816, -51970.51041966801, -53900.09181500576, -60150.66774495456, -59663.511474551146, -52361.330671469055, -235.58738655893643, 29394.130932585114, 0.154, 0.96, 0.182, 192.0, 0.0, 0.0, 0.0, 0.0, 0.0, 0.0, 0.0, 0.0, 0.0, 1.7297107763228183E9, 0.0, 2024-10-24 00:42:56.322
79.0, -52084.37020592335, -51949.790352557946, -53879.63996882916, -60130.148843544586, -59638.611631227934, -52337.68252583534, -609.1744433849387, 28977.852043849474, 0.154, 0.96, 0.182, 192.0, 0.0, 0.0, 0.0, 0.0, 0.0, 0.0, 0.0, 0.0, 0.0, 1.7297107763266687E9, 0.0, 2024-10-24 00:42:56.326
80.0, -52063.650138813275, -51951.08675373635, -53879.818782784794, -60140.05066633829, -59658.77290472662, -52357.776744100665, -593.8411466885981, 29013.950111144797, 0.154, 0.96, 0.182, 192.0, 0.0, 0.0, 0.0, 0.0, 0.0, 0.0, 0.0, 0.0, 0.0, 1.7297107763307283E9, 0.0, 2024-10-24 00:42:56.330
81.0, -52069.4392406272, -51964.98953878755, -53896.91786729311, -60159.34022180322, -59680.85642824846, -52379.88261936696, -238.13548542684146, 29420.10365964218, 0.154, 0.96, 0.182, 192.0, 0.0, 0.0, 0.0, 0.0, 0.0, 0.0, 0.0, 0.0, 0.0, 1.7297107763357618E9, 0.0, 2024-10-24 00:42:56.335
82.0, -52103.3468369659, -51990.13525129977, -53920.74482688247, -60175.321719088766, -59689.52890509712, -52388.733910171264, 32.49943643801647, 29707.860017759805, 0.154, 0.96, 0.182, 192.0, 0.0, 0.0, 0.0, 0.0, 0.0, 0.0, 0.0, 0.0, 0.0, 1.7297107763396902E9, 0.0, 2024-10-24 00:42:56.339
83.0, -52089.98049378163, -51964.453096920624, -53898.61659987171, -60143.96222161797, -59650.838035444984, -52350.75829634169, -262.7447560721345, 29360.648019391065, 0.154, 0.96, 0.182, 192.0, 0.0, 0.0, 0.0, 0.0, 0.0, 0.0, 0.0, 0.0, 0.0, 1.7297107763437002E9, 0.0, 2024-10-24 00:42:56.343
84.0, -52067.427583626224, -51944.045954232926, -53882.38923339716, -60126.013770820355, -59633.11310209193, -52334.64268858942, -637.9634902433742, 28942.290418421082, 0.154, 0.9540000000000001, 0.186, 192.0, 4.0, 208.0, 29.0, 208.0, 5.0, 208.0, 0.0, 0.0, 0.0, 1.729710776347675E9, 0.0, 2024-10-24 00:42:56.347
85.0, -52044.87467347082, -51941.810779787396, -53883.23859968646, -60135.51326221386, -59655.44249480277, -52352.27821496466, -626.0053069597849, 28973.627564147424, 0.154, 0.9540000000000001, 0.186, 192.0, 0.0, 0.0, 0.0, 0.0, 0.0, 0.0, 0.0, 0.0, 0.0, 1.7297107763517573E9, 0.0, 2024-10-24 00:42:56.351
86.0, -52059.537417833504, -51961.97205328609, -53910.15010001065, -60159.74255320342, -59688.947759741284, -52386.25286653672, -257.67091008077983, 29390.10761858316, 0.154, 0.9540000000000001, 0.186, 192.0, 0.0, 0.0, 0.0, 0.0, 0.0, 0.0, 0.0, 0.0, 0.0, 1.7297107763566372E9, 0.0, 2024-10-24 00:42:56.356
87.0, -52090.06990075945, -51977.68532963817, -53931.11603630973, -60169.152637619096, -59698.76017555716, -52397.74166318675, 8.583069870837912, 29674.555918521397, 0.154, 0.9540000000000001, 0.186, 192.0, 0.0, 0.0, 0.0, 0.0, 0.0, 0.0, 0.0, 0.0, 0.0, 1.7297107763606806E9, 0.0, 2024-10-24 00:42:56.360
88.0, -52082.604418111376, -51950.0138700025, -53908.652533132146, -60134.64154418011, -59659.152884382354, -52354.08870626554, -290.97500931918734, 29324.12526895109, 0.154, 0.9540000000000001, 0.186, 192.0, 0.0, 0.0, 0.0, 0.0, 0.0, 0.0, 0.0, 0.0, 0.0, 1.7297107763646655E9, 0.0, 2024-10-24 00:42:56.364
89.0, -52057.861036999355, -51926.58924181334, -53885.83140204327, -60113.27327648083, -59634.65537245934, -52334.68739207833, -682.4658134538905, 28891.641365485357, 0.154, 0.9540000000000001, 0.186, 192.0, 0.0, 0.0, 0.0, 0.0, 0.0, 0.0, 0.0, 0.0, 0.0, 1.7297107763685591E9, 0.0, 2024-10-24 00:42:56.368
90.0, -52032.53651053149, -51921.56009931089, -53878.924713006585, -60122.459843451965, -59654.16844536882, -52359.11784876798, -675.804993606209, 28919.536342565578, 0.154, 0.9540000000000001, 0.186, 192.0, 0.0, 0.0, 0.0, 0.0, 0.0, 0.0, 0.0, 0.0, 0.0, 1.729710776372598E9, 0.0, 2024-10-24 00:42:56.372
91.0, -52039.37614433481, -51945.8117420449, -53902.058768517825, -60151.98649787742, -59688.70189055227, -52392.17607881738, -303.9613728477207, 29338.430385402487, 0.154, 0.9540000000000001, 0.186, 192.0, 0.0, 0.0, 0.0, 0.0, 0.0, 0.0, 0.0, 0.0, 0.0, 1.7297107763765905E9, 0.0, 2024-10-24 00:42:56.376
92.0, -52066.6899760592, -51964.29663470944, -53920.56601292682, -60163.274128827354, -59693.37340514343, -52392.77957591767, -50.17966630216436, 29607.81360957785, 0.154, 0.9540000000000001, 0.186, 192.0, 0.0, 0.0, 0.0, 0.0, 0.0, 0.0, 0.0, 0.0, 0.0, 1.7297107763796568E9, 0.0, 2024-10-24 00:42:56.379
93.0, -52058.19631316618, -51944.872968777774, -53901.030588272886, -60136.54144245881, -59659.04112566008, -52356.2568254777, -350.3188908480276, 29252.331465760646, 0.154, 0.9540000000000001, 0.186, 192.0, 0.0, 0.0, 0.0, 0.0, 0.0, 0.0, 0.0, 0.0, 0.0, 1.7297107763826675E9, 0.0, 2024-10-24 00:42:56.382
94.0, -52031.709495986644, -51920.01782894348, -53877.29303566135, -60114.25675323686, -59632.97899162519, -52333.52510136666, -746.1682851515156, 28814.12551571435, 0.154, 0.9540000000000001, 0.186, 192.0, 0.0, 0.0, 0.0, 0.0, 0.0, 0.0, 0.0, 0.0, 0.0, 1.7297107763867989E9, 0.0, 2024-10-24 00:42:56.386
95.0, -52011.10118759885, -51920.956602210594, -53878.54473335084, -60124.11387254165, -59653.85552094645, -52353.17228474287, -716.7757411927869, 28864.19342329424, 0.154, 0.9520000000000001, 0.188, 192.0, 4.0, 208.0, 29.0, 192.0, 5.0, 224.0, 0.0, 0.0, 0.0, 1.7297107763917055E9, 0.0, 2024-10-24 00:42:56.391
96.0, -52023.618164493826, -51941.453151876114, -53900.315332450315, -60147.337335030716, -59681.4375736043, -52383.011863590706, -358.209056640751, 29268.357666535103, 0.154, 0.9520000000000001, 0.188, 192.0, 0.0, 0.0, 0.0, 0.0, 0.0, 0.0, 0.0, 0.0, 0.0, 1.72971077639564E9, 0.0, 2024-10-24 00:42:56.395
97.0, -52056.96696722114, -51962.709660853114, -53921.504786193946, -60160.681326470534, -59689.081870208014, -52394.813584663105, -116.09496070086489, 29526.900294649637, 0.154, 0.9520000000000001, 0.188, 192.0, 0.0, 0.0, 0.0, 0.0, 0.0, 0.0, 0.0, 0.0, 0.0, 1.7297107763996856E9, 0.0, 2024-10-24 00:42:56.399
98.0, -52055.335289875904, -51946.99638450103, -53905.61269588622, -60136.496738969894, -59656.85065470346, -52362.671776136376, -407.58406014252427, 29181.610546304055, 0.154, 0.9520000000000001, 0.188, 192.0, 0.0, 0.0, 0.0, 0.0, 0.0, 0.0, 0.0, 0.0, 0.0, 1.7297107764026864E9, 0.0, 2024-10-24 00:42:56.402
99.0, -52036.96215593364, -51933.51828259448, -53887.597189855245, -60112.62507589163, -59635.48238700419, -52326.864281518974, -762.3956516260686, 28782.766018243554, 0.154, 0.9520000000000001, 0.188, 192.0, 0.0, 0.0, 0.0, 0.0, 0.0, 0.0, 0.0, 0.0, 0.0, 1.7297107764067595E9, 0.0, 2024-10-24 00:42:56.406
100.0, -52013.2246033221, -51929.31615463688, -53884.37853865368, -60116.581334660215, -59650.45805578924, -52336.654345590396, -746.2800438737922, 28818.662919838778, 0.154, 0.9520000000000001, 0.188, 192.0, 0.0, 0.0, 0.0, 0.0, 0.0, 0.0, 0.0, 0.0, 0.0, 1.729710776410794E9, 0.0, 2024-10-24 00:42:56.410
101.0, -52032.134179131295, -51953.79131481544, -53913.23464074548, -60148.253756553386, -59680.02941370361, -52373.19944777482, -377.1633359388514, 29234.584180663132, 0.154, 0.9520000000000001, 0.188, 192.0, 0.0, 0.0, 0.0, 0.0, 0.0, 0.0, 0.0, 0.0, 0.0, 1.7297107764146962E9, 0.0, 2024-10-24 00:42:56.414
102.0, -52065.01359522505, -51979.831097105875, -53931.563071198834, -60163.74351546091, -59684.119782938935, -52383.615360691, -131.22709169710777, 29495.69725939003, 0.154, 0.9520000000000001, 0.188, 192.0, 0.0, 0.0, 0.0, 0.0, 0.0, 0.0, 0.0, 0.0, 0.0, 1.729710776419646E9, 0.0, 2024-10-24 00:42:56.419
103.0, -52067.226417926126, -51965.503628910024, -53913.01112330093, -60142.21878555045, -59649.027544144104, -52356.03330803315, -424.54903418410237, 29149.111109866037, 0.154, 0.9520000000000001, 0.188, 192.0, 0.0, 0.0, 0.0, 0.0, 0.0, 0.0, 0.0, 0.0, 0.0, 1.729710776423781E9, 0.0, 2024-10-24 00:42:56.423
104.0, -52042.125408902815, -51941.36374489829, -53891.55344862383, -60119.50941318386, -59624.53003222109, -52330.64172633192, -819.1243790536379, 28713.408555198737, 0.154, 0.9520000000000001, 0.188, 192.0, 0.0, 0.0, 0.0, 0.0, 0.0, 0.0, 0.0, 0.0, 0.0, 1.7297107764276226E9, 0.0, 2024-10-24 00:42:56.427
105.0, -52014.230431822594, -51942.25781467651, -53888.73712882247, -60127.46663420995, -59644.71365746423, -52342.84577880452, -800.4606724334566, 28753.73110219611, 0.152, 0.9460000000000001, 0.186, 192.0, 4.0, 192.0, 29.0, 144.0, 5.0, 208.0, 0.0, 0.0, 0.0, 1.7297107764317596E9, 0.0, 2024-10-24 00:42:56.431
106.0, -52037.56565303393, -51976.00894880402, -53920.2754402489, -60163.94468116101, -59685.88557075091, -52387.23634329276, -427.47711270774755, 29174.30152586717, 0.152, 0.9460000000000001, 0.186, 192.0, 0.0, 0.0, 0.0, 0.0, 0.0, 0.0, 0.0, 0.0, 0.0, 1.729710776434654E9, 0.0, 2024-10-24 00:42:56.434
107.0, -52067.51699060405, -51989.37529198829, -53931.80894038784, -60168.81736145227, -59685.41618411734, -52390.43264274987, -196.11420585086418, 29423.076441654735, 0.152, 0.9460000000000001, 0.186, 192.0, 0.0, 0.0, 0.0, 0.0, 0.0, 0.0, 0.0, 0.0, 0.0, 1.729710776440686E9, 0.0, 2024-10-24 00:42:56.440
108.0, -52051.267272385034, -51968.319948711396, -53910.3736174552, -60141.749398916894, -59652.08973313448, -52359.095497023525, -496.8569274970207, 29071.058818228106, 0.152, 0.9460000000000001, 0.186, 192.0, 0.0, 0.0, 0.0, 0.0, 0.0, 0.0, 0.0, 0.0, 0.0, 1.7297107764438536E9, 0.0, 2024-10-24 00:42:56.443
109.0, -52034.928147188206, -51949.11980022428, -53895.12972773668, -60125.65614290907, -59635.63884921537, -52344.142179982926, -873.863801224685, 28654.24348762554, 0.152, 0.9460000000000001, 0.186, 192.0, 0.0, 0.0, 0.0, 0.0, 0.0, 0.0, 0.0, 0.0, 0.0, 1.7297107764467323E9, 0.0, 2024-10-24 00:42:56.446
110.0, -52006.966114874616, -51944.91767226669, -53893.78862306936, -60132.51812845685, -59658.683497748796, -52359.386069701446, -847.1758183450482, 28702.97029053811, 0.152, 0.9460000000000001, 0.186, 192.0, 0.0, 0.0, 0.0, 0.0, 0.0, 0.0, 0.0, 0.0, 0.0, 1.7297107764517E9, 0.0, 2024-10-24 00:42:56.451
111.0, -52025.71922847262, -51971.873876079786, -53919.113149537225, -60160.3013468148, -59686.57847482902, -52389.06918633809, -479.2437528662387, 29117.23752227277, 0.152, 0.9460000000000001, 0.186, 192.0, 0.0, 0.0, 0.0, 0.0, 0.0, 0.0, 0.0, 0.0, 0.0, 1.7297107764567285E9, 0.0, 2024-10-24 00:42:56.456
112.0, -52061.48201960111, -51993.35390250134, -53937.28511777939, -60174.8523324552, -59692.41228013185, -52403.486061511765, -227.11607541037506, 29385.369048758635, 0.152, 0.9460000000000001, 0.186, 192.0, 0.0, 0.0, 0.0, 0.0, 0.0, 0.0, 0.0, 0.0, 0.0, 1.729710776460771E9, 0.0, 2024-10-24 00:42:56.460
113.0, -52062.174923679224, -51972.991463302555, -53919.895460593165, -60150.10895134318, -59657.543558781574, -52373.579427430566, -517.1076079735288, 29042.649751025412, 0.152, 0.9460000000000001, 0.186, 192.0, 0.0, 0.0, 0.0, 0.0, 0.0, 0.0, 0.0, 0.0, 0.0, 1.729710776463662E9, 0.0, 2024-10-24 00:42:56.463
114.0, -52035.86692045533, -51943.15188445472, -53897.163736482114, -60125.454977208974, -59635.90707014884, -52345.192711972326, -925.5633861498102, 28591.524492683948, 0.152, 0.9460000000000001, 0.186, 192.0, 0.0, 0.0, 0.0, 0.0, 0.0, 0.0, 0.0, 0.0, 0.0, 1.729710776466754E9, 0.0, 2024-10-24 00:42:56.466
115.0, -52011.01178062103, -51940.402619886714, -53895.8226318148, -60133.32279125724, -59654.70488723575, -52364.43756394835, -915.0580662558158, 28623.353376788305, 0.156, 0.9460000000000001, 0.186, 192.0, 4.0, 224.0, 29.0, 144.0, 5.0, 208.0, 0.0, 0.0, 0.0, 1.7297107764708047E9, 0.0, 2024-10-24 00:42:56.470
116.0, -52025.80863545044, -51963.42491667568, -53923.56114668383, -60162.55887300478, -59689.439498119296, -52398.099291098035, -530.5633581356237, 29055.233783153748, 0.156, 0.9460000000000001, 0.186, 192.0, 0.0, 0.0, 0.0, 0.0, 0.0, 0.0, 0.0, 0.0, 0.0, 1.7297107764750345E9, 0.0, 2024-10-24 00:42:56.475
117.0, -52061.772592279034, -51984.41320471921, -53948.32687954031, -60172.9524341765, -59696.7932220451, -52395.439433507854, -257.35798565840554, 29345.225315716903, 0.156, 0.9460000000000001, 0.186, 192.0, 0.0, 0.0, 0.0, 0.0, 0.0, 0.0, 0.0, 0.0, 0.0, 1.729710776479764E9, 0.0, 2024-10-24 00:42:56.479
118.0, -52053.12246717483, -51957.16642822819, -53925.282231006895, -60139.84950063819, -59655.50955003614, -52353.082877765046, -565.2085620413496, 28986.16689278685, 0.156, 0.9460000000000001, 0.186, 192.0, 0.0, 0.0, 0.0, 0.0, 0.0, 0.0, 0.0, 0.0, 0.0, 1.729710776483772E9, 0.0, 2024-10-24 00:42:56.483
119.0, -52031.48597854209, -51936.781637284956, -53904.38334994118, -60116.938962571505, -59632.867232902914, -52328.473607119755, -955.9170551201172, 28554.17472769913, 0.156, 0.9460000000000001, 0.186, 192.0, 0.0, 0.0, 0.0, 0.0, 0.0, 0.0, 0.0, 0.0, 0.0, 1.729710776486925E9, 0.0, 2024-10-24 00:42:56.486
120.0, -52013.93985914467, -51942.28016642096, -53907.19966974255, -60127.77955863233, -59653.47554129071, -52352.05469752011, -920.1542639916258, 28610.769344659966, 0.156, 0.9460000000000001, 0.186, 192.0, 0.0, 0.0, 0.0, 0.0, 0.0, 0.0, 0.0, 0.0, 0.0, 1.7297107764908066E9, 0.0, 2024-10-24 00:42:56.490
121.0, -52031.508330286546, -51967.22471323308, -53931.987754343485, -60152.21001532197, -59684.23154166121, -52382.00603509021, -545.2484542427604, 29031.295064842114, 0.156, 0.9460000000000001, 0.186, 192.0, 0.0, 0.0, 0.0, 0.0, 0.0, 0.0, 0.0, 0.0, 0.0, 1.7297107764948225E9, 0.0, 2024-10-24 00:42:56.494
122.0, -52070.26625517205, -51984.70377739713, -53954.47360926552, -60160.278995070345, -59689.931236497316, -52384.91176186941, -300.049817568042, 29291.111742390603, 0.156, 0.9460000000000001, 0.186, 192.0, 0.0, 0.0, 0.0, 0.0, 0.0, 0.0, 0.0, 0.0, 0.0, 1.7297107764988809E9, 0.0, 2024-10-24 00:42:56.498
123.0, -52059.38095562231, -51954.35010842683, -53929.86433862023, -60127.2431167654, -59648.73697146618, -52345.527988139154, -615.1423591545057, 28922.263255389127, 0.156, 0.9460000000000001, 0.186, 192.0, 0.0, 0.0, 0.0, 0.0, 0.0, 0.0, 0.0, 0.0, 0.0, 1.729710776502745E9, 0.0, 2024-10-24 00:42:56.502
124.0, -52033.14000763178, -51928.1538639252, -53908.227849987496, -60105.02548277682, -59624.01594209862, -52322.43863611682, -1005.5602795553541, 28490.963994379523, 0.156, 0.9460000000000001, 0.186, 192.0, 0.0, 0.0, 0.0, 0.0, 0.0, 0.0, 0.0, 0.0, 0.0, 1.7297107765079052E9, 0.0, 2024-10-24 00:42:56.507
125.0, -52008.01664686402, -51927.37155286927, -53903.466928418515, -60116.715445126945, -59641.4279510293, -52343.47162764927, -989.6011340142649, 28531.197134399074, 0.15, 0.9560000000000001, 0.184, 192.0, 4.0, 176.0, 29.0, 224.0, 5.0, 192.0, 0.0, 0.0, 0.0, 1.729710776511756E9, 0.0, 2024-10-24 00:42:56.511
126.0, -52036.35865883335, -51956.94291078364, -53935.80990264534, -60152.00884962188, -59681.817553260036, -52382.74364265724, -613.8683097205532, 28955.45559590526, 0.15, 0.9560000000000001, 0.184, 192.0, 0.0, 0.0, 0.0, 0.0, 0.0, 0.0, 0.0, 0.0, 0.0, 1.729710776514868E9, 0.0, 2024-10-24 00:42:56.514
127.0, -52053.07776368592, -51972.52207666899, -53951.18790283059, -60159.40727703658, -59687.45019286278, -52385.91759036989, -352.0623269155415, 29233.06426204017, 0.15, 0.9560000000000001, 0.184, 192.0, 0.0, 0.0, 0.0, 0.0, 0.0, 0.0, 0.0, 0.0, 0.0, 1.7297107765188076E9, 0.0, 2024-10-24 00:42:56.518
128.0, -52050.373202606825, -51953.03135550396, -53931.27249852091, -60134.21686103546, -59650.90509067835, -52352.524084153665, -646.5242083697568, 28886.589871238455, 0.15, 0.9560000000000001, 0.184, 192.0, 0.0, 0.0, 0.0, 0.0, 0.0, 0.0, 0.0, 0.0, 0.0, 1.7297107765228057E9, 0.0, 2024-10-24 00:42:56.522
129.0, -52025.96509766163, -51931.28310814895, -53907.19966974255, -60113.921477070035, -59629.35800902343, -52331.6028513435, -1041.7030503395856, 28449.054473525823, 0.15, 0.9560000000000001, 0.184, 192.0, 0.0, 0.0, 0.0, 0.0, 0.0, 0.0, 0.0, 0.0, 0.0, 1.7297107765268276E9, 0.0, 2024-10-24 00:42:56.526
130.0, -52008.68719919768, -51934.34529713933, -53909.747768610454, -60130.46176796696, -59657.85648320395, -52362.358851714, -1019.9324512401166, 28493.757962436433, 0.15, 0.9560000000000001, 0.184, 192.0, 0.0, 0.0, 0.0, 0.0, 0.0, 0.0, 0.0, 0.0, 0.0, 1.7297107765307975E9, 0.0, 2024-10-24 00:42:56.530
131.0, -52026.38978080628, -51958.12755323977, -53934.66996367812, -60157.50737875788, -59690.89236150889, -52396.33350328607, -631.1909116734162, 28930.91338049333, 0.15, 0.9560000000000001, 0.184, 192.0, 0.0, 0.0, 0.0, 0.0, 0.0, 0.0, 0.0, 0.0, 0.0, 1.72971077653687E9, 0.0, 2024-10-24 00:42:56.536
132.0, -52044.651156026266, -51963.60373063132, -53938.425056746615, -60157.5967857357, -59685.77381202863, -52396.75818643072, -403.35958044047123, 29175.687334023398, 0.15, 0.9560000000000001, 0.184, 192.0, 0.0, 0.0, 0.0, 0.0, 0.0, 0.0, 0.0, 0.0, 0.0, 1.7297107765398548E9, 0.0, 2024-10-24 00:42:56.539
133.0, -52032.335344831394, -51934.43470411715, -53913.83813784578, -60129.36653248865, -59651.530939523094, -52367.142125027436, -720.8214069391975, 28803.821361520455, 0.15, 0.9560000000000001, 0.184, 192.0, 0.0, 0.0, 0.0, 0.0, 0.0, 0.0, 0.0, 0.0, 0.0, 1.7297107765440323E9, 0.0, 2024-10-24 00:42:56.544
134.0, -52015.146853345264, -51916.709770764086, -53897.297846948844, -60112.51331716935, -59632.93428813628, -52342.68931659333, -1091.6368474527417, 28389.174150130053, 0.15, 0.9560000000000001, 0.184, 192.0, 0.0, 0.0, 0.0, 0.0, 0.0, 0.0, 0.0, 0.0, 0.0, 1.7297107765468037E9, 0.0, 2024-10-24 00:42:56.546
135.0, -51993.48801296807, -51916.73212250855, -53897.029626015385, -60122.70571264097, -59651.687401734285, -52360.905988324404, -1066.0888035403257, 28437.118641986686, 0.154, 0.9540000000000001, 0.182, 192.0, 4.0, 208.0, 29.0, 208.0, 5.0, 176.0, 0.0, 0.0, 0.0, 1.7297107765508463E9, 0.0, 2024-10-24 00:42:56.550
136.0, -52014.34219054487, -51941.810779787396, -53927.53975719688, -60153.081733355735, -59689.90888475286, -52398.61338122051, -689.7524821463206, 28861.958248848707, 0.154, 0.9540000000000001, 0.182, 192.0, 0.0, 0.0, 0.0, 0.0, 0.0, 0.0, 0.0, 0.0, 0.0, 1.729710776555035E9, 0.0, 2024-10-24 00:42:56.555
137.0, -52050.306147373456, -51958.68634685116, -53948.46099000704, -60162.38005904914, -59694.20041968828, -52402.34612254454, -444.06210709358544, 29122.75840315323, 0.154, 0.9540000000000001, 0.182, 192.0, 0.0, 0.0, 0.0, 0.0, 0.0, 0.0, 0.0, 0.0, 0.0, 1.7297107765588257E9, 0.0, 2024-10-24 00:42:56.558
138.0, -52048.65211828377, -51940.51437860899, -53931.16073979864, -60137.50256747039, -59661.58922452798, -52367.16447677189, -741.899101960552, 28772.08188439392, 0.154, 0.9540000000000001, 0.182, 192.0, 0.0, 0.0, 0.0, 0.0, 0.0, 0.0, 0.0, 0.0, 0.0, 1.7297107765637927E9, 0.0, 2024-10-24 00:42:56.563
139.0, -52022.835853437886, -51918.117930664775, -53907.53494590938, -60113.87677358113, -59633.51543349212, -52343.583386371545, -1123.756304235018, 28348.829251388222, 0.154, 0.9540000000000001, 0.182, 192.0, 0.0, 0.0, 0.0, 0.0, 0.0, 0.0, 0.0, 0.0, 0.0, 1.7297107765678537E9, 0.0, 2024-10-24 00:42:56.567
140.0, -52008.508385242036, -51921.47069233307, -53910.21715524401, -60125.90201209808, -59657.25298610365, -52364.70578488181, -1106.9030889157164, 28390.470551308463, 0.154, 0.9540000000000001, 0.182, 192.0, 0.0, 0.0, 0.0, 0.0, 0.0, 0.0, 0.0, 0.0, 0.0, 1.7297107765708308E9, 0.0, 2024-10-24 00:42:56.570
141.0, -52027.48501628459, -51942.90601526571, -53936.23458578999, -60151.31594554376, -59692.5910940875, -52392.55605847312, -733.9195291900074, 28808.93991100072, 0.154, 0.9540000000000001, 0.182, 192.0, 0.0, 0.0, 0.0, 0.0, 0.0, 0.0, 0.0, 0.0, 0.0, 1.7297107765748665E9, 0.0, 2024-10-24 00:42:56.574
