%OpenBCI Raw EXG Data
%Number of channels = 8
%Sample Rate = 250 Hz
%Board = OpenBCI_GUI$BoardCytonSerial
Sample Index, EXG Channel 0, EXG Channel 1, EXG Channel 2, EXG Channel 3, EXG Channel 4, EXG Channel 5, EXG Channel 6, EXG Channel 7, Accel Channel 0, Accel Channel 1, Accel Channel 2, Other, Other, Other, Other, Other, Other, Other, Analog Channel 0, Analog Channel 1, Analog Channel 2, Timestamp, Other, Timestamp (Formatted)
0.0, 0.0, 0.0, 0.0, 0.0, 0.0, 0.0, 0.0, 0.0, -0.124, 0.862, 0.374, 192.0, 252.0, 32.0, 26.0, 240.0, 11.0, 176.0, 0.0, 0.0, 0.0, 1.7297057540494645E9, 0.0, 2024-10-23 23:19:14.049
1.0, -41249.63030214671, -48945.93941520923, -20484.2338543217, -17219.046320801535, -6656.908292401826, -8068.845637899118, -187500.02235174447, -187500.02235174447, -0.124, 0.862, 0.374, 192.0, 0.0, 0.0, 0.0, 0.0, 0.0, 0.0, 0.0, 0.0, 0.0, 1.7297057540665512E9, 0.0, 2024-10-23 23:19:14.066
2.0, -41265.745909898986, -48950.61092980039, -20509.312511600558, -17131.80746219247, -6668.061812885024, -8061.02252733976, -187500.02235174447, -187500.02235174447, -0.124, 0.862, 0.374, 192.0, 0.0, 0.0, 0.0, 0.0, 0.0, 0.0, 0.0, 0.0, 0.0, 1.7297057540695293E9, 0.0, 2024-10-23 23:19:14.069
3.0, -41409.758199424534, -49211.299325382635, -20524.95873271927, -17736.69037064199, -6667.435964040275, -8107.17887963997, -187500.02235174447, -187500.02235174447, -0.124, 0.862, 0.374, 192.0, 0.0, 0.0, 0.0, 0.0, 0.0, 0.0, 0.0, 0.0, 0.0, 1.7297057540725183E9, 0.0, 2024-10-23 23:19:14.072
4.0, -41465.481098351614, -49323.080399403625, -20521.11423267296, -18093.379508659782, -6658.7411354471615, -8123.115673436603, -187500.02235174447, -187500.02235174447, -0.124, 0.862, 0.374, 192.0, 0.0, 0.0, 0.0, 0.0, 0.0, 0.0, 0.0, 0.0, 0.0, 1.7297057540763724E9, 0.0, 2024-10-23 23:19:14.076
5.0, -41364.71943434709, -49171.44616501882, -20503.72457548673, -17800.57165629526, -6648.2358155531665, -8090.772699209774, -187500.02235174447, -187500.02235174447, -0.124, 0.862, 0.374, 192.0, 0.0, 0.0, 0.0, 0.0, 0.0, 0.0, 0.0, 0.0, 0.0, 1.7297057540792992E9, 0.0, 2024-10-23 23:19:14.079
6.0, -41259.33095924032, -48961.093897949926, -20511.21240987926, -17222.779062125574, -6650.247472554144, -8061.916597117973, -187500.02235174447, -187500.02235174447, -0.124, 0.862, 0.374, 192.0, 0.0, 0.0, 0.0, 0.0, 0.0, 0.0, 0.0, 0.0, 0.0, 1.72970575408232E9, 0.0, 2024-10-23 23:19:14.082
7.0, -41274.37368325874, -48966.79359278603, -20525.316360630557, -17136.255459339078, -6652.527350488585, -8068.26449254328, -187500.02235174447, -187500.02235174447, -0.124, 0.862, 0.374, 192.0, 0.0, 0.0, 0.0, 0.0, 0.0, 0.0, 0.0, 0.0, 0.0, 1.7297057540873065E9, 0.0, 2024-10-23 23:19:14.087
8.0, -41421.00112688555, -49224.017467977705, -20537.25219216969, -17744.357018990162, -6664.329071560988, -8123.629763559075, -187500.02235174447, -187500.02235174447, -0.132, 0.8280000000000001, 0.466, 192.0, 251.0, 224.0, 25.0, 224.0, 14.0, 144.0, 0.0, 0.0, 0.0, 1.729705754091412E9, 0.0, 2024-10-23 23:19:14.091
9.0, -41453.27704587902, -49322.7451232368, -20514.028729680627, -18093.044232492954, -6664.418478538809, -8138.717191066407, -187500.02235174447, -187500.02235174447, -0.132, 0.8280000000000001, 0.466, 192.0, 0.0, 0.0, 0.0, 0.0, 0.0, 0.0, 0.0, 0.0, 0.0, 1.7297057540954444E9, 0.0, 2024-10-23 23:19:14.095
10.0, -41366.50757390351, -49172.92138015287, -20497.041403894593, -17808.774746510357, -6664.351423305443, -8123.22743215888, -187500.02235174447, -187500.02235174447, -0.132, 0.8280000000000001, 0.466, 192.0, 0.0, 0.0, 0.0, 0.0, 0.0, 0.0, 0.0, 0.0, 0.0, 1.729705754099344E9, 0.0, 2024-10-23 23:19:14.099
11.0, -41251.79842135888, -48960.31158689399, -20493.2863108261, -17236.301867521033, -6666.273673328599, -8103.3120278492015, -187500.02235174447, -187500.02235174447, -0.132, 0.8280000000000001, 0.466, 192.0, 0.0, 0.0, 0.0, 0.0, 0.0, 0.0, 0.0, 0.0, 0.0, 1.7297057541034517E9, 0.0, 2024-10-23 23:19:14.103
12.0, -41268.629284933726, -48971.48745912164, -20501.645863252386, -17151.946383946703, -6679.952940935247, -8116.164280911003, -187500.02235174447, -187500.02235174447, -0.132, 0.8280000000000001, 0.466, 192.0, 0.0, 0.0, 0.0, 0.0, 0.0, 0.0, 0.0, 0.0, 0.0, 1.72970575410747E9, 0.0, 2024-10-23 23:19:14.107
13.0, -41418.81065592893, -49224.73272380027, -20502.405822563866, -17760.89730988709, -6694.414519597831, -8167.550941413754, -187500.02235174447, -187500.02235174447, -0.132, 0.8280000000000001, 0.466, 192.0, 0.0, 0.0, 0.0, 0.0, 0.0, 0.0, 0.0, 0.0, 0.0, 1.729705754110336E9, 0.0, 2024-10-23 23:19:14.110
14.0, -41474.10887171136, -49336.424390843444, -20480.031726364105, -18119.709863628133, -6687.127850905401, -8175.351700228656, -187500.02235174447, -187500.02235174447, -0.132, 0.8280000000000001, 0.466, 192.0, 0.0, 0.0, 0.0, 0.0, 0.0, 0.0, 0.0, 0.0, 0.0, 1.7297057541154149E9, 0.0, 2024-10-23 23:19:14.115
15.0, -41365.99348378104, -49173.07784236406, -20440.91617356732, -17826.678493819058, -6668.0171093961135, -8126.0884554491595, -187500.02235174447, -187500.02235174447, -0.132, 0.8280000000000001, 0.466, 192.0, 0.0, 0.0, 0.0, 0.0, 0.0, 0.0, 0.0, 0.0, 0.0, 1.7297057541194303E9, 0.0, 2024-10-23 23:19:14.119
16.0, -41245.271711977926, -48946.20763614269, -20427.08044374948, -17235.02781808708, -6659.74696394765, -8103.244972615836, -187500.02235174447, -187500.02235174447, -0.132, 0.8280000000000001, 0.466, 192.0, 0.0, 0.0, 0.0, 0.0, 0.0, 0.0, 0.0, 0.0, 0.0, 1.729705754123486E9, 0.0, 2024-10-23 23:19:14.123
17.0, -41269.255133778475, -48951.080316433945, -20446.101778280947, -17144.927936187738, -6667.726536718194, -8112.3644843536, -187500.02235174447, -187500.02235174447, -0.132, 0.8280000000000001, 0.466, 192.0, 0.0, 0.0, 0.0, 0.0, 0.0, 0.0, 0.0, 0.0, 0.0, 1.7297057541294076E9, 0.0, 2024-10-23 23:19:14.129
18.0, -41427.304318821945, -49223.033991221666, -20469.90638612585, -17760.85260639818, -6686.613760782929, -8157.09032500867, -187500.02235174447, -187500.02235174447, -0.132, 0.804, 0.51, 192.0, 251.0, 224.0, 25.0, 32.0, 15.0, 240.0, 0.0, 0.0, 0.0, 1.7297057541334975E9, 0.0, 2024-10-23 23:19:14.133
19.0, -41492.68317135372, -49344.403963613986, -20473.505016983156, -18130.39399747777, -6696.672045787817, -8168.601473403153, -187500.02235174447, -187500.02235174447, -0.132, 0.804, 0.51, 192.0, 0.0, 0.0, 0.0, 0.0, 0.0, 0.0, 0.0, 0.0, 0.0, 1.7297057541364045E9, 0.0, 2024-10-23 23:19:14.136
20.0, -41371.26849547249, -49169.92624639586, -20443.017237546115, -17822.409310628096, -6662.160952348823, -8121.305182135723, -187500.02235174447, -187500.02235174447, -0.132, 0.804, 0.51, 192.0, 0.0, 0.0, 0.0, 0.0, 0.0, 0.0, 0.0, 0.0, 0.0, 1.7297057541394017E9, 0.0, 2024-10-23 23:19:14.139
21.0, -41247.506886423456, -48946.22998788715, -20449.81216786053, -17220.879163846872, -6653.3990685223425, -8070.946701877917, -187500.02235174447, -187500.02235174447, -0.132, 0.804, 0.51, 192.0, 0.0, 0.0, 0.0, 0.0, 0.0, 0.0, 0.0, 0.0, 0.0, 1.729705754144765E9, 0.0, 2024-10-23 23:19:14.144
22.0, -41265.053005820875, -48950.812095500485, -20478.08712459649, -17124.274924311034, -6658.338804046965, -8075.394699024523, -187500.02235174447, -187500.02235174447, -0.132, 0.804, 0.51, 192.0, 0.0, 0.0, 0.0, 0.0, 0.0, 0.0, 0.0, 0.0, 0.0, 1.72970575414748E9, 0.0, 2024-10-23 23:19:14.147
23.0, -41404.41613249971, -49211.992229460746, -20494.001566648672, -17733.561126418248, -6663.926740160792, -8118.310048378712, -187500.02235174447, -187500.02235174447, -0.132, 0.804, 0.51, 192.0, 0.0, 0.0, 0.0, 0.0, 0.0, 0.0, 0.0, 0.0, 0.0, 1.7297057541514487E9, 0.0, 2024-10-23 23:19:14.151
24.0, -41457.59093255889, -49322.00751566977, -20492.10166836997, -18097.179305217185, -6666.608949495429, -8128.971830483893, -187500.02235174447, -187500.02235174447, -0.132, 0.804, 0.51, 192.0, 0.0, 0.0, 0.0, 0.0, 0.0, 0.0, 0.0, 0.0, 0.0, 1.729705754155418E9, 0.0, 2024-10-23 23:19:14.155
25.0, -41363.825364568875, -49172.74256619723, -20483.33978454349, -17818.117775692677, -6661.870379670904, -8096.941780679439, -187500.02235174447, -187500.02235174447, -0.132, 0.804, 0.51, 192.0, 0.0, 0.0, 0.0, 0.0, 0.0, 0.0, 0.0, 0.0, 0.0, 1.729705754159414E9, 0.0, 2024-10-23 23:19:14.159
26.0, -41257.3863574727, -48955.99770021412, -20495.677947482818, -17232.658533174817, -6660.50692325913, -8051.031297568238, -187500.02235174447, -187500.02235174447, -0.132, 0.804, 0.51, 192.0, 0.0, 0.0, 0.0, 0.0, 0.0, 0.0, 0.0, 0.0, 0.0, 1.7297057541635003E9, 0.0, 2024-10-23 23:19:14.163
27.0, -41263.75660464247, -48947.34757510991, -20509.848953467485, -17125.973656889637, -6650.672155698795, -8047.477370199844, -187500.02235174447, -187500.02235174447, -0.132, 0.804, 0.51, 192.0, 0.0, 0.0, 0.0, 0.0, 0.0, 0.0, 0.0, 0.0, 0.0, 1.7297057541665387E9, 0.0, 2024-10-23 23:19:14.166
28.0, -41387.13823403576, -49201.866889222496, -20513.20171513578, -17733.18114676251, -6651.074487098991, -8085.609446240598, -187500.02235174447, -187500.02235174447, -0.136, 0.806, 0.544, 192.0, 251.0, 192.0, 25.0, 48.0, 17.0, 0.0, 0.0, 0.0, 0.0, 1.7297057541715412E9, 0.0, 2024-10-23 23:19:14.171
29.0, -41445.36452834184, -49320.30878309117, -20510.944188945796, -18106.90231405524, -6661.043365126057, -8098.685216746952, -187500.02235174447, -187500.02235174447, -0.136, 0.806, 0.544, 192.0, 0.0, 0.0, 0.0, 0.0, 0.0, 0.0, 0.0, 0.0, 0.0, 1.7297057541755033E9, 0.0, 2024-10-23 23:19:14.175
30.0, -41354.37057666428, -49174.15072609791, -20498.44956379528, -17841.050665503823, -6661.468048270709, -8077.272245558768, -187500.02235174447, -187500.02235174447, -0.136, 0.806, 0.544, 192.0, 0.0, 0.0, 0.0, 0.0, 0.0, 0.0, 0.0, 0.0, 0.0, 1.7297057541794324E9, 0.0, 2024-10-23 23:19:14.179
31.0, -41242.41068868765, -48956.601197314405, -20499.768316718142, -17251.27753630609, -6658.987004636169, -8053.512341202777, -187500.02235174447, -187500.02235174447, -0.136, 0.806, 0.544, 192.0, 0.0, 0.0, 0.0, 0.0, 0.0, 0.0, 0.0, 0.0, 0.0, 1.729705754183536E9, 0.0, 2024-10-23 23:19:14.183
32.0, -41247.97627305702, -48951.21442690068, -20504.506886542666, -17148.839491467417, -6657.0424028685575, -8053.467637713867, -187500.02235174447, -187500.02235174447, -0.136, 0.806, 0.544, 192.0, 0.0, 0.0, 0.0, 0.0, 0.0, 0.0, 0.0, 0.0, 0.0, 1.7297057541875036E9, 0.0, 2024-10-23 23:19:14.187
33.0, -41398.716437663614, -49220.82116852059, -20517.20267739328, -17758.013934852355, -6686.054967171546, -8117.863013489607, -187500.02235174447, -187500.02235174447, -0.136, 0.806, 0.544, 192.0, 0.0, 0.0, 0.0, 0.0, 0.0, 0.0, 0.0, 0.0, 0.0, 1.7297057541906793E9, 0.0, 2024-10-23 23:19:14.190
34.0, -41448.49377256558, -49338.659565288974, -20506.183267376815, -18130.751625389057, -6696.716749276728, -8143.9922027578605, -187500.02235174447, -187500.02235174447, -0.136, 0.806, 0.544, 192.0, 0.0, 0.0, 0.0, 0.0, 0.0, 0.0, 0.0, 0.0, 0.0, 1.729705754194482E9, 0.0, 2024-10-23 23:19:14.194
35.0, -41341.71948930258, -49182.35381631301, -20476.38839201789, -17851.39952318663, -6687.060795672035, -8115.4043215995225, -187500.02235174447, -187500.02235174447, -0.136, 0.806, 0.544, 192.0, 0.0, 0.0, 0.0, 0.0, 0.0, 0.0, 0.0, 0.0, 0.0, 1.7297057541985798E9, 0.0, 2024-10-23 23:19:14.198
36.0, -41214.96274649653, -48951.3038338785, -20463.53613895609, -17248.483568249176, -6670.386394308376, -8073.651262957009, -187500.02235174447, -187500.02235174447, -0.136, 0.806, 0.544, 192.0, 0.0, 0.0, 0.0, 0.0, 0.0, 0.0, 0.0, 0.0, 0.0, 1.7297057542035012E9, 0.0, 2024-10-23 23:19:14.203
37.0, -41229.91606353713, -48954.41072635779, -20478.422400763324, -17142.49159604211, -6667.503019273641, -8067.571588465165, -187500.02235174447, -187500.02235174447, -0.136, 0.806, 0.544, 192.0, 0.0, 0.0, 0.0, 0.0, 0.0, 0.0, 0.0, 0.0, 0.0, 1.7297057542075188E9, 0.0, 2024-10-23 23:19:14.207
38.0, -41376.18587925266, -49227.236119179266, -20491.788743947596, -17751.151949304574, -6682.411632825331, -8118.51121407881, -187500.02235174447, -187500.02235174447, -0.136, 0.794, 0.544, 192.0, 251.0, 192.0, 24.0, 208.0, 17.0, 0.0, 0.0, 0.0, 0.0, 1.729705754211537E9, 0.0, 2024-10-23 23:19:14.211
39.0, -41449.94663595517, -49356.205684686385, -20500.170648118336, -18137.30068651446, -6708.876098260414, -8159.2584442208345, -187500.02235174447, -187500.02235174447, -0.136, 0.794, 0.544, 192.0, 0.0, 0.0, 0.0, 0.0, 0.0, 0.0, 0.0, 0.0, 0.0, 1.7297057542155836E9, 0.0, 2024-10-23 23:19:14.215
40.0, -41350.6601870847, -49190.06516815009, -20479.67409845282, -17851.131302253165, -6700.091862689479, -8125.239089159858, -187500.02235174447, -187500.02235174447, -0.136, 0.794, 0.544, 192.0, 0.0, 0.0, 0.0, 0.0, 0.0, 0.0, 0.0, 0.0, 0.0, 1.729705754218535E9, 0.0, 2024-10-23 23:19:14.218
41.0, -41216.12503720821, -48951.59440655642, -20467.20182504676, -17240.45929198972, -6672.800382709549, -8072.019585611772, -187500.02235174447, -187500.02235174447, -0.136, 0.794, 0.544, 192.0, 0.0, 0.0, 0.0, 0.0, 0.0, 0.0, 0.0, 0.0, 0.0, 1.7297057542226949E9, 0.0, 2024-10-23 23:19:14.222
42.0, -41233.89467405018, -48954.4554298467, -20488.301871812568, -17127.96296214616, -6684.602103781951, -8070.969053622372, -187500.02235174447, -187500.02235174447, -0.136, 0.794, 0.544, 192.0, 0.0, 0.0, 0.0, 0.0, 0.0, 0.0, 0.0, 0.0, 0.0, 1.729705754226586E9, 0.0, 2024-10-23 23:19:14.226
43.0, -41362.32779769037, -49210.092331182044, -20490.604101491466, -17727.66026588205, -6685.674987515806, -8105.860126717106, -187500.02235174447, -187500.02235174447, -0.136, 0.794, 0.544, 192.0, 0.0, 0.0, 0.0, 0.0, 0.0, 0.0, 0.0, 0.0, 0.0, 1.729705754231531E9, 0.0, 2024-10-23 23:19:14.231
44.0, -41434.32276658092, -49341.118257179056, -20495.94616841628, -18115.686549626178, -6702.751720279661, -8126.602545571631, -187500.02235174447, -187500.02235174447, -0.136, 0.794, 0.544, 192.0, 0.0, 0.0, 0.0, 0.0, 0.0, 0.0, 0.0, 0.0, 0.0, 1.7297057542355824E9, 0.0, 2024-10-23 23:19:14.235
45.0, -41346.927445760666, -49198.33531359855, -20480.836389164495, -17842.928212038067, -6691.3746823519095, -8095.511269034299, -187500.02235174447, -187500.02235174447, -0.136, 0.794, 0.544, 192.0, 0.0, 0.0, 0.0, 0.0, 0.0, 0.0, 0.0, 0.0, 0.0, 1.7297057542396498E9, 0.0, 2024-10-23 23:19:14.239
46.0, -41227.32326118032, -48968.67113932027, -20481.305775798057, -17239.811091400516, -6682.545743292063, -8066.945739620417, -187500.02235174447, -187500.02235174447, -0.136, 0.794, 0.544, 192.0, 0.0, 0.0, 0.0, 0.0, 0.0, 0.0, 0.0, 0.0, 0.0, 1.7297057542436082E9, 0.0, 2024-10-23 23:19:14.243
47.0, -41241.561322398346, -48959.84220026043, -20501.35529057447, -17124.25257256658, -6687.7984032390605, -8060.754306406297, -187500.02235174447, -187500.02235174447, -0.136, 0.794, 0.544, 192.0, 0.0, 0.0, 0.0, 0.0, 0.0, 0.0, 0.0, 0.0, 0.0, 1.7297057542465413E9, 0.0, 2024-10-23 23:19:14.246
48.0, -41376.18587925266, -49213.15452017242, -20511.301816857078, -17724.396911191572, -6695.0180166981245, -8102.485013304355, -187500.02235174447, -187500.02235174447, -0.14200000000000002, 0.792, 0.552, 192.0, 251.0, 144.0, 24.0, 192.0, 17.0, 64.0, 0.0, 0.0, 0.0, 1.7297057542505438E9, 0.0, 2024-10-23 23:19:14.250
49.0, -41444.850438219364, -49341.90056823499, -20521.225991395237, -18116.33475021538, -6714.553441352063, -8128.837720017162, -187500.02235174447, -187500.02235174447, -0.14200000000000002, 0.792, 0.552, 192.0, 0.0, 0.0, 0.0, 0.0, 0.0, 0.0, 0.0, 0.0, 0.0, 1.7297057542546203E9, 0.0, 2024-10-23 23:19:14.254
50.0, -41354.683501086656, -49203.655028778914, -20509.670139511843, -17854.34995345473, -6699.309551633543, -8108.296466862735, -187500.02235174447, -187500.02235174447, -0.14200000000000002, 0.792, 0.552, 192.0, 0.0, 0.0, 0.0, 0.0, 0.0, 0.0, 0.0, 0.0, 0.0, 1.7297057542586803E9, 0.0, 2024-10-23 23:19:14.258
51.0, -41231.078354248806, -48973.052081233516, -20505.713880743253, -17250.763446183617, -6681.450507813753, -8073.606559468099, -187500.02235174447, -187500.02235174447, -0.14200000000000002, 0.792, 0.552, 192.0, 0.0, 0.0, 0.0, 0.0, 0.0, 0.0, 0.0, 0.0, 0.0, 1.7297057542636635E9, 0.0, 2024-10-23 23:19:14.263
52.0, -41246.232836989504, -48968.80524978701, -20530.345503133, -17136.38956980581, -6688.13367940589, -8079.954454893405, -187500.02235174447, -187500.02235174447, -0.14200000000000002, 0.792, 0.552, 192.0, 0.0, 0.0, 0.0, 0.0, 0.0, 0.0, 0.0, 0.0, 0.0, 1.7297057542675793E9, 0.0, 2024-10-23 23:19:14.267
53.0, -41379.27041998749, -49221.24585166525, -20536.20166018029, -17743.909984101057, -6686.792574738572, -8117.103054178126, -187500.02235174447, -187500.02235174447, -0.14200000000000002, 0.792, 0.552, 192.0, 0.0, 0.0, 0.0, 0.0, 0.0, 0.0, 0.0, 0.0, 0.0, 1.7297057542716584E9, 0.0, 2024-10-23 23:19:14.271
54.0, -41439.50837129455, -49336.46909433235, -20528.4456048543, -18125.946000331165, -6685.540877049074, -8129.105940950626, -187500.02235174447, -187500.02235174447, -0.14200000000000002, 0.792, 0.552, 192.0, 0.0, 0.0, 0.0, 0.0, 0.0, 0.0, 0.0, 0.0, 0.0, 1.7297057542747178E9, 0.0, 2024-10-23 23:19:14.274
55.0, -41368.3627686933, -49208.08067418107, -20527.372721120446, -17878.087506066266, -6693.676912030806, -8128.234222916869, -187500.02235174447, -187500.02235174447, -0.14200000000000002, 0.792, 0.552, 192.0, 0.0, 0.0, 0.0, 0.0, 0.0, 0.0, 0.0, 0.0, 0.0, 1.7297057542786589E9, 0.0, 2024-10-23 23:19:14.278
56.0, -41231.61479611573, -48972.11330796639, -20518.275561127135, -17272.109362138435, -6687.574885794507, -8096.450042301422, -187500.02235174447, -187500.02235174447, -0.14200000000000002, 0.792, 0.552, 192.0, 0.0, 0.0, 0.0, 0.0, 0.0, 0.0, 0.0, 0.0, 0.0, 1.7297057542826617E9, 0.0, 2024-10-23 23:19:14.282
57.0, -41238.767354341435, -48962.36794738388, -20531.999532222693, -17154.315668858966, -6691.329978862999, -8103.870821460584, -187500.02235174447, -187500.02235174447, -0.14200000000000002, 0.792, 0.552, 192.0, 0.0, 0.0, 0.0, 0.0, 0.0, 0.0, 0.0, 0.0, 0.0, 1.7297057542867231E9, 0.0, 2024-10-23 23:19:14.286
58.0, -41389.52987069248, -49231.68411632587, -20547.690456830318, -17768.56395823526, -6697.208487654744, -8154.586929629676, -187500.02235174447, -187500.02235174447, -0.138, 0.792, 0.556, 192.0, 251.0, 176.0, 24.0, 192.0, 17.0, 96.0, 0.0, 0.0, 0.0, 1.7297057542917256E9, 0.0, 2024-10-23 23:19:14.291
59.0, -41455.91455172474, -49360.58662659963, -20541.96841024976, -18167.006154895564, -6707.825566271015, -8180.5596566867425, -187500.02235174447, -187500.02235174447, -0.138, 0.792, 0.556, 192.0, 0.0, 0.0, 0.0, 0.0, 0.0, 0.0, 0.0, 0.0, 0.0, 1.7297057542956345E9, 0.0, 2024-10-23 23:19:14.295
60.0, -41355.912847031694, -49205.17494740188, -20512.933494202316, -17903.16616334512, -6688.468955572719, -8146.808522559229, -187500.02235174447, -187500.02235174447, -0.138, 0.792, 0.556, 192.0, 0.0, 0.0, 0.0, 0.0, 0.0, 0.0, 0.0, 0.0, 0.0, 1.7297057542995822E9, 0.0, 2024-10-23 23:19:14.299
61.0, -41232.97825252751, -48976.49424987963, -20512.329997102024, -17291.33186237, -6677.471897300708, -8101.4121295705, -187500.02235174447, -187500.02235174447, -0.138, 0.792, 0.556, 192.0, 0.0, 0.0, 0.0, 0.0, 0.0, 0.0, 0.0, 0.0, 0.0, 1.7297057543028235E9, 0.0, 2024-10-23 23:19:14.302
62.0, -41246.47870617852, -48968.22410443117, -20536.425177624846, -17163.479884085642, -6686.345539849465, -8105.010760427805, -187500.02235174447, -187500.02235174447, -0.138, 0.792, 0.556, 192.0, 0.0, 0.0, 0.0, 0.0, 0.0, 0.0, 0.0, 0.0, 0.0, 1.7297057543068986E9, 0.0, 2024-10-23 23:19:14.306
63.0, -41388.501690447534, -49225.51503485621, -20558.799273824607, -17768.653365213082, -6696.56028706554, -8152.66467960652, -187500.02235174447, -187500.02235174447, -0.138, 0.792, 0.556, 192.0, 0.0, 0.0, 0.0, 0.0, 0.0, 0.0, 0.0, 0.0, 0.0, 1.7297057543106472E9, 0.0, 2024-10-23 23:19:14.310
64.0, -41448.11379290984, -49344.94040548091, -20562.911994804384, -18164.368649049837, -6694.839202742482, -8165.293415223768, -187500.02235174447, -187500.02235174447, -0.138, 0.792, 0.556, 192.0, 0.0, 0.0, 0.0, 0.0, 0.0, 0.0, 0.0, 0.0, 0.0, 1.729705754314791E9, 0.0, 2024-10-23 23:19:14.314
65.0, -41365.032358769466, -49213.89212773945, -20568.32111696257, -17908.374119803204, -6696.962618465736, -8137.823121288196, -187500.02235174447, -187500.02235174447, -0.138, 0.792, 0.556, 192.0, 0.0, 0.0, 0.0, 0.0, 0.0, 0.0, 0.0, 0.0, 0.0, 1.7297057543197317E9, 0.0, 2024-10-23 23:19:14.319
66.0, -41253.87713359322, -48989.79353783054, -20590.382288739955, -17299.981987474202, -6695.04036844258, -8104.116690649592, -187500.02235174447, -187500.02235174447, -0.138, 0.792, 0.556, 192.0, 0.0, 0.0, 0.0, 0.0, 0.0, 0.0, 0.0, 0.0, 0.0, 1.729705754323726E9, 0.0, 2024-10-23 23:19:14.323
67.0, -41233.872322305724, -48953.00256645711, -20607.056690103615, -17153.555709547487, -6683.998606681658, -8083.776603195263, -187500.02235174447, -187500.02235174447, -0.138, 0.792, 0.556, 192.0, 0.0, 0.0, 0.0, 0.0, 0.0, 0.0, 0.0, 0.0, 0.0, 1.7297057543276973E9, 0.0, 2024-10-23 23:19:14.327
68.0, -41370.821460583385, -49211.8134155051, -20637.388007329468, -17752.493053971895, -6696.8955632323705, -8125.216737415402, -187500.02235174447, -187500.02235174447, -0.136, 0.786, 0.554, 192.0, 251.0, 192.0, 24.0, 144.0, 17.0, 80.0, 0.0, 0.0, 0.0, 1.729705754331771E9, 0.0, 2024-10-23 23:19:14.331
69.0, -41443.26346436304, -49345.923882236944, -20651.022571447204, -18153.684515200202, -6707.557345337552, -8136.861996276617, -187500.02235174447, -187500.02235174447, -0.136, 0.786, 0.554, 192.0, 0.0, 0.0, 0.0, 0.0, 0.0, 0.0, 0.0, 0.0, 0.0, 1.7297057543357651E9, 0.0, 2024-10-23 23:19:14.335
70.0, -41360.65141685622, -49207.20895614731, -20654.397684859956, -17897.086488853274, -6710.977162239214, -8114.1749756544805, -187500.02235174447, -187500.02235174447, -0.136, 0.786, 0.554, 192.0, 0.0, 0.0, 0.0, 0.0, 0.0, 0.0, 0.0, 0.0, 0.0, 1.7297057543399272E9, 0.0, 2024-10-23 23:19:14.339
71.0, -41239.90729330865, -48977.4106714023, -20666.914661754927, -17278.99369943067, -6698.795461511071, -8070.343204777623, -187500.02235174447, -187500.02235174447, -0.136, 0.786, 0.554, 192.0, 0.0, 0.0, 0.0, 0.0, 0.0, 0.0, 0.0, 0.0, 0.0, 1.7297057543428397E9, 0.0, 2024-10-23 23:19:14.342
72.0, -41235.749868839965, -48953.78487751304, -20683.879635796504, -17132.902697670783, -6680.80230722455, -8056.887454615528, -187500.02235174447, -187500.02235174447, -0.136, 0.786, 0.554, 192.0, 0.0, 0.0, 0.0, 0.0, 0.0, 0.0, 0.0, 0.0, 0.0, 1.72970575434785E9, 0.0, 2024-10-23 23:19:14.347
73.0, -41359.10914648881, -49206.56075555811, -20697.134220258504, -17725.961533303445, -6683.551571792552, -8093.857239944607, -187500.02235174447, -187500.02235174447, -0.136, 0.786, 0.554, 192.0, 0.0, 0.0, 0.0, 0.0, 0.0, 0.0, 0.0, 0.0, 0.0, 1.7297057543517003E9, 0.0, 2024-10-23 23:19:14.351
74.0, -41432.66873749122, -49348.650795060494, -20707.684243641408, -18138.01594233703, -6684.3338828484875, -8117.304219878223, -187500.02235174447, -187500.02235174447, -0.136, 0.786, 0.554, 192.0, 0.0, 0.0, 0.0, 0.0, 0.0, 0.0, 0.0, 0.0, 0.0, 1.7297057543558059E9, 0.0, 2024-10-23 23:19:14.355
75.0, -41358.61740811079, -49215.32263938459, -20705.694938384884, -17894.381927774182, -6686.144374149368, -8098.931085935961, -187500.02235174447, -187500.02235174447, -0.136, 0.786, 0.554, 192.0, 0.0, 0.0, 0.0, 0.0, 0.0, 0.0, 0.0, 0.0, 0.0, 1.7297057543588307E9, 0.0, 2024-10-23 23:19:14.358
76.0, -41239.884941564196, -48976.963636513196, -20709.226514008824, -17278.211388374733, -6670.431097797286, -8073.718318190375, -187500.02235174447, -187500.02235174447, -0.136, 0.786, 0.554, 192.0, 0.0, 0.0, 0.0, 0.0, 0.0, 0.0, 0.0, 0.0, 0.0, 1.7297057543628159E9, 0.0, 2024-10-23 23:19:14.362
77.0, -41238.38737468569, -48950.812095500485, -20717.027272823725, -17129.460529024665, -6657.176513335289, -8066.699870431408, -187500.02235174447, -187500.02235174447, -0.136, 0.786, 0.554, 192.0, 0.0, 0.0, 0.0, 0.0, 0.0, 0.0, 0.0, 0.0, 0.0, 1.7297057543667247E9, 0.0, 2024-10-23 23:19:14.366
78.0, -41392.01091432702, -49225.24681392274, -20739.33431379012, -17744.13350154561, -6680.019996168613, -8125.1496821820365, -187500.02235174447, -187500.02235174447, -0.13, 0.79, 0.556, 192.0, 251.0, 240.0, 24.0, 176.0, 17.0, 96.0, 0.0, 0.0, 0.0, 1.7297057543707278E9, 0.0, 2024-10-23 23:19:14.370
79.0, -41464.7881942735, -49368.163867969975, -20739.311962045667, -18158.803064680465, -6699.75658652265, -8162.499447166854, -187500.02235174447, -187500.02235174447, -0.13, 0.79, 0.556, 192.0, 0.0, 0.0, 0.0, 0.0, 0.0, 0.0, 0.0, 0.0, 0.0, 1.729705754374829E9, 0.0, 2024-10-23 23:19:14.374
80.0, -41379.58334440987, -49227.79491279065, -20716.602589679074, -17914.230276850496, -6691.933475963292, -8140.147702711547, -187500.02235174447, -187500.02235174447, -0.13, 0.79, 0.556, 192.0, 0.0, 0.0, 0.0, 0.0, 0.0, 0.0, 0.0, 0.0, 0.0, 1.7297057543798325E9, 0.0, 2024-10-23 23:19:14.379
81.0, -41251.150220769676, -48983.33388368296, -20703.124487772526, -17289.320205369022, -6678.365967078921, -8099.199306869425, -187500.02235174447, -187500.02235174447, -0.13, 0.79, 0.556, 192.0, 0.0, 0.0, 0.0, 0.0, 0.0, 0.0, 0.0, 0.0, 0.0, 1.729705754383807E9, 0.0, 2024-10-23 23:19:14.383
82.0, -41256.96167432805, -48971.17453469927, -20718.301322257677, -17158.473093327655, -6699.018978955624, -8113.482071576366, -187500.02235174447, -187500.02235174447, -0.13, 0.79, 0.556, 192.0, 0.0, 0.0, 0.0, 0.0, 0.0, 0.0, 0.0, 0.0, 0.0, 1.729705754386877E9, 0.0, 2024-10-23 23:19:14.386
83.0, -41405.064333088914, -49239.75309607424, -20726.035025839214, -17768.094571601698, -6718.956735009759, -8169.026156547804, -187500.02235174447, -187500.02235174447, -0.13, 0.79, 0.556, 192.0, 0.0, 0.0, 0.0, 0.0, 0.0, 0.0, 0.0, 0.0, 0.0, 1.7297057543908713E9, 0.0, 2024-10-23 23:19:14.390
84.0, -41464.92230474023, -49358.77613529875, -20707.080746541113, -18169.800122952478, -6719.627287343417, -8185.633502678097, -187500.02235174447, -187500.02235174447, -0.13, 0.79, 0.556, 192.0, 0.0, 0.0, 0.0, 0.0, 0.0, 0.0, 0.0, 0.0, 0.0, 1.7297057543949244E9, 0.0, 2024-10-23 23:19:14.394
85.0, -41381.57264966639, -49225.895014511945, -20678.582272360596, -17924.959114189045, -6706.2832959035995, -8158.6102436316305, -187500.02235174447, -187500.02235174447, -0.13, 0.79, 0.556, 192.0, 0.0, 0.0, 0.0, 0.0, 0.0, 0.0, 0.0, 0.0, 0.0, 1.7297057543987985E9, 0.0, 2024-10-23 23:19:14.398
86.0, -41252.603084159266, -48982.70803483821, -20655.828196505096, -17293.701147282263, -6680.064699657524, -8106.575382539676, -187500.02235174447, -187500.02235174447, -0.13, 0.79, 0.556, 192.0, 0.0, 0.0, 0.0, 0.0, 0.0, 0.0, 0.0, 0.0, 0.0, 1.7297057544029243E9, 0.0, 2024-10-23 23:19:14.402
87.0, -41262.25903776396, -48960.49040084963, -20669.507464111743, -17140.591697763408, -6687.3290166054985, -8096.159469623503, -187500.02235174447, -187500.02235174447, -0.13, 0.79, 0.556, 192.0, 0.0, 0.0, 0.0, 0.0, 0.0, 0.0, 0.0, 0.0, 0.0, 1.7297057544078135E9, 0.0, 2024-10-23 23:19:14.407
88.0, -41400.28105977548, -49220.32943014258, -20677.08470548209, -17738.03147530931, -6691.642903285373, -8134.336249153167, -187500.02235174447, -187500.02235174447, -0.132, 0.792, 0.552, 192.0, 251.0, 224.0, 24.0, 192.0, 17.0, 64.0, 0.0, 0.0, 0.0, 1.72970575441181E9, 0.0, 2024-10-23 23:19:14.411
89.0, -41461.61424656084, -49352.785867784725, -20668.881615266993, -18146.442549996682, -6694.861554486937, -8152.485865650877, -187500.02235174447, -187500.02235174447, -0.132, 0.792, 0.552, 192.0, 0.0, 0.0, 0.0, 0.0, 0.0, 0.0, 0.0, 0.0, 0.0, 1.7297057544148784E9, 0.0, 2024-10-23 23:19:14.414
90.0, -41367.62516112628, -49209.57824105957, -20649.480301079788, -17896.68415745308, -6687.641941027873, -8122.51217633631, -187500.02235174447, -187500.02235174447, -0.132, 0.792, 0.552, 192.0, 0.0, 0.0, 0.0, 0.0, 0.0, 0.0, 0.0, 0.0, 0.0, 1.7297057544187877E9, 0.0, 2024-10-23 23:19:14.418
91.0, -41241.67308112062, -48973.49911612262, -20648.072141179102, -17275.46212380673, -6679.2823886015885, -8081.876704916562, -187500.02235174447, -187500.02235174447, -0.132, 0.792, 0.552, 192.0, 0.0, 0.0, 0.0, 0.0, 0.0, 0.0, 0.0, 0.0, 0.0, 1.7297057544228115E9, 0.0, 2024-10-23 23:19:14.422
92.0, -41248.06568003484, -48961.27271190557, -20664.99241173177, -17133.953229660183, -6673.493286787664, -8072.220751311869, -187500.02235174447, -187500.02235174447, -0.132, 0.792, 0.552, 192.0, 0.0, 0.0, 0.0, 0.0, 0.0, 0.0, 0.0, 0.0, 0.0, 1.7297057544268823E9, 0.0, 2024-10-23 23:19:14.426
93.0, -41400.258708031026, -49237.20499720633, -20689.534627143697, -17745.1393300461, -6687.239609627678, -8118.801786756729, -187500.02235174447, -187500.02235174447, -0.132, 0.792, 0.552, 192.0, 0.0, 0.0, 0.0, 0.0, 0.0, 0.0, 0.0, 0.0, 0.0, 1.729705754432914E9, 0.0, 2024-10-23 23:19:14.432
94.0, -41447.71146150964, -49355.088097463624, -20676.078876981603, -18137.948887103663, -6691.486441074186, -8126.669600804998, -187500.02235174447, -187500.02235174447, -0.132, 0.792, 0.552, 192.0, 0.0, 0.0, 0.0, 0.0, 0.0, 0.0, 0.0, 0.0, 0.0, 1.7297057544359536E9, 0.0, 2024-10-23 23:19:14.435
95.0, -41357.119841232285, -49212.6627817944, -20651.156681913937, -17887.139962570665, -6666.072507628502, -8089.789222453741, -187500.02235174447, -187500.02235174447, -0.132, 0.792, 0.552, 192.0, 0.0, 0.0, 0.0, 0.0, 0.0, 0.0, 0.0, 0.0, 0.0, 1.729705754440025E9, 0.0, 2024-10-23 23:19:14.440
96.0, -41236.44277291808, -48971.68862482174, -20645.99342894476, -17260.75467595514, -6643.541949217552, -8050.360745234579, -187500.02235174447, -187500.02235174447, -0.132, 0.792, 0.552, 192.0, 0.0, 0.0, 0.0, 0.0, 0.0, 0.0, 0.0, 0.0, 0.0, 1.729705754442914E9, 0.0, 2024-10-23 23:19:14.442
97.0, -41243.61768288824, -48957.83054325945, -20664.65713556494, -17111.981464860615, -6648.660498697817, -8043.87873934254, -187500.02235174447, -187500.02235174447, -0.132, 0.792, 0.552, 192.0, 0.0, 0.0, 0.0, 0.0, 0.0, 0.0, 0.0, 0.0, 0.0, 1.729705754446803E9, 0.0, 2024-10-23 23:19:14.446
98.0, -41379.359826965316, -49211.76871201619, -20675.721249070317, -17707.230771449897, -6658.65172846934, -8088.515173019788, -187500.02235174447, -187500.02235174447, -0.128, 0.798, 0.554, 192.0, 252.0, 0.0, 24.0, 240.0, 17.0, 80.0, 0.0, 0.0, 0.0, 1.7297057544508052E9, 0.0, 2024-10-23 23:19:14.450
99.0, -41443.44227831868, -49339.8442077451, -20675.631842092498, -18111.417366435217, -6671.235760597678, -8115.024341943782, -187500.02235174447, -187500.02235174447, -0.128, 0.798, 0.554, 192.0, 0.0, 0.0, 0.0, 0.0, 0.0, 0.0, 0.0, 0.0, 0.0, 1.7297057544548337E9, 0.0, 2024-10-23 23:19:14.454
100.0, -41376.275286230484, -49220.0165057202, -20677.08470548209, -17888.25754979343, -6674.253246099144, -8096.0924143901375, -187500.02235174447, -187500.02235174447, -0.128, 0.798, 0.554, 192.0, 0.0, 0.0, 0.0, 0.0, 0.0, 0.0, 0.0, 0.0, 0.0, 1.7297057544588196E9, 0.0, 2024-10-23 23:19:14.458
101.0, -41252.82660160382, -48990.21822097519, -20681.353888673057, -17272.690507494273, -6670.766373964117, -8070.745536177819, -187500.02235174447, -187500.02235174447, -0.128, 0.798, 0.554, 192.0, 0.0, 0.0, 0.0, 0.0, 0.0, 0.0, 0.0, 0.0, 0.0, 1.7297057544639502E9, 0.0, 2024-10-23 23:19:14.463
102.0, -41245.5846364003, -48959.08224094895, -20689.1322957435, -17116.921200385237, -6663.077373871491, -8075.014719368783, -187500.02235174447, -187500.02235174447, -0.128, 0.798, 0.554, 192.0, 0.0, 0.0, 0.0, 0.0, 0.0, 0.0, 0.0, 0.0, 0.0, 1.7297057544679468E9, 0.0, 2024-10-23 23:19:14.467
103.0, -41391.98856258256, -49224.53155810018, -20705.896104084983, -17719.50187915586, -6662.473876771197, -8125.708475793419, -187500.02235174447, -187500.02235174447, -0.128, 0.798, 0.554, 192.0, 0.0, 0.0, 0.0, 0.0, 0.0, 0.0, 0.0, 0.0, 0.0, 1.7297057544718735E9, 0.0, 2024-10-23 23:19:14.471
104.0, -41483.42954914922, -49376.43401341844, -20715.797926878684, -18151.11406458784, -6681.517563047119, -8157.112676753125, -187500.02235174447, -187500.02235174447, -0.128, 0.798, 0.554, 192.0, 0.0, 0.0, 0.0, 0.0, 0.0, 0.0, 0.0, 0.0, 0.0, 1.729705754474906E9, 0.0, 2024-10-23 23:19:14.474
105.0, -41389.46281545911, -49235.349802416546, -20697.536551658697, -17916.040768151375, -6676.957807178236, -8123.965039725905, -187500.02235174447, -187500.02235174447, -0.128, 0.798, 0.554, 192.0, 0.0, 0.0, 0.0, 0.0, 0.0, 0.0, 0.0, 0.0, 0.0, 1.7297057544789708E9, 0.0, 2024-10-23 23:19:14.478
106.0, -41258.45924120656, -49000.857651335915, -20695.837819080094, -17292.89648448187, -6669.984062908181, -8096.740614979341, -187500.02235174447, -187500.02235174447, -0.128, 0.798, 0.554, 192.0, 0.0, 0.0, 0.0, 0.0, 0.0, 0.0, 0.0, 0.0, 0.0, 1.7297057544828668E9, 0.0, 2024-10-23 23:19:14.482
107.0, -41264.15893604266, -48977.54478186903, -20717.29549375719, -17138.691799484706, -6683.305702603544, -8102.2614958598015, -187500.02235174447, -187500.02235174447, -0.128, 0.798, 0.554, 192.0, 0.0, 0.0, 0.0, 0.0, 0.0, 0.0, 0.0, 0.0, 0.0, 1.7297057544869423E9, 0.0, 2024-10-23 23:19:14.486
108.0, -41410.29464129146, -49239.48487514078, -20737.188546322413, -17735.28221074131, -6704.89748774737, -8154.56457788522, -187500.02235174447, -187500.02235174447, -0.128, 0.798, 0.554, 192.0, 0.0, 0.0, 0.0, 0.0, 0.0, 0.0, 0.0, 0.0, 0.0, 1.7297057544919255E9, 0.0, 2024-10-23 23:19:14.491
109.0, -41488.86102305186, -49377.57395238566, -20743.67055221445, -18152.052837854964, -6714.441682629787, -8182.727775898908, -187500.02235174447, -187500.02235174447, -0.136, 0.794, 0.556, 192.0, 251.0, 192.0, 24.0, 208.0, 17.0, 96.0, 0.0, 0.0, 0.0, 1.7297057544958937E9, 0.0, 2024-10-23 23:19:14.495
110.0, -41393.53083294998, -49229.89597676945, -20719.038929824703, -17911.726881471503, -6696.694397532273, -8154.944557540961, -187500.02235174447, -187500.02235174447, -0.136, 0.794, 0.556, 192.0, 0.0, 0.0, 0.0, 0.0, 0.0, 0.0, 0.0, 0.0, 0.0, 1.7297057544998753E9, 0.0, 2024-10-23 23:19:14.499
111.0, -41258.50394469547, -48986.30666569551, -20712.713386143852, -17287.979100701705, -6687.708996261239, -8115.091397177148, -187500.02235174447, -187500.02235174447, -0.136, 0.794, 0.556, 192.0, 0.0, 0.0, 0.0, 0.0, 0.0, 0.0, 0.0, 0.0, 0.0, 1.7297057545029078E9, 0.0, 2024-10-23 23:19:14.502
112.0, -41259.01803481794, -48958.4563921042, -20725.29741827219, -17127.895906912792, -6689.9665224512255, -8101.993274926338, -187500.02235174447, -187500.02235174447, -0.136, 0.794, 0.556, 192.0, 0.0, 0.0, 0.0, 0.0, 0.0, 0.0, 0.0, 0.0, 0.0, 1.7297057545069103E9, 0.0, 2024-10-23 23:19:14.506
113.0, -41379.27041998749, -49211.008752704714, -20722.43639498191, -17712.46107965244, -6691.195868396267, -8131.832853774173, -187500.02235174447, -187500.02235174447, -0.136, 0.794, 0.556, 192.0, 0.0, 0.0, 0.0, 0.0, 0.0, 0.0, 0.0, 0.0, 0.0, 1.7297057545109355E9, 0.0, 2024-10-23 23:19:14.510
114.0, -41464.51997334004, -49354.23873117432, -20725.252714783277, -18139.714674915635, -6706.238592414688, -8163.862903578628, -187500.02235174447, -187500.02235174447, -0.136, 0.794, 0.556, 192.0, 0.0, 0.0, 0.0, 0.0, 0.0, 0.0, 0.0, 0.0, 0.0, 1.7297057545149264E9, 0.0, 2024-10-23 23:19:14.514
115.0, -41378.19753625364, -49221.424665620885, -20698.67649062592, -17910.0281488929, -6688.491307317175, -8133.732752052874, -187500.02235174447, -187500.02235174447, -0.136, 0.794, 0.556, 192.0, 0.0, 0.0, 0.0, 0.0, 0.0, 0.0, 0.0, 0.0, 0.0, 1.729705754518923E9, 0.0, 2024-10-23 23:19:14.518
116.0, -41250.725537625025, -48978.81883130298, -20688.662909109942, -17277.09380115197, -6678.2765601011, -8086.391757296534, -187500.02235174447, -187500.02235174447, -0.136, 0.794, 0.556, 192.0, 0.0, 0.0, 0.0, 0.0, 0.0, 0.0, 0.0, 0.0, 0.0, 1.7297057545239112E9, 0.0, 2024-10-23 23:19:14.523
117.0, -41250.05498529136, -48957.227046159154, -20695.077859768615, -17113.233162550114, -6681.428156069298, -8070.410260010989, -187500.02235174447, -187500.02235174447, -0.136, 0.794, 0.556, 192.0, 0.0, 0.0, 0.0, 0.0, 0.0, 0.0, 0.0, 0.0, 0.0, 1.729705754528041E9, 0.0, 2024-10-23 23:19:14.528
118.0, -41380.14213802125, -49196.77069148668, -20679.968080516825, -17684.387288616574, -6661.2221790817, -8094.952475422916, -187500.02235174447, -187500.02235174447, -0.136, 0.794, 0.556, 192.0, 0.0, 0.0, 0.0, 0.0, 0.0, 0.0, 0.0, 0.0, 0.0, 1.7297057545309534E9, 0.0, 2024-10-23 23:19:14.530
119.0, -41453.813487745945, -49340.53711182322, -20665.79707453216, -18108.623398378302, -6663.591463993963, -8115.829004744173, -187500.02235174447, -187500.02235174447, -0.14200000000000002, 0.79, 0.552, 192.0, 251.0, 144.0, 24.0, 176.0, 17.0, 64.0, 0.0, 0.0, 0.0, 1.7297057545360317E9, 0.0, 2024-10-23 23:19:14.536
120.0, -41372.40843443971, -49214.13799692845, -20639.51142305272, -17882.580206701783, -6659.992833136658, -8085.564742751688, -187500.02235174447, -187500.02235174447, -0.14200000000000002, 0.79, 0.552, 192.0, 0.0, 0.0, 0.0, 0.0, 0.0, 0.0, 0.0, 0.0, 0.0, 1.7297057545400984E9, 0.0, 2024-10-23 23:19:14.540
121.0, -41247.55158991237, -48979.48938363665, -20627.106204880027, -17262.76633295612, -6644.570129462497, -8037.173216005947, -187500.02235174447, -187500.02235174447, -0.14200000000000002, 0.79, 0.552, 192.0, 0.0, 0.0, 0.0, 0.0, 0.0, 0.0, 0.0, 0.0, 0.0, 1.7297057545430436E9, 0.0, 2024-10-23 23:19:14.543
122.0, -41231.97242402702, -48944.71006926418, -20620.065405376605, -17089.786182616495, -6625.101760041924, -8015.0896924841045, -187500.02235174447, -187500.02235174447, -0.14200000000000002, 0.79, 0.552, 192.0, 0.0, 0.0, 0.0, 0.0, 0.0, 0.0, 0.0, 0.0, 0.0, 1.7297057545472136E9, 0.0, 2024-10-23 23:19:14.547
123.0, -41366.19464948114, -49201.419854333384, -20622.926428666884, -17676.78769550177, -6635.875300869382, -8051.455980712889, -187500.02235174447, -187500.02235174447, -0.14200000000000002, 0.79, 0.552, 192.0, 0.0, 0.0, 0.0, 0.0, 0.0, 0.0, 0.0, 0.0, 0.0, 1.7297057545520833E9, 0.0, 2024-10-23 23:19:14.552
124.0, -41462.4859645946, -49357.21151318688, -20628.492013036255, -18117.921724071708, -6659.188170336267, -8090.79505095423, -187500.02235174447, -187500.02235174447, -0.14200000000000002, 0.79, 0.552, 192.0, 0.0, 0.0, 0.0, 0.0, 0.0, 0.0, 0.0, 0.0, 0.0, 1.7297057545569751E9, 0.0, 2024-10-23 23:19:14.556
125.0, -41380.72328337709, -49231.03591573667, -20602.631044701462, -17905.289579068372, -6644.972460862692, -8072.0866408451375, -187500.02235174447, -187500.02235174447, -0.14200000000000002, 0.79, 0.552, 192.0, 0.0, 0.0, 0.0, 0.0, 0.0, 0.0, 0.0, 0.0, 0.0, 1.729705754561088E9, 0.0, 2024-10-23 23:19:14.561
126.0, -41243.01418578794, -48980.13758422585, -20584.034393314647, -17271.99760341616, -6620.877280339871, -8027.807835079174, -187500.02235174447, -187500.02235174447, -0.14200000000000002, 0.79, 0.552, 192.0, 0.0, 0.0, 0.0, 0.0, 0.0, 0.0, 0.0, 0.0, 0.0, 1.7297057545640848E9, 0.0, 2024-10-23 23:19:14.564
127.0, -41250.45731669156, -48948.10753442139, -20612.108184350513, -17115.423633506733, -6642.2455480391445, -8039.184873006925, -187500.02235174447, -187500.02235174447, -0.14200000000000002, 0.79, 0.552, 192.0, 0.0, 0.0, 0.0, 0.0, 0.0, 0.0, 0.0, 0.0, 0.0, 1.7297057545670035E9, 0.0, 2024-10-23 23:19:14.567
128.0, -41402.96326911012, -49215.23323240677, -20632.2694578492, -17718.89838205557, -6649.666327198306, -8101.948571437428, -187500.02235174447, -187500.02235174447, -0.14200000000000002, 0.79, 0.552, 192.0, 0.0, 0.0, 0.0, 0.0, 0.0, 0.0, 0.0, 0.0, 0.0, 1.7297057545710876E9, 0.0, 2024-10-23 23:19:14.571
129.0, -41478.266296180045, -49363.64881559001, -20636.13630963997, -18156.50083500157, -6662.183304093279, -8145.5791766141865, -187500.02235174447, -187500.02235174447, -0.138, 0.792, 0.556, 192.0, 251.0, 176.0, 24.0, 192.0, 17.0, 96.0, 0.0, 0.0, 0.0, 1.729705754575036E9, 0.0, 2024-10-23 23:19:14.575
130.0, -41388.85931835882, -49233.89693902695, -20624.871030434493, -17941.588812063794, -6662.0268418820915, -8130.268231662301, -187500.02235174447, -187500.02235174447, -0.138, 0.792, 0.556, 192.0, 0.0, 0.0, 0.0, 0.0, 0.0, 0.0, 0.0, 0.0, 0.0, 1.729705754580056E9, 0.0, 2024-10-23 23:19:14.580
131.0, -41266.32705525483, -48996.521412911585, -20635.845736962052, -17318.757452816662, -6662.116248859912, -8103.043806915737, -187500.02235174447, -187500.02235174447, -0.138, 0.792, 0.556, 192.0, 0.0, 0.0, 0.0, 0.0, 0.0, 0.0, 0.0, 0.0, 0.0, 1.729705754584031E9, 0.0, 2024-10-23 23:19:14.584
132.0, -41268.07049132234, -48960.13277293835, -20661.66200180793, -17147.05135191099, -6673.023900154102, -8102.306199348713, -187500.02235174447, -187500.02235174447, -0.138, 0.792, 0.556, 192.0, 0.0, 0.0, 0.0, 0.0, 0.0, 0.0, 0.0, 0.0, 0.0, 1.7297057545871236E9, 0.0, 2024-10-23 23:19:14.587
133.0, -41401.10807432033, -49206.40429334692, -20679.968080516825, -17717.087890754687, -6675.817868211016, -8141.220586445402, -187500.02235174447, -187500.02235174447, -0.138, 0.792, 0.556, 192.0, 0.0, 0.0, 0.0, 0.0, 0.0, 0.0, 0.0, 0.0, 0.0, 1.7297057545910516E9, 0.0, 2024-10-23 23:19:14.591
134.0, -41484.74830207209, -49362.86650453407, -20700.10700227106, -18157.12668384632, -6702.37174062392, -8172.982415316394, -187500.02235174447, -187500.02235174447, -0.138, 0.792, 0.556, 192.0, 0.0, 0.0, 0.0, 0.0, 0.0, 0.0, 0.0, 0.0, 0.0, 1.7297057545950532E9, 0.0, 2024-10-23 23:19:14.595
135.0, -41400.30341151993, -49238.50139838474, -20686.919473042428, -17944.673352798625, -6685.473821815708, -8140.147702711547, -187500.02235174447, -187500.02235174447, -0.138, 0.792, 0.556, 192.0, 0.0, 0.0, 0.0, 0.0, 0.0, 0.0, 0.0, 0.0, 0.0, 1.729705754599192E9, 0.0, 2024-10-23 23:19:14.599
136.0, -41260.1356220407, -48985.54670638403, -20677.04000199318, -17303.513563098142, -6662.60798723793, -8080.826172927163, -187500.02235174447, -187500.02235174447, -0.138, 0.792, 0.556, 192.0, 0.0, 0.0, 0.0, 0.0, 0.0, 0.0, 0.0, 0.0, 0.0, 1.729705754603092E9, 0.0, 2024-10-23 23:19:14.603
137.0, -41252.200752759076, -48941.87139771836, -20692.082726011602, -17114.14958407278, -6667.994757651658, -8076.154658336003, -187500.02235174447, -187500.02235174447, -0.138, 0.792, 0.556, 192.0, 0.0, 0.0, 0.0, 0.0, 0.0, 0.0, 0.0, 0.0, 0.0, 1.7297057546080766E9, 0.0, 2024-10-23 23:19:14.608
138.0, -41388.52404219199, -49204.34793285703, -20705.784345362707, -17697.1277829561, -6691.352330607454, -8121.618106558098, -187500.02235174447, -187500.02235174447, -0.138, 0.792, 0.556, 192.0, 0.0, 0.0, 0.0, 0.0, 0.0, 0.0, 0.0, 0.0, 0.0, 1.7297057546120546E9, 0.0, 2024-10-23 23:19:14.612
139.0, -41479.83091829192, -49367.94035052542, -20706.968987818836, -18150.599974465367, -6702.639961557385, -8154.296356951757, -187500.02235174447, -187500.02235174447, -0.138, 0.784, 0.554, 192.0, 251.0, 176.0, 24.0, 128.0, 17.0, 80.0, 0.0, 0.0, 0.0, 1.7297057546150713E9, 0.0, 2024-10-23 23:19:14.615
140.0, -41405.19844355565, -49248.872607812, -20677.017650248727, -17942.25936439745, -6677.337786833977, -8121.6851617914635, -187500.02235174447, -187500.02235174447, -0.138, 0.784, 0.554, 192.0, 0.0, 0.0, 0.0, 0.0, 0.0, 0.0, 0.0, 0.0, 0.0, 1.72970575461908E9, 0.0, 2024-10-23 23:19:14.619
141.0, -41265.54474419889, -48995.85086057793, -20648.630934790486, -17301.4348508638, -6654.091972600458, -8059.0555738276935, -187500.02235174447, -187500.02235174447, -0.138, 0.784, 0.554, 192.0, 0.0, 0.0, 0.0, 0.0, 0.0, 0.0, 0.0, 0.0, 0.0, 1.7297057546230788E9, 0.0, 2024-10-23 23:19:14.623
142.0, -41249.049156790876, -48955.99770021412, -20639.019684674702, -17112.607313705365, -6645.844178896449, -8049.265509756269, -187500.02235174447, -187500.02235174447, -0.138, 0.784, 0.554, 192.0, 0.0, 0.0, 0.0, 0.0, 0.0, 0.0, 0.0, 0.0, 0.0, 1.7297057546273413E9, 0.0, 2024-10-23 23:19:14.627
143.0, -41375.291809474445, -49207.07484568058, -20631.12951888198, -17684.49904733885, -6648.951071375736, -8083.0613473726935, -187500.02235174447, -187500.02235174447, -0.138, 0.784, 0.554, 192.0, 0.0, 0.0, 0.0, 0.0, 0.0, 0.0, 0.0, 0.0, 0.0, 1.729705754631082E9, 0.0, 2024-10-23 23:19:14.631
144.0, -41466.71044429665, -49367.76153656978, -20621.473565277287, -18133.791462634978, -6653.93551038927, -8106.910658706505, -187500.02235174447, -187500.02235174447, -0.138, 0.784, 0.554, 192.0, 0.0, 0.0, 0.0, 0.0, 0.0, 0.0, 0.0, 0.0, 0.0, 1.7297057546381075E9, 0.0, 2024-10-23 23:19:14.638
145.0, -41384.65719040122, -49240.96009027483, -20579.83226535705, -17924.64618976667, -6633.573071190485, -8074.344167035123, -187500.02235174447, -187500.02235174447, -0.138, 0.784, 0.554, 192.0, 0.0, 0.0, 0.0, 0.0, 0.0, 0.0, 0.0, 0.0, 0.0, 1.7297057546421676E9, 0.0, 2024-10-23 23:19:14.642
146.0, -41249.02680504642, -48990.01705527509, -20555.96060227878, -17289.320205369022, -6618.351533216422, -8026.936117045417, -187500.02235174447, -187500.02235174447, -0.138, 0.784, 0.554, 192.0, 0.0, 0.0, 0.0, 0.0, 0.0, 0.0, 0.0, 0.0, 0.0, 1.7297057546451652E9, 0.0, 2024-10-23 23:19:14.645
147.0, -41232.68767984959, -48948.53221756604, -20561.615593625975, -17096.49170595309, -6628.320411243488, -8015.335561673112, -187500.02235174447, -187500.02235174447, -0.138, 0.784, 0.554, 192.0, 0.0, 0.0, 0.0, 0.0, 0.0, 0.0, 0.0, 0.0, 0.0, 1.729705754648114E9, 0.0, 2024-10-23 23:19:14.648
148.0, -41367.513402404, -49206.605459047016, -20561.72735234825, -17670.819779732203, -6636.702315414228, -8062.542445962721, -187500.02235174447, -187500.02235174447, -0.138, 0.784, 0.554, 192.0, 0.0, 0.0, 0.0, 0.0, 0.0, 0.0, 0.0, 0.0, 0.0, 1.7297057546511204E9, 0.0, 2024-10-23 23:19:14.651
149.0, -41457.076842436414, -49371.516629638274, -20561.74970409271, -18130.237535266584, -6656.461257512719, -8096.070062645682, -187500.02235174447, -187500.02235174447, -0.134, 0.794, 0.558, 192.0, 251.0, 208.0, 24.0, 208.0, 17.0, 112.0, 0.0, 0.0, 0.0, 1.7297057546551917E9, 0.0, 2024-10-23 23:19:14.655
150.0, -41376.699969375135, -49246.90565429994, -20532.871250256452, -17926.859012467743, -6628.45452171022, -8075.908789146994, -187500.02235174447, -187500.02235174447, -0.134, 0.794, 0.558, 192.0, 0.0, 0.0, 0.0, 0.0, 0.0, 0.0, 0.0, 0.0, 0.0, 1.7297057546591508E9, 0.0, 2024-10-23 23:19:14.659
151.0, -41235.07931650631, -48989.59237213044, -20514.386357591913, -17281.787667487584, -6606.370998188377, -8019.381227419523, -187500.02235174447, -187500.02235174447, -0.134, 0.794, 0.558, 192.0, 0.0, 0.0, 0.0, 0.0, 0.0, 0.0, 0.0, 0.0, 0.0, 1.7297057546631453E9, 0.0, 2024-10-23 23:19:14.663
152.0, -41240.10845900875, -48951.52735132306, -20538.414482881366, -17092.915426840238, -6612.473024424676, -8017.4366256519115, -187500.02235174447, -187500.02235174447, -0.134, 0.794, 0.558, 192.0, 0.0, 0.0, 0.0, 0.0, 0.0, 0.0, 0.0, 0.0, 0.0, 1.7297057546681373E9, 0.0, 2024-10-23 23:19:14.668
153.0, -41370.30737046091, -49201.419854333384, -20553.5019103887, -17658.414561559508, -6621.436073951254, -8065.783448908741, -187500.02235174447, -187500.02235174447, -0.134, 0.794, 0.558, 192.0, 0.0, 0.0, 0.0, 0.0, 0.0, 0.0, 0.0, 0.0, 0.0, 1.7297057546711607E9, 0.0, 2024-10-23 23:19:14.671
154.0, -41440.55890328394, -49347.756725282285, -20559.87215755846, -18106.00824427703, -6633.2154432792, -8101.74740573733, -187500.02235174447, -187500.02235174447, -0.134, 0.794, 0.558, 192.0, 0.0, 0.0, 0.0, 0.0, 0.0, 0.0, 0.0, 0.0, 0.0, 1.7297057546741667E9, 0.0, 2024-10-23 23:19:14.674
155.0, -41369.32389370488, -49231.08061922558, -20559.87215755846, -17916.577210018302, -6637.88695787036, -8094.617199256087, -187500.02235174447, -187500.02235174447, -0.134, 0.794, 0.558, 192.0, 0.0, 0.0, 0.0, 0.0, 0.0, 0.0, 0.0, 0.0, 0.0, 1.72970575467922E9, 0.0, 2024-10-23 23:19:14.679
156.0, -41236.88980780719, -48979.98112201466, -20564.87894831645, -17282.547626799063, -6633.103684556924, -8062.497742473811, -187500.02235174447, -187500.02235174447, -0.134, 0.794, 0.558, 192.0, 0.0, 0.0, 0.0, 0.0, 0.0, 0.0, 0.0, 0.0, 0.0, 1.729705754683202E9, 0.0, 2024-10-23 23:19:14.683
157.0, -41242.45539217656, -48940.195016884216, -20595.433782986856, -17092.28957799549, -6630.8014548780275, -8076.154658336003, -187500.02235174447, -187500.02235174447, -0.134, 0.794, 0.558, 192.0, 0.0, 0.0, 0.0, 0.0, 0.0, 0.0, 0.0, 0.0, 0.0, 1.7297057546872275E9, 0.0, 2024-10-23 23:19:14.687
158.0, -41387.96524858061, -49202.3139241116, -20628.112033380516, -17676.966509457412, -6649.241644053655, -8139.521853866799, -187500.02235174447, -187500.02235174447, -0.134, 0.794, 0.558, 192.0, 0.0, 0.0, 0.0, 0.0, 0.0, 0.0, 0.0, 0.0, 0.0, 1.7297057546911793E9, 0.0, 2024-10-23 23:19:14.691
159.0, -41458.88733373729, -49355.95981549738, -20636.56099278462, -18133.947924846165, -6663.36794654941, -8163.505275667343, -187500.02235174447, -187500.02235174447, -0.136, 0.788, 0.558, 192.0, 251.0, 192.0, 24.0, 160.0, 17.0, 112.0, 0.0, 0.0, 0.0, 1.7297057546961944E9, 0.0, 2024-10-23 23:19:14.696
160.0, -41389.23929801456, -49233.584014604574, -20631.487146793264, -17945.567422576838, -6647.989946364159, -8147.434371403978, -187500.02235174447, -187500.02235174447, -0.136, 0.788, 0.558, 192.0, 0.0, 0.0, 0.0, 0.0, 0.0, 0.0, 0.0, 0.0, 0.0, 1.7297057546992097E9, 0.0, 2024-10-23 23:19:14.699
161.0, -41259.30860749586, -48973.56617135599, -20642.819481232105, -17304.072356709523, -6642.804341650527, -8109.525812807777, -187500.02235174447, -187500.02235174447, -0.136, 0.788, 0.558, 192.0, 0.0, 0.0, 0.0, 0.0, 0.0, 0.0, 0.0, 0.0, 0.0, 1.729705754704194E9, 0.0, 2024-10-23 23:19:14.704
162.0, -41246.21048524505, -48934.47297030366, -20669.66392632293, -17106.05825257996, -6651.02978361008, -8102.172088881981, -187500.02235174447, -187500.02235174447, -0.136, 0.788, 0.558, 192.0, 0.0, 0.0, 0.0, 0.0, 0.0, 0.0, 0.0, 0.0, 0.0, 1.729705754707245E9, 0.0, 2024-10-23 23:19:14.707
163.0, -41390.736864893064, -49199.475252565775, -20699.727022615316, -17682.710907782424, -6670.900484430848, -8153.737563340374, -187500.02235174447, -187500.02235174447, -0.136, 0.788, 0.558, 192.0, 0.0, 0.0, 0.0, 0.0, 0.0, 0.0, 0.0, 0.0, 0.0, 1.7297057547129855E9, 0.0, 2024-10-23 23:19:14.712
164.0, -41457.32271162543, -49343.1969694134, -20695.167266746434, -18130.9304393447, -6672.308644331532, -8163.639386134075, -187500.02235174447, -187500.02235174447, -0.136, 0.788, 0.558, 192.0, 0.0, 0.0, 0.0, 0.0, 0.0, 0.0, 0.0, 0.0, 0.0, 1.729705754715224E9, 0.0, 2024-10-23 23:19:14.715
165.0, -41389.686332903664, -49229.94068025836, -20684.013746263237, -17944.338076631793, -6669.112344874424, -8150.161284227524, -187500.02235174447, -187500.02235174447, -0.136, 0.788, 0.558, 192.0, 0.0, 0.0, 0.0, 0.0, 0.0, 0.0, 0.0, 0.0, 0.0, 1.7297057547192342E9, 0.0, 2024-10-23 23:19:14.719
166.0, -41259.62153191824, -48986.35136918442, -20679.744563072272, -17311.984874246704, -6659.434039525276, -8094.84071670064, -187500.02235174447, -187500.02235174447, -0.136, 0.788, 0.558, 192.0, 0.0, 0.0, 0.0, 0.0, 0.0, 0.0, 0.0, 0.0, 0.0, 1.7297057547243123E9, 0.0, 2024-10-23 23:19:14.724
167.0, -41248.758584112955, -48944.26303437508, -20687.70178409836, -17108.315778769946, -6653.466123755708, -8086.2352950853465, -187500.02235174447, -187500.02235174447, -0.136, 0.788, 0.558, 192.0, 0.0, 0.0, 0.0, 0.0, 0.0, 0.0, 0.0, 0.0, 0.0, 1.7297057547272575E9, 0.0, 2024-10-23 23:19:14.727
168.0, -41389.17224278119, -49209.91351722641, -20698.028290036713, -17679.17933215849, -6663.03267038258, -8135.99027824286, -187500.02235174447, -187500.02235174447, -0.136, 0.788, 0.558, 192.0, 0.0, 0.0, 0.0, 0.0, 0.0, 0.0, 0.0, 0.0, 0.0, 1.7297057547302313E9, 0.0, 2024-10-23 23:19:14.730
169.0, -41485.21768870565, -49379.272684964264, -20701.001072049272, -18145.280259285006, -6682.858667714438, -8164.309938467734, -187500.02235174447, -187500.02235174447, -0.14, 0.786, 0.556, 192.0, 251.0, 160.0, 24.0, 144.0, 17.0, 96.0, 0.0, 0.0, 0.0, 1.729705754735258E9, 0.0, 2024-10-23 23:19:14.735
170.0, -41410.78637966947, -49266.865762098525, -20677.28587118219, -17965.304012930872, -6676.376661822398, -8137.2419759323575, -187500.02235174447, -187500.02235174447, -0.14, 0.786, 0.556, 192.0, 0.0, 0.0, 0.0, 0.0, 0.0, 0.0, 0.0, 0.0, 0.0, 1.729705754739427E9, 0.0, 2024-10-23 23:19:14.739
171.0, -41263.95777034257, -49010.42419796279, -20650.12850166899, -17320.210316206256, -6645.195978307245, -8077.115783347582, -187500.02235174447, -187500.02235174447, -0.14, 0.786, 0.556, 192.0, 0.0, 0.0, 0.0, 0.0, 0.0, 0.0, 0.0, 0.0, 0.0, 1.7297057547434173E9, 0.0, 2024-10-23 23:19:14.743
172.0, -41244.578807899816, -48962.99379622863, -20654.777664515696, -17112.62966544982, -6639.004545093125, -8057.803876138196, -187500.02235174447, -187500.02235174447, -0.14, 0.786, 0.556, 192.0, 0.0, 0.0, 0.0, 0.0, 0.0, 0.0, 0.0, 0.0, 0.0, 1.7297057547472558E9, 0.0, 2024-10-23 23:19:14.747
173.0, -41396.123635306794, -49222.475197610285, -20670.75916180124, -17681.436858348472, -6650.582748720974, -8109.3022953632235, -187500.02235174447, -187500.02235174447, -0.14, 0.786, 0.556, 192.0, 0.0, 0.0, 0.0, 0.0, 0.0, 0.0, 0.0, 0.0, 0.0, 1.7297057547517068E9, 0.0, 2024-10-23 23:19:14.751
174.0, -41476.70167406818, -49371.024891260255, -20652.56484181462, -18133.322076001416, -6635.316507258, -8124.993219970849, -187500.02235174447, -187500.02235174447, -0.14, 0.786, 0.556, 192.0, 0.0, 0.0, 0.0, 0.0, 0.0, 0.0, 0.0, 0.0, 0.0, 1.7297057547543008E9, 0.0, 2024-10-23 23:19:14.754
175.0, -41404.84081564436, -49262.127192274, -20633.252934605236, -17956.87740527122, -6625.437036208754, -8109.03407442976, -187500.02235174447, -187500.02235174447, -0.14, 0.786, 0.556, 192.0, 0.0, 0.0, 0.0, 0.0, 0.0, 0.0, 0.0, 0.0, 0.0, 1.7297057547582953E9, 0.0, 2024-10-23 23:19:14.758
176.0, -41263.64484592019, -48998.17544200128, -20620.17716409888, -17315.248228937176, -6608.78498658955, -8062.184818051436, -187500.02235174447, -187500.02235174447, -0.14, 0.786, 0.556, 192.0, 0.0, 0.0, 0.0, 0.0, 0.0, 0.0, 0.0, 0.0, 0.0, 1.7297057547632952E9, 0.0, 2024-10-23 23:19:14.763
177.0, -41250.90435158066, -48936.17170288226, -20632.94001018286, -17103.376043245324, -6612.45067268022, -8060.396678495012, -187500.02235174447, -187500.02235174447, -0.14, 0.786, 0.556, 192.0, 0.0, 0.0, 0.0, 0.0, 0.0, 0.0, 0.0, 0.0, 0.0, 1.7297057547673984E9, 0.0, 2024-10-23 23:19:14.767
178.0, -41388.59109742536, -49192.85913620701, -20657.50457733924, -17668.137570397565, -6633.506015957119, -8119.695856534941, -187500.02235174447, -187500.02235174447, -0.14, 0.786, 0.556, 192.0, 0.0, 0.0, 0.0, 0.0, 0.0, 0.0, 0.0, 0.0, 0.0, 1.7297057547712996E9, 0.0, 2024-10-23 23:19:14.771
179.0, -41473.61713333335, -49355.91511200847, -20666.109998954536, -18140.8322621384, -6647.632318452874, -8160.420734932511, -187500.02235174447, -187500.02235174447, -0.146, 0.788, 0.56, 192.0, 251.0, 112.0, 24.0, 160.0, 17.0, 128.0, 0.0, 0.0, 0.0, 1.7297057547753413E9, 0.0, 2024-10-23 23:19:14.775
180.0, -41404.52789122199, -49235.66272683892, -20660.387952373978, -17967.60624260977, -6642.960803861714, -8144.1710167135025, -187500.02235174447, -187500.02235174447, -0.146, 0.788, 0.56, 192.0, 0.0, 0.0, 0.0, 0.0, 0.0, 0.0, 0.0, 0.0, 0.0, 1.7297057547795262E9, 0.0, 2024-10-23 23:19:14.779
181.0, -41262.08022380832, -48980.74108132614, -20661.214966918822, -17331.341484945, -6630.779103133572, -8093.991350411338, -187500.02235174447, -187500.02235174447, -0.146, 0.788, 0.56, 192.0, 0.0, 0.0, 0.0, 0.0, 0.0, 0.0, 0.0, 0.0, 0.0, 1.7297057547833257E9, 0.0, 2024-10-23 23:19:14.783
182.0, -41257.09578479479, -48937.89278720532, -20694.787287090694, -17130.131081358326, -6641.619699194396, -8101.121556892581, -187500.02235174447, -187500.02235174447, -0.146, 0.788, 0.56, 192.0, 0.0, 0.0, 0.0, 0.0, 0.0, 0.0, 0.0, 0.0, 0.0, 1.729705754786354E9, 0.0, 2024-10-23 23:19:14.786
183.0, -41399.67756267519, -49189.64048500544, -20725.43152873892, -17689.058803207732, -6660.9763098926915, -8145.04273474726, -187500.02235174447, -187500.02235174447, -0.146, 0.788, 0.56, 192.0, 0.0, 0.0, 0.0, 0.0, 0.0, 0.0, 0.0, 0.0, 0.0, 1.7297057547915812E9, 0.0, 2024-10-23 23:19:14.791
184.0, -41467.11277569685, -49343.59930081359, -20730.997113108293, -18148.700076186666, -6676.46606880022, -8178.436240963489, -187500.02235174447, -187500.02235174447, -0.146, 0.788, 0.56, 192.0, 0.0, 0.0, 0.0, 0.0, 0.0, 0.0, 0.0, 0.0, 0.0, 1.7297057547953513E9, 0.0, 2024-10-23 23:19:14.795
185.0, -41389.351056736836, -49222.56460458811, -20716.490830956798, -17973.350640934783, -6665.424307039298, -8153.715211595919, -187500.02235174447, -187500.02235174447, -0.146, 0.788, 0.56, 192.0, 0.0, 0.0, 0.0, 0.0, 0.0, 0.0, 0.0, 0.0, 0.0, 1.7297057547993543E9, 0.0, 2024-10-23 23:19:14.799
186.0, -41257.3863574727, -48970.07929922096, -20714.90385710047, -17339.030485037623, -6651.879149899381, -8102.440309815444, -187500.02235174447, -187500.02235174447, -0.146, 0.788, 0.56, 192.0, 0.0, 0.0, 0.0, 0.0, 0.0, 0.0, 0.0, 0.0, 0.0, 1.7297057548035405E9, 0.0, 2024-10-23 23:19:14.803
187.0, -41253.63126440421, -48932.72953423614, -20746.263354571267, -17134.936706416214, -6669.849952441448, -8100.987446425849, -187500.02235174447, -187500.02235174447, -0.146, 0.788, 0.56, 192.0, 0.0, 0.0, 0.0, 0.0, 0.0, 0.0, 0.0, 0.0, 0.0, 1.7297057548083217E9, 0.0, 2024-10-23 23:19:14.808
188.0, -41385.8194811129, -49183.1584791134, -20756.63456399853, -17688.187085173977, -6668.486496029675, -8141.4664556344105, -187500.02235174447, -187500.02235174447, -0.146, 0.788, 0.56, 192.0, 0.0, 0.0, 0.0, 0.0, 0.0, 0.0, 0.0, 0.0, 0.0, 1.7297057548114257E9, 0.0, 2024-10-23 23:19:14.811
189.0, -41461.12250818283, -49341.65469904598, -20748.40912203898, -18149.191814564685, -6677.270731600611, -8161.381859944089, -187500.02235174447, -187500.02235174447, -0.134, 0.792, 0.558, 192.0, 251.0, 208.0, 24.0, 192.0, 17.0, 112.0, 0.0, 0.0, 0.0, 1.7297057548143811E9, 0.0, 2024-10-23 23:19:14.814
190.0, -41412.283946547985, -49256.89688407146, -20745.97278189335, -17999.680995903134, -6684.13271714839, -8153.536397640276, -187500.02235174447, -187500.02235174447, -0.134, 0.792, 0.558, 192.0, 0.0, 0.0, 0.0, 0.0, 0.0, 0.0, 0.0, 0.0, 0.0, 1.7297057548193653E9, 0.0, 2024-10-23 23:19:14.819
191.0, -41289.46111076607, -49018.22495677769, -20739.15549983448, -17373.608633709984, -6665.536065761575, -8108.3635220961005, -187500.02235174447, -187500.02235174447, -0.134, 0.792, 0.558, 192.0, 0.0, 0.0, 0.0, 0.0, 0.0, 0.0, 0.0, 0.0, 0.0, 1.7297057548233817E9, 0.0, 2024-10-23 23:19:14.823
192.0, -41261.70024415258, -48948.64397628832, -20736.093310844102, -17137.283639584024, -6652.147370832846, -8081.273207816269, -187500.02235174447, -187500.02235174447, -0.134, 0.792, 0.558, 192.0, 0.0, 0.0, 0.0, 0.0, 0.0, 0.0, 0.0, 0.0, 0.0, 1.7297057548274007E9, 0.0, 2024-10-23 23:19:14.827
193.0, -41389.46281545911, -49204.727912512775, -20740.653066712985, -17689.148210185554, -6657.511789502119, -8116.656019289019, -187500.02235174447, -187500.02235174447, -0.134, 0.792, 0.558, 192.0, 0.0, 0.0, 0.0, 0.0, 0.0, 0.0, 0.0, 0.0, 0.0, 1.7297057548314123E9, 0.0, 2024-10-23 23:19:14.831
194.0, -41482.64723809329, -49373.260065705785, -20736.808566666674, -18159.07128561393, -6672.018071653613, -8146.3391359256675, -187500.02235174447, -187500.02235174447, -0.134, 0.792, 0.558, 192.0, 0.0, 0.0, 0.0, 0.0, 0.0, 0.0, 0.0, 0.0, 0.0, 1.7297057548354063E9, 0.0, 2024-10-23 23:19:14.835
195.0, -41412.99920237055, -49262.238950996274, -20707.885409341503, -17989.645062642703, -6658.048231369046, -8120.835795502162, -187500.02235174447, -187500.02235174447, -0.134, 0.792, 0.558, 192.0, 0.0, 0.0, 0.0, 0.0, 0.0, 0.0, 0.0, 0.0, 0.0, 1.7297057548394232E9, 0.0, 2024-10-23 23:19:14.839
196.0, -41271.28914252391, -49014.8721951094, -20680.99626076177, -17360.421104481353, -6633.863643868404, -8072.243103056325, -187500.02235174447, -187500.02235174447, -0.134, 0.792, 0.558, 192.0, 0.0, 0.0, 0.0, 0.0, 0.0, 0.0, 0.0, 0.0, 0.0, 1.7297057548444345E9, 0.0, 2024-10-23 23:19:14.844
197.0, -41247.55158991237, -48954.94716822472, -20674.313089169635, -17137.171880861748, -6619.782044861561, -8057.848579627107, -187500.02235174447, -187500.02235174447, -0.134, 0.792, 0.558, 192.0, 0.0, 0.0, 0.0, 0.0, 0.0, 0.0, 0.0, 0.0, 0.0, 1.729705754847623E9, 0.0, 2024-10-23 23:19:14.847
198.0, -41386.4676817021, -49199.8105287326, -20685.131333486002, -17680.319271125707, -6639.451579982231, -8106.575382539676, -187500.02235174447, -187500.02235174447, -0.134, 0.792, 0.558, 192.0, 0.0, 0.0, 0.0, 0.0, 0.0, 0.0, 0.0, 0.0, 0.0, 1.7297057548513985E9, 0.0, 2024-10-23 23:19:14.851
199.0, -41466.531630341015, -49364.76640281277, -20676.05652523715, -18152.656334955256, -6654.091972600458, -8147.590833615164, -187500.02235174447, -187500.02235174447, -0.13, 0.79, 0.556, 192.0, 251.0, 240.0, 24.0, 176.0, 17.0, 96.0, 0.0, 0.0, 0.0, 1.729705754855436E9, 0.0, 2024-10-23 23:19:14.855
200.0, -41391.943859093655, -49249.49845665675, -20644.786434744172, -17984.325347462338, -6626.420512964787, -8125.1496821820365, -187500.02235174447, -187500.02235174447, -0.13, 0.79, 0.556, 192.0, 0.0, 0.0, 0.0, 0.0, 0.0, 0.0, 0.0, 0.0, 0.0, 1.7297057548594437E9, 0.0, 2024-10-23 23:19:14.859
201.0, -41268.83045063382, -49004.27746823758, -20649.614411546518, -17354.475540456242, -6618.865623338893, -8089.677463731464, -187500.02235174447, -187500.02235174447, -0.13, 0.79, 0.556, 192.0, 0.0, 0.0, 0.0, 0.0, 0.0, 0.0, 0.0, 0.0, 0.0, 1.7297057548634584E9, 0.0, 2024-10-23 23:19:14.863
202.0, -41234.989909528485, -48930.89669119081, -20657.035190705683, -17124.140813844304, -6608.941448800737, -8061.603672695598, -187500.02235174447, -187500.02235174447, -0.13, 0.79, 0.556, 192.0, 0.0, 0.0, 0.0, 0.0, 0.0, 0.0, 0.0, 0.0, 0.0, 1.7297057548674693E9, 0.0, 2024-10-23 23:19:14.867
203.0, -41376.49880367504, -49174.530705753656, -20689.3334614436, -17665.79063722976, -6634.310678757511, -8118.801786756729, -187500.02235174447, -187500.02235174447, -0.13, 0.79, 0.556, 192.0, 0.0, 0.0, 0.0, 0.0, 0.0, 0.0, 0.0, 0.0, 0.0, 1.729705754870433E9, 0.0, 2024-10-23 23:19:14.870
204.0, -41479.96502875865, -49349.500161349795, -20720.067110069645, -18147.537785474993, -6666.787763451071, -8182.124278798614, -187500.02235174447, -187500.02235174447, -0.13, 0.79, 0.556, 192.0, 0.0, 0.0, 0.0, 0.0, 0.0, 0.0, 0.0, 0.0, 0.0, 1.7297057548744571E9, 0.0, 2024-10-23 23:19:14.874
205.0, -41413.51329249302, -49238.970785018304, -20711.461688454354, -17987.99103355301, -6660.730440703684, -8166.858037335639, -187500.02235174447, -187500.02235174447, -0.13, 0.79, 0.556, 192.0, 0.0, 0.0, 0.0, 0.0, 0.0, 0.0, 0.0, 0.0, 0.0, 1.7297057548794951E9, 0.0, 2024-10-23 23:19:14.879
206.0, -41284.834299663824, -48984.25030520562, -20709.226514008824, -17352.15095903289, -6654.963690634214, -8117.125405922581, -187500.02235174447, -187500.02235174447, -0.13, 0.79, 0.556, 192.0, 0.0, 0.0, 0.0, 0.0, 0.0, 0.0, 0.0, 0.0, 0.0, 1.7297057548834753E9, 0.0, 2024-10-23 23:19:14.883
207.0, -41279.76045367247, -48931.90251969129, -20735.02042711025, -17127.4935755126, -6656.170684834801, -8104.407263327511, -187500.02235174447, -187500.02235174447, -0.13, 0.79, 0.556, 192.0, 0.0, 0.0, 0.0, 0.0, 0.0, 0.0, 0.0, 0.0, 0.0, 1.729705754887472E9, 0.0, 2024-10-23 23:19:14.887
208.0, -41406.472492989604, -49187.450014048816, -20761.1496163785, -17677.905282724536, -6677.829525211993, -8144.841569047162, -187500.02235174447, -187500.02235174447, -0.13, 0.79, 0.556, 192.0, 0.0, 0.0, 0.0, 0.0, 0.0, 0.0, 0.0, 0.0, 0.0, 1.729705754891505E9, 0.0, 2024-10-23 23:19:14.891
209.0, -41492.97374403164, -49353.9481584964, -20769.263299615777, -18153.460997755647, -6696.716749276728, -8191.444956236477, -187500.02235174447, -187500.02235174447, -0.134, 0.79, 0.556, 192.0, 251.0, 208.0, 24.0, 176.0, 17.0, 96.0, 0.0, 0.0, 0.0, 1.729705754895489E9, 0.0, 2024-10-23 23:19:14.895
210.0, -41435.418002059225, -49258.26034048323, -20759.67440124445, -18003.36903373826, -6693.632208541895, -8173.071822294215, -187500.02235174447, -187500.02235174447, -0.134, 0.79, 0.556, 192.0, 0.0, 0.0, 0.0, 0.0, 0.0, 0.0, 0.0, 0.0, 0.0, 1.7297057548985243E9, 0.0, 2024-10-23 23:19:14.898
211.0, -41296.05487538038, -49008.01020956162, -20744.609325481575, -17374.14507557691, -6680.310568846532, -8124.814406015206, -187500.02235174447, -187500.02235174447, -0.134, 0.79, 0.556, 192.0, 0.0, 0.0, 0.0, 0.0, 0.0, 0.0, 0.0, 0.0, 0.0, 1.729705754902574E9, 0.0, 2024-10-23 23:19:14.902
212.0, -41277.771148415944, -48956.757659525596, -20744.586973737118, -17149.085360656423, -6673.8285629544935, -8111.068083175192, -187500.02235174447, -187500.02235174447, -0.134, 0.79, 0.556, 192.0, 0.0, 0.0, 0.0, 0.0, 0.0, 0.0, 0.0, 0.0, 0.0, 1.7297057549074855E9, 0.0, 2024-10-23 23:19:14.907
213.0, -41418.05069661745, -49213.33333412807, -20752.186566851924, -17693.35033814315, -6682.881019458892, -8157.80558083124, -187500.02235174447, -187500.02235174447, -0.134, 0.79, 0.556, 192.0, 0.0, 0.0, 0.0, 0.0, 0.0, 0.0, 0.0, 0.0, 0.0, 1.7297057549116008E9, 0.0, 2024-10-23 23:19:14.911
214.0, -41499.947488301696, -49377.48454540784, -20736.965028877858, -18168.280204329516, -6690.6147230404285, -8181.341967742678, -187500.02235174447, -187500.02235174447, -0.134, 0.79, 0.556, 192.0, 0.0, 0.0, 0.0, 0.0, 0.0, 0.0, 0.0, 0.0, 0.0, 1.729705754915545E9, 0.0, 2024-10-23 23:19:14.915
215.0, -41438.65900500525, -49281.70732041685, -20710.411156464954, -18019.79756591291, -6685.56322879353, -8164.801676845751, -187500.02235174447, -187500.02235174447, -0.134, 0.79, 0.556, 192.0, 0.0, 0.0, 0.0, 0.0, 0.0, 0.0, 0.0, 0.0, 0.0, 1.7297057549195397E9, 0.0, 2024-10-23 23:19:14.919
216.0, -41320.82060823686, -49047.59514899196, -20697.357737703056, -17406.35393933701, -6679.75177523515, -8111.425711086477, -187500.02235174447, -187500.02235174447, -0.134, 0.79, 0.556, 192.0, 0.0, 0.0, 0.0, 0.0, 0.0, 0.0, 0.0, 0.0, 0.0, 1.72970575492355E9, 0.0, 2024-10-23 23:19:14.923
217.0, -41304.88381444023, -48993.95096229923, -20689.37816493251, -17181.607148838895, -6677.829525211993, -8105.301333105724, -187500.02235174447, -187500.02235174447, -0.134, 0.79, 0.556, 192.0, 0.0, 0.0, 0.0, 0.0, 0.0, 0.0, 0.0, 0.0, 0.0, 1.729705754926535E9, 0.0, 2024-10-23 23:19:14.926
218.0, -41413.468589004115, -49231.88528202597, -20669.149836200457, -17703.58743710368, -6670.1852286082785, -8141.689973078964, -187500.02235174447, -187500.02235174447, -0.134, 0.79, 0.556, 192.0, 0.0, 0.0, 0.0, 0.0, 0.0, 0.0, 0.0, 0.0, 0.0, 1.7297057549305017E9, 0.0, 2024-10-23 23:19:14.930
219.0, -41491.23030796413, -49397.802281117714, -20650.530833069188, -18179.25491085707, -6674.029728654591, -8163.840551834172, -187500.02235174447, -187500.02235174447, -0.132, 0.796, 0.552, 192.0, 251.0, 224.0, 24.0, 224.0, 17.0, 64.0, 0.0, 0.0, 0.0, 1.7297057549355116E9, 0.0, 2024-10-23 23:19:14.935
220.0, -41437.809638715946, -49301.063931115146, -20627.217963602303, -18028.961781139587, -6670.632263497385, -8138.627784088587, -187500.02235174447, -187500.02235174447, -0.132, 0.796, 0.552, 192.0, 0.0, 0.0, 0.0, 0.0, 0.0, 0.0, 0.0, 0.0, 0.0, 1.729705754939516E9, 0.0, 2024-10-23 23:19:14.939
221.0, -41298.06653238136, -49035.27933779709, -20596.484314976253, -17389.858351928993, -6640.300946271533, -8079.239199070836, -187500.02235174447, -187500.02235174447, -0.132, 0.796, 0.552, 192.0, 0.0, 0.0, 0.0, 0.0, 0.0, 0.0, 0.0, 0.0, 0.0, 1.729705754944578E9, 0.0, 2024-10-23 23:19:14.944
222.0, -41260.80617437437, -48960.46804910518, -20583.632061914454, -17146.62666876634, -6614.037646536547, -8056.149847048503, -187500.02235174447, -187500.02235174447, -0.132, 0.796, 0.552, 192.0, 0.0, 0.0, 0.0, 0.0, 0.0, 0.0, 0.0, 0.0, 0.0, 1.7297057549486196E9, 0.0, 2024-10-23 23:19:14.948
223.0, -41409.53468197998, -49211.8134155051, -20604.2627220467, -17680.274567636796, -6631.024972322581, -8100.272190603279, -187500.02235174447, -187500.02235174447, -0.132, 0.796, 0.552, 192.0, 0.0, 0.0, 0.0, 0.0, 0.0, 0.0, 0.0, 0.0, 0.0, 1.7297057549515376E9, 0.0, 2024-10-23 23:19:14.951
224.0, -41499.56750864595, -49376.52342039626, -20603.50276273522, -18153.59510822238, -6646.2688620411, -8127.720132794397, -187500.02235174447, -187500.02235174447, -0.132, 0.796, 0.552, 192.0, 0.0, 0.0, 0.0, 0.0, 0.0, 0.0, 0.0, 0.0, 0.0, 1.7297057549545937E9, 0.0, 2024-10-23 23:19:14.954
225.0, -41407.14304532326, -49259.42263119491, -20569.662221629886, -17989.46624868706, -6621.413722206798, -8102.932048193461, -187500.02235174447, -187500.02235174447, -0.132, 0.796, 0.552, 192.0, 0.0, 0.0, 0.0, 0.0, 0.0, 0.0, 0.0, 0.0, 0.0, 1.7297057549586027E9, 0.0, 2024-10-23 23:19:14.958
226.0, -41289.88579391072, -49016.12389279889, -20572.478541431254, -17374.81562791057, -6602.906477797804, -8060.575492450655, -187500.02235174447, -187500.02235174447, -0.132, 0.796, 0.552, 192.0, 0.0, 0.0, 0.0, 0.0, 0.0, 0.0, 0.0, 0.0, 0.0, 1.7297057549636087E9, 0.0, 2024-10-23 23:19:14.963
227.0, -41271.37854950173, -48949.470990833164, -20596.283149276158, -17144.547956532, -6602.012408019592, -8056.507474959788, -187500.02235174447, -187500.02235174447, -0.132, 0.796, 0.552, 192.0, 0.0, 0.0, 0.0, 0.0, 0.0, 0.0, 0.0, 0.0, 0.0, 1.7297057549675615E9, 0.0, 2024-10-23 23:19:14.967
228.0, -41398.58232719688, -49188.701711738315, -20625.65334149043, -17668.53990179776, -6610.59547789043, -8108.005894184816, -187500.02235174447, -187500.02235174447, -0.132, 0.796, 0.552, 192.0, 0.0, 0.0, 0.0, 0.0, 0.0, 0.0, 0.0, 0.0, 0.0, 1.7297057549716218E9, 0.0, 2024-10-23 23:19:14.971
229.0, -41485.35179917238, -49355.1998561859, -20649.256783635235, -18142.039256338987, -6629.326239743977, -8146.920281281506, -187500.02235174447, -187500.02235174447, -0.128, 0.796, 0.554, 192.0, 252.0, 0.0, 24.0, 224.0, 17.0, 80.0, 0.0, 0.0, 0.0, 1.729705754975634E9, 0.0, 2024-10-23 23:19:14.975
230.0, -41411.14400758076, -49249.78902933467, -20644.764082999718, -17993.243693500008, -6615.289344226044, -8126.222565915891, -187500.02235174447, -187500.02235174447, -0.128, 0.796, 0.554, 192.0, 0.0, 0.0, 0.0, 0.0, 0.0, 0.0, 0.0, 0.0, 0.0, 1.7297057549786108E9, 0.0, 2024-10-23 23:19:14.978
231.0, -41286.60008747579, -49004.88096533787, -20671.385010645987, -17376.737877933727, -6628.767446132594, -8086.369405552078, -187500.02235174447, -187500.02235174447, -0.128, 0.796, 0.554, 192.0, 0.0, 0.0, 0.0, 0.0, 0.0, 0.0, 0.0, 0.0, 0.0, 1.7297057549827144E9, 0.0, 2024-10-23 23:19:14.982
232.0, -41287.94119214311, -48955.05892694699, -20719.553019947176, -17153.689820014217, -6646.64884169684, -8095.958303923405, -187500.02235174447, -187500.02235174447, -0.128, 0.796, 0.554, 192.0, 0.0, 0.0, 0.0, 0.0, 0.0, 0.0, 0.0, 0.0, 0.0, 1.7297057549866192E9, 0.0, 2024-10-23 23:19:14.986
233.0, -41416.79899892795, -49198.156499642915, -20743.469386514353, -17677.391192602063, -6648.861664397916, -8139.99124050036, -187500.02235174447, -187500.02235174447, -0.128, 0.796, 0.554, 192.0, 0.0, 0.0, 0.0, 0.0, 0.0, 0.0, 0.0, 0.0, 0.0, 1.7297057549906435E9, 0.0, 2024-10-23 23:19:14.990
234.0, -41486.8940695398, -49362.642987089515, -20751.29249707371, -18141.793387149977, -6671.213408853222, -8164.578159401198, -187500.02235174447, -187500.02235174447, -0.128, 0.796, 0.554, 192.0, 0.0, 0.0, 0.0, 0.0, 0.0, 0.0, 0.0, 0.0, 0.0, 1.729705754994638E9, 0.0, 2024-10-23 23:19:14.994
235.0, -41431.10411537935, -49279.56155294914, -20747.380941794032, -18007.682920418134, -6672.286292587077, -8150.407153416533, -187500.02235174447, -187500.02235174447, -0.128, 0.796, 0.554, 192.0, 0.0, 0.0, 0.0, 0.0, 0.0, 0.0, 0.0, 0.0, 0.0, 1.729705754999632E9, 0.0, 2024-10-23 23:19:14.999
236.0, -41314.048029666905, -49032.731238929184, -20732.360569520068, -17389.120744361968, -6641.999678850136, -8103.334379593656, -187500.02235174447, -187500.02235174447, -0.128, 0.796, 0.554, 192.0, 0.0, 0.0, 0.0, 0.0, 0.0, 0.0, 0.0, 0.0, 0.0, 1.7297057550036411E9, 0.0, 2024-10-23 23:19:15.003
237.0, -41288.522337498944, -48976.22602894617, -20730.795947408194, -17155.58971829292, -6642.402010250332, -8092.203210854914, -187500.02235174447, -187500.02235174447, -0.128, 0.796, 0.554, 192.0, 0.0, 0.0, 0.0, 0.0, 0.0, 0.0, 0.0, 0.0, 0.0, 1.7297057550065954E9, 0.0, 2024-10-23 23:19:15.006
238.0, -41418.698897206654, -49227.97372674629, -20737.993209122804, -17685.527227583796, -6656.908292401826, -8141.4664556344105, -187500.02235174447, -187500.02235174447, -0.128, 0.796, 0.554, 192.0, 0.0, 0.0, 0.0, 0.0, 0.0, 0.0, 0.0, 0.0, 0.0, 1.7297057550106463E9, 0.0, 2024-10-23 23:19:15.010
239.0, -41485.53061312802, -49389.5097839248, -20711.171115776437, -18144.520299973527, -6658.294100558055, -8162.052412277748, -187500.02235174447, -187500.02235174447, -0.128, 0.796, 0.554, 192.0, 0.0, 0.0, 0.0, 0.0, 0.0, 0.0, 0.0, 0.0, 0.0, 1.7297057550146928E9, 0.0, 2024-10-23 23:19:15.014
240.0, -41418.14010359527, -49281.50615471675, -20671.407362390444, -18000.351548236795, -6642.290251528055, -8132.168129941003, -187500.02235174447, -187500.02235174447, -0.132, 0.786, 0.556, 192.0, 251.0, 224.0, 24.0, 144.0, 17.0, 96.0, 0.0, 0.0, 0.0, 1.7297057550197785E9, 0.0, 2024-10-23 23:19:15.019
241.0, -41295.093750368804, -49032.93240462928, -20650.79905400265, -17380.470619257765, -6627.180472276267, -8077.36165253659, -187500.02235174447, -187500.02235174447, -0.132, 0.786, 0.556, 192.0, 0.0, 0.0, 0.0, 0.0, 0.0, 0.0, 0.0, 0.0, 0.0, 1.7297057550236888E9, 0.0, 2024-10-23 23:19:15.023
242.0, -41287.53886074291, -48985.56905812849, -20657.07989419459, -17156.10380841539, -6628.499225199131, -8066.7445739203185, -187500.02235174447, -187500.02235174447, -0.132, 0.786, 0.556, 192.0, 0.0, 0.0, 0.0, 0.0, 0.0, 0.0, 0.0, 0.0, 0.0, 1.7297057550276785E9, 0.0, 2024-10-23 23:19:15.027
243.0, -41404.19261505516, -49217.0660754521, -20654.598850560054, -17665.477712807384, -6639.585690448963, -8119.56174606821, -187500.02235174447, -187500.02235174447, -0.132, 0.786, 0.556, 192.0, 0.0, 0.0, 0.0, 0.0, 0.0, 0.0, 0.0, 0.0, 0.0, 1.7297057550317032E9, 0.0, 2024-10-23 23:19:15.031
244.0, -41482.0884444819, -49378.17744948596, -20642.88653646547, -18129.790500377476, -6658.495266258153, -8150.295394694257, -187500.02235174447, -187500.02235174447, -0.132, 0.786, 0.556, 192.0, 0.0, 0.0, 0.0, 0.0, 0.0, 0.0, 0.0, 0.0, 0.0, 1.729705755034681E9, 0.0, 2024-10-23 23:19:15.034
245.0, -41422.16341759723, -49284.478936729305, -20613.60575122902, -17994.808315611877, -6639.563338704507, -8123.428597858978, -187500.02235174447, -187500.02235174447, -0.132, 0.786, 0.556, 192.0, 0.0, 0.0, 0.0, 0.0, 0.0, 0.0, 0.0, 0.0, 0.0, 1.7297057550397482E9, 0.0, 2024-10-23 23:19:15.039
246.0, -41290.69045671111, -49028.93144237178, -20593.064498074593, -17378.034279112137, -6615.088178525946, -8070.924350133461, -187500.02235174447, -187500.02235174447, -0.132, 0.786, 0.556, 192.0, 0.0, 0.0, 0.0, 0.0, 0.0, 0.0, 0.0, 0.0, 0.0, 1.7297057550438073E9, 0.0, 2024-10-23 23:19:15.043
247.0, -41262.61666567525, -48944.508903564085, -20584.34731773702, -17131.271020325545, -6595.440995149732, -8042.850559097596, -187500.02235174447, -187500.02235174447, -0.132, 0.786, 0.556, 192.0, 0.0, 0.0, 0.0, 0.0, 0.0, 0.0, 0.0, 0.0, 0.0, 1.7297057550487373E9, 0.0, 2024-10-23 23:19:15.048
248.0, -41392.72617014959, -49190.26633385019, -20605.715585436297, -17647.752779454324, -6615.043475037036, -8097.411167313, -187500.02235174447, -187500.02235174447, -0.132, 0.786, 0.556, 192.0, 0.0, 0.0, 0.0, 0.0, 0.0, 0.0, 0.0, 0.0, 0.0, 1.7297057550517435E9, 0.0, 2024-10-23 23:19:15.051
249.0, -41472.320732154934, -49355.021042230255, -20604.732108680262, -18123.91199158573, -6626.420512964787, -8137.376086399089, -187500.02235174447, -187500.02235174447, -0.132, 0.786, 0.556, 192.0, 0.0, 0.0, 0.0, 0.0, 0.0, 0.0, 0.0, 0.0, 0.0, 1.7297057550567007E9, 0.0, 2024-10-23 23:19:15.056
250.0, -41412.127484336794, -49251.95714854683, -20592.34924225202, -17984.70532711808, -6615.7140273706955, -8120.65698154652, -187500.02235174447, -187500.02235174447, -0.138, 0.786, 0.556, 192.0, 251.0, 176.0, 24.0, 144.0, 17.0, 96.0, 0.0, 0.0, 0.0, 1.7297057550597055E9, 0.0, 2024-10-23 23:19:15.059
251.0, -41282.8449944073, -49005.39505546034, -20595.366727753488, -17370.144113319413, -6605.074597009969, -8074.053594357204, -187500.02235174447, -187500.02235174447, -0.138, 0.786, 0.556, 192.0, 0.0, 0.0, 0.0, 0.0, 0.0, 0.0, 0.0, 0.0, 0.0, 1.7297057550637076E9, 0.0, 2024-10-23 23:19:15.063
252.0, -41264.15893604266, -48947.72755476565, -20618.724300709284, -17145.374971076842, -6605.9686667881815, -8073.405393768, -187500.02235174447, -187500.02235174447, -0.138, 0.786, 0.556, 192.0, 0.0, 0.0, 0.0, 0.0, 0.0, 0.0, 0.0, 0.0, 0.0, 1.7297057550667365E9, 0.0, 2024-10-23 23:19:15.066
253.0, -41412.082780847886, -49199.13997639895, -20665.50650185424, -17661.186177871965, -6640.323298015988, -8136.929051509983, -187500.02235174447, -187500.02235174447, -0.138, 0.786, 0.556, 192.0, 0.0, 0.0, 0.0, 0.0, 0.0, 0.0, 0.0, 0.0, 0.0, 1.729705755070734E9, 0.0, 2024-10-23 23:19:15.070
254.0, -41477.10400546837, -49363.134725467535, -20675.52008337022, -18129.11994804382, -6661.758620948627, -8170.5237234263095, -187500.02235174447, -187500.02235174447, -0.138, 0.786, 0.556, 192.0, 0.0, 0.0, 0.0, 0.0, 0.0, 0.0, 0.0, 0.0, 0.0, 1.729705755074715E9, 0.0, 2024-10-23 23:19:15.074
255.0, -41405.57842321139, -49265.77052662022, -20659.069199451114, -17994.22717025604, -6651.298004543544, -8148.417848160011, -187500.02235174447, -187500.02235174447, -0.138, 0.786, 0.556, 192.0, 0.0, 0.0, 0.0, 0.0, 0.0, 0.0, 0.0, 0.0, 0.0, 1.7297057550787373E9, 0.0, 2024-10-23 23:19:15.078
0.0, -41297.03835213642, -49027.925613871295, -20656.923431983403, -17390.707718218295, -6639.071600326491, -8101.523888292777, -187500.02235174447, -187500.02235174447, -0.138, 0.786, 0.556, 192.0, 0.0, 0.0, 0.0, 0.0, 0.0, 0.0, 0.0, 0.0, 0.0, 1.7297057550838537E9, 0.0, 2024-10-23 23:19:15.083
1.0, -41282.532069984925, -48972.895619022325, -20664.545376842663, -17163.81516025247, -6630.354419988921, -8088.895152675528, -187500.02235174447, -187500.02235174447, -0.138, 0.786, 0.556, 192.0, 0.0, 0.0, 0.0, 0.0, 0.0, 0.0, 0.0, 0.0, 0.0, 1.7297057550878148E9, 0.0, 2024-10-23 23:19:15.087
2.0, -41387.76408288051, -49200.90576421092, -20659.650344806952, -17657.565195270206, -6631.695524656239, -8121.37223736909, -187500.02235174447, -187500.02235174447, -0.138, 0.786, 0.556, 192.0, 0.0, 0.0, 0.0, 0.0, 0.0, 0.0, 0.0, 0.0, 0.0, 1.729705755090825E9, 0.0, 2024-10-23 23:19:15.090
3.0, -41475.472328123135, -49375.38348142904, -20663.383086130987, -18130.438700966683, -6666.474839028698, -8167.550941413754, -187500.02235174447, -187500.02235174447, -0.138, 0.786, 0.556, 192.0, 0.0, 0.0, 0.0, 0.0, 0.0, 0.0, 0.0, 0.0, 0.0, 1.7297057550947828E9, 0.0, 2024-10-23 23:19:15.094
4.0, -41416.329612294394, -49284.635398940496, -20637.18684162937, -18007.45940297358, -6643.854873639927, -8136.839644532162, -187500.02235174447, -187500.02235174447, -0.132, 0.786, 0.558, 192.0, 251.0, 224.0, 24.0, 144.0, 17.0, 112.0, 0.0, 0.0, 0.0, 1.7297057550988264E9, 0.0, 2024-10-23 23:19:15.098
5.0, -41308.97418367555, -49049.942082159774, -20632.068292149102, -17403.559971280094, -6628.499225199131, -8096.450042301422, -187500.02235174447, -187500.02235174447, -0.132, 0.786, 0.558, 192.0, 0.0, 0.0, 0.0, 0.0, 0.0, 0.0, 0.0, 0.0, 0.0, 1.7297057551027937E9, 0.0, 2024-10-23 23:19:15.102
6.0, -41299.60880274878, -48994.12977625487, -20647.111016167524, -17171.86178825638, -6636.881129369871, -8084.380100295556, -187500.02235174447, -187500.02235174447, -0.132, 0.786, 0.558, 192.0, 0.0, 0.0, 0.0, 0.0, 0.0, 0.0, 0.0, 0.0, 0.0, 1.7297057551068213E9, 0.0, 2024-10-23 23:19:15.106
7.0, -41409.93701338017, -49222.16227318791, -20644.786434744172, -17664.60599477363, -6639.630393937874, -8130.536452595766, -187500.02235174447, -187500.02235174447, -0.132, 0.786, 0.558, 192.0, 0.0, 0.0, 0.0, 0.0, 0.0, 0.0, 0.0, 0.0, 0.0, 1.7297057551118128E9, 0.0, 2024-10-23 23:19:15.111
8.0, -41474.39944438928, -49385.41941468947, -20627.150908368934, -18131.9809713341, -6644.547777718041, -8154.341060440667, -187500.02235174447, -187500.02235174447, -0.132, 0.786, 0.558, 192.0, 0.0, 0.0, 0.0, 0.0, 0.0, 0.0, 0.0, 0.0, 0.0, 1.7297057551157744E9, 0.0, 2024-10-23 23:19:15.115
9.0, -41423.79509494246, -49301.62272472653, -20608.39779477093, -18020.04343510192, -6630.64499266684, -8143.0534294907375, -187500.02235174447, -187500.02235174447, -0.132, 0.786, 0.558, 192.0, 0.0, 0.0, 0.0, 0.0, 0.0, 0.0, 0.0, 0.0, 0.0, 1.729705755118814E9, 0.0, 2024-10-23 23:19:15.118
10.0, -41304.36972431776, -49050.94791066026, -20596.193742298336, -17416.05459643061, -6620.229079750667, -8094.550144022721, -187500.02235174447, -187500.02235174447, -0.132, 0.786, 0.558, 192.0, 0.0, 0.0, 0.0, 0.0, 0.0, 0.0, 0.0, 0.0, 0.0, 1.7297057551227596E9, 0.0, 2024-10-23 23:19:15.122
11.0, -41284.0966920968, -48979.86936329238, -20603.972149368783, -17171.548863834007, -6618.97738206117, -8083.55308575071, -187500.02235174447, -187500.02235174447, -0.132, 0.786, 0.558, 192.0, 0.0, 0.0, 0.0, 0.0, 0.0, 0.0, 0.0, 0.0, 0.0, 1.729705755126793E9, 0.0, 2024-10-23 23:19:15.126
12.0, -41408.88648139078, -49221.424665620885, -20628.246143847246, -17668.271680864298, -6636.724667158684, -8138.247804432846, -187500.02235174447, -187500.02235174447, -0.132, 0.786, 0.558, 192.0, 0.0, 0.0, 0.0, 0.0, 0.0, 0.0, 0.0, 0.0, 0.0, 1.7297057551307735E9, 0.0, 2024-10-23 23:19:15.130
13.0, -41491.52088064205, -49392.549621170714, -20634.95166718384, -18153.79627392248, -6656.036574368069, -8171.440144948977, -187500.02235174447, -187500.02235174447, -0.132, 0.786, 0.558, 192.0, 0.0, 0.0, 0.0, 0.0, 0.0, 0.0, 0.0, 0.0, 0.0, 1.7297057551348288E9, 0.0, 2024-10-23 23:19:15.134
14.0, -41437.27319684901, -49292.860840900044, -20627.106204880027, -18044.362133069295, -6648.302870786532, -8157.626766875597, -187500.02235174447, -187500.02235174447, -0.134, 0.798, 0.558, 192.0, 251.0, 208.0, 24.0, 240.0, 17.0, 112.0, 0.0, 0.0, 0.0, 1.7297057551397953E9, 0.0, 2024-10-23 23:19:15.139
15.0, -41285.951886886585, -49024.50579696963, -20607.213152314802, -17421.128442421967, -6617.54687041603, -8089.006911397805, -187500.02235174447, -187500.02235174447, -0.134, 0.798, 0.558, 192.0, 0.0, 0.0, 0.0, 0.0, 0.0, 0.0, 0.0, 0.0, 0.0, 1.7297057551437824E9, 0.0, 2024-10-23 23:19:15.143
16.0, -41267.8916773667, -48961.02684271656, -20639.153795141436, -17177.740297048127, -6627.091065298447, -8079.350957793112, -187500.02235174447, -187500.02235174447, -0.134, 0.798, 0.558, 192.0, 0.0, 0.0, 0.0, 0.0, 0.0, 0.0, 0.0, 0.0, 0.0, 1.7297057551467872E9, 0.0, 2024-10-23 23:19:15.146
17.0, -41392.79322538296, -49197.932982198356, -20670.490940867778, -17668.428143075485, -6650.158065576323, -8126.334324638167, -187500.02235174447, -187500.02235174447, -0.134, 0.798, 0.558, 192.0, 0.0, 0.0, 0.0, 0.0, 0.0, 0.0, 0.0, 0.0, 0.0, 1.7297057551507988E9, 0.0, 2024-10-23 23:19:15.150
18.0, -41470.800813531976, -49364.69934757941, -20678.068182238127, -18151.181119821205, -6667.234798340178, -8158.811409331729, -187500.02235174447, -187500.02235174447, -0.134, 0.798, 0.558, 192.0, 0.0, 0.0, 0.0, 0.0, 0.0, 0.0, 0.0, 0.0, 0.0, 1.729705755154886E9, 0.0, 2024-10-23 23:19:15.154
19.0, -41406.42778950069, -49271.87255285651, -20662.3772576305, -18039.981191156054, -6660.9763098926915, -8133.620993330597, -187500.02235174447, -187500.02235174447, -0.134, 0.798, 0.558, 192.0, 0.0, 0.0, 0.0, 0.0, 0.0, 0.0, 0.0, 0.0, 0.0, 1.7297057551589577E9, 0.0, 2024-10-23 23:19:15.158
20.0, -41303.02861965044, -49037.51451224262, -20671.13914145698, -17438.339285652553, -6652.102667343935, -8083.575437495165, -187500.02235174447, -187500.02235174447, -0.134, 0.798, 0.558, 192.0, 0.0, 0.0, 0.0, 0.0, 0.0, 0.0, 0.0, 0.0, 0.0, 1.7297057551628568E9, 0.0, 2024-10-23 23:19:15.162
21.0, -41282.040331606906, -48966.16774394128, -20690.42869692191, -17184.64698608482, -6659.322280802999, -8071.684309444941, -187500.02235174447, -187500.02235174447, -0.134, 0.798, 0.558, 192.0, 0.0, 0.0, 0.0, 0.0, 0.0, 0.0, 0.0, 0.0, 0.0, 1.7297057551678884E9, 0.0, 2024-10-23 23:19:15.167
22.0, -41377.48228043107, -49188.36643557149, -20689.95931028835, -17655.888814436057, -6660.46221977022, -8110.933972708461, -187500.02235174447, -187500.02235174447, -0.134, 0.798, 0.558, 192.0, 0.0, 0.0, 0.0, 0.0, 0.0, 0.0, 0.0, 0.0, 0.0, 1.729705755171862E9, 0.0, 2024-10-23 23:19:15.171
23.0, -41447.26442662054, -49359.33492891013, -20677.91172002694, -18130.058721310943, -6657.847065668949, -8133.1963101859465, -187500.02235174447, -187500.02235174447, -0.134, 0.798, 0.558, 192.0, 0.0, 0.0, 0.0, 0.0, 0.0, 0.0, 0.0, 0.0, 0.0, 1.7297057551748643E9, 0.0, 2024-10-23 23:19:15.174
24.0, -41392.59205968286, -49282.310817517144, -20663.316030897622, -18027.151289838708, -6656.595367979452, -8118.310048378712, -187500.02235174447, -187500.02235174447, -0.13, 0.788, 0.558, 192.0, 251.0, 240.0, 24.0, 160.0, 17.0, 112.0, 0.0, 0.0, 0.0, 1.7297057551788585E9, 0.0, 2024-10-23 23:19:15.178
25.0, -41275.31245652586, -49035.45815175273, -20656.23052790529, -17419.139137165446, -6648.012298108613, -8069.069155343671, -187500.02235174447, -187500.02235174447, -0.13, 0.788, 0.558, 192.0, 0.0, 0.0, 0.0, 0.0, 0.0, 0.0, 0.0, 0.0, 0.0, 1.7297057551828916E9, 0.0, 2024-10-23 23:19:15.182
26.0, -41245.29406372238, -48965.38543288534, -20661.304373896644, -17162.16113116278, -6644.905405629326, -8050.807780123685, -187500.02235174447, -187500.02235174447, -0.13, 0.788, 0.558, 192.0, 0.0, 0.0, 0.0, 0.0, 0.0, 0.0, 0.0, 0.0, 0.0, 1.7297057551868966E9, 0.0, 2024-10-23 23:19:15.186
27.0, -41357.76804182149, -49188.47819429376, -20663.89717625346, -17632.039503102245, -6652.862626655416, -8091.666768987986, -187500.02235174447, -187500.02235174447, -0.13, 0.788, 0.558, 192.0, 0.0, 0.0, 0.0, 0.0, 0.0, 0.0, 0.0, 0.0, 0.0, 1.7297057551909273E9, 0.0, 2024-10-23 23:19:15.190
28.0, -41435.37329857032, -49368.74501332582, -20657.3257633836, -18112.400843191248, -6672.666272242817, -8129.731789795374, -187500.02235174447, -187500.02235174447, -0.13, 0.788, 0.558, 192.0, 0.0, 0.0, 0.0, 0.0, 0.0, 0.0, 0.0, 0.0, 0.0, 1.7297057551949255E9, 0.0, 2024-10-23 23:19:15.194
29.0, -41383.517251434, -49296.2359543128, -20635.622219517496, -18016.26599028897, -6670.453449541742, -8128.480092105877, -187500.02235174447, -187500.02235174447, -0.13, 0.788, 0.558, 192.0, 0.0, 0.0, 0.0, 0.0, 0.0, 0.0, 0.0, 0.0, 0.0, 1.7297057551999328E9, 0.0, 2024-10-23 23:19:15.199
30.0, -41262.77312788643, -49045.15880884633, -20616.198553585837, -17414.735843507748, -6657.109458101923, -8084.000120639816, -187500.02235174447, -187500.02235174447, -0.13, 0.788, 0.558, 192.0, 0.0, 0.0, 0.0, 0.0, 0.0, 0.0, 0.0, 0.0, 0.0, 1.729705755202917E9, 0.0, 2024-10-23 23:19:15.202
31.0, -41248.71388062405, -48979.28821793655, -20626.435652546366, -17168.97841322165, -6658.159990091323, -8082.1225741055705, -187500.02235174447, -187500.02235174447, -0.13, 0.788, 0.558, 192.0, 0.0, 0.0, 0.0, 0.0, 0.0, 0.0, 0.0, 0.0, 0.0, 1.729705755206928E9, 0.0, 2024-10-23 23:19:15.206
32.0, -41355.175239464676, -49202.760959000705, -20624.245181589748, -17644.69059046395, -6668.866475685415, -8131.028190973782, -187500.02235174447, -187500.02235174447, -0.13, 0.788, 0.558, 192.0, 0.0, 0.0, 0.0, 0.0, 0.0, 0.0, 0.0, 0.0, 0.0, 1.729705755210898E9, 0.0, 2024-10-23 23:19:15.210
33.0, -41409.64644070226, -49361.3018824222, -20595.50083822022, -18115.440680437172, -6662.943263404759, -8150.295394694257, -187500.02235174447, -187500.02235174447, -0.13, 0.788, 0.558, 192.0, 0.0, 0.0, 0.0, 0.0, 0.0, 0.0, 0.0, 0.0, 0.0, 1.7297057552149608E9, 0.0, 2024-10-23 23:19:15.214
34.0, -41355.97990226506, -49285.57417220762, -20580.83809385754, -18022.99386537002, -6656.260091812622, -8139.030115488782, -187500.02235174447, -187500.02235174447, -0.14200000000000002, 0.786, 0.558, 192.0, 251.0, 144.0, 24.0, 144.0, 17.0, 112.0, 0.0, 0.0, 0.0, 1.7297057552189417E9, 0.0, 2024-10-23 23:19:15.218
35.0, -41262.41549997515, -49040.934329144286, -20593.466829474786, -17432.214907671798, -6661.0880686149685, -8102.172088881981, -187500.02235174447, -187500.02235174447, -0.14200000000000002, 0.786, 0.558, 192.0, 0.0, 0.0, 0.0, 0.0, 0.0, 0.0, 0.0, 0.0, 0.0, 1.7297057552229276E9, 0.0, 2024-10-23 23:19:15.222
36.0, -41244.69056662209, -48961.54093283903, -20605.64853020293, -17175.415715624775, -6656.908292401826, -8083.351920050612, -187500.02235174447, -187500.02235174447, -0.14200000000000002, 0.786, 0.558, 192.0, 0.0, 0.0, 0.0, 0.0, 0.0, 0.0, 0.0, 0.0, 0.0, 1.7297057552280557E9, 0.0, 2024-10-23 23:19:15.228
37.0, -41358.170373221685, -49184.70074948082, -20615.349187296535, -17641.986029384858, -6661.021013381603, -8122.4451211029445, -187500.02235174447, -187500.02235174447, -0.14200000000000002, 0.786, 0.558, 192.0, 0.0, 0.0, 0.0, 0.0, 0.0, 0.0, 0.0, 0.0, 0.0, 1.7297057552309768E9, 0.0, 2024-10-23 23:19:15.230
38.0, -41431.7299642241, -49358.016175987264, -20610.364748283, -18128.31528524343, -6668.061812885024, -8148.551958626743, -187500.02235174447, -187500.02235174447, -0.14200000000000002, 0.786, 0.558, 192.0, 0.0, 0.0, 0.0, 0.0, 0.0, 0.0, 0.0, 0.0, 0.0, 1.7297057552349293E9, 0.0, 2024-10-23 23:19:15.234
39.0, -41385.640667157255, -49285.86474488553, -20601.312291778602, -18041.925792923666, -6670.140525119367, -8136.549071854243, -187500.02235174447, -187500.02235174447, -0.14200000000000002, 0.786, 0.558, 192.0, 0.0, 0.0, 0.0, 0.0, 0.0, 0.0, 0.0, 0.0, 0.0, 1.7297057552389712E9, 0.0, 2024-10-23 23:19:15.238
40.0, -41281.682703695624, -49041.00138437765, -20594.22678878627, -17440.797977542636, -6648.504036486631, -8084.514210762288, -187500.02235174447, -187500.02235174447, -0.14200000000000002, 0.786, 0.558, 192.0, 0.0, 0.0, 0.0, 0.0, 0.0, 0.0, 0.0, 0.0, 0.0, 1.729705755242975E9, 0.0, 2024-10-23 23:19:15.242
41.0, -41260.3367877408, -48970.235761432144, -20600.50762897821, -17189.027927998057, -6644.234853295667, -8068.59976871011, -187500.02235174447, -187500.02235174447, -0.14200000000000002, 0.786, 0.558, 192.0, 0.0, 0.0, 0.0, 0.0, 0.0, 0.0, 0.0, 0.0, 0.0, 1.7297057552469745E9, 0.0, 2024-10-23 23:19:15.246
42.0, -41377.95166706463, -49198.000037431724, -20614.723338451786, -17663.376648828584, -6670.095821630457, -8118.466510589899, -187500.02235174447, -187500.02235174447, -0.14200000000000002, 0.786, 0.558, 192.0, 0.0, 0.0, 0.0, 0.0, 0.0, 0.0, 0.0, 0.0, 0.0, 1.729705755251992E9, 0.0, 2024-10-23 23:19:15.251
43.0, -41438.211970116135, -49368.20857145889, -20598.719489421786, -18141.83809063889, -6675.527295533097, -8141.80173180124, -187500.02235174447, -187500.02235174447, -0.14200000000000002, 0.786, 0.558, 192.0, 0.0, 0.0, 0.0, 0.0, 0.0, 0.0, 0.0, 0.0, 0.0, 1.72970575525603E9, 0.0, 2024-10-23 23:19:15.256
44.0, -41385.23833575706, -49298.35937003605, -20584.056745059104, -18053.05696166241, -6667.547722762552, -8124.613240315109, -187500.02235174447, -187500.02235174447, -0.13, 0.79, 0.556, 192.0, 251.0, 240.0, 24.0, 176.0, 17.0, 96.0, 0.0, 0.0, 0.0, 1.7297057552590132E9, 0.0, 2024-10-23 23:19:15.259
45.0, -41290.19871833309, -49051.193779849265, -20588.88472186145, -17453.918451537902, -6663.010318638125, -8075.707623446897, -187500.02235174447, -187500.02235174447, -0.13, 0.79, 0.556, 192.0, 0.0, 0.0, 0.0, 0.0, 0.0, 0.0, 0.0, 0.0, 0.0, 1.7297057552630732E9, 0.0, 2024-10-23 23:19:15.263
46.0, -41262.4378517196, -48968.559380597995, -20597.98188185476, -17189.139686720337, -6658.137638346868, -8054.585224936632, -187500.02235174447, -187500.02235174447, -0.13, 0.79, 0.556, 192.0, 0.0, 0.0, 0.0, 0.0, 0.0, 0.0, 0.0, 0.0, 0.0, 1.7297057552669992E9, 0.0, 2024-10-23 23:19:15.266
47.0, -41347.08390797185, -49173.882505164445, -20590.248178273225, -17625.512793721296, -6639.451579982231, -8085.564742751688, -187500.02235174447, -187500.02235174447, -0.13, 0.79, 0.556, 192.0, 0.0, 0.0, 0.0, 0.0, 0.0, 0.0, 0.0, 0.0, 0.0, 1.7297057552710285E9, 0.0, 2024-10-23 23:19:15.271
48.0, -41421.87284491931, -49354.37284164105, -20593.153905052415, -18109.38335768978, -6641.105609071924, -8111.4704145753885, -187500.02235174447, -187500.02235174447, -0.13, 0.79, 0.556, 192.0, 0.0, 0.0, 0.0, 0.0, 0.0, 0.0, 0.0, 0.0, 0.0, 1.729705755275066E9, 0.0, 2024-10-23 23:19:15.275
49.0, -41373.50366991803, -49285.06008208515, -20584.79435262613, -18023.016217114477, -6636.389390991854, -8086.794088696729, -187500.02235174447, -187500.02235174447, -0.13, 0.79, 0.556, 192.0, 0.0, 0.0, 0.0, 0.0, 0.0, 0.0, 0.0, 0.0, 0.0, 1.729705755279016E9, 0.0, 2024-10-23 23:19:15.279
50.0, -41256.96167432805, -49028.23853829367, -20580.16754152388, -17419.40735809891, -6615.959896559703, -8020.5435181312, -187500.02235174447, -187500.02235174447, -0.13, 0.79, 0.556, 192.0, 0.0, 0.0, 0.0, 0.0, 0.0, 0.0, 0.0, 0.0, 0.0, 1.729705755284031E9, 0.0, 2024-10-23 23:19:15.284
51.0, -41229.35726992575, -48943.34661285241, -20594.78558239765, -17147.96777343366, -6608.650876122818, -8000.114023699049, -187500.02235174447, -187500.02235174447, -0.13, 0.79, 0.556, 192.0, 0.0, 0.0, 0.0, 0.0, 0.0, 0.0, 0.0, 0.0, 0.0, 1.7297057552870452E9, 0.0, 2024-10-23 23:19:15.287
52.0, -41326.006212950495, -49163.176019570354, -20614.075137862583, -17596.38847069603, -6628.9239083437815, -8056.0604400706825, -187500.02235174447, -187500.02235174447, -0.13, 0.79, 0.556, 192.0, 0.0, 0.0, 0.0, 0.0, 0.0, 0.0, 0.0, 0.0, 0.0, 1.729705755291042E9, 0.0, 2024-10-23 23:19:15.291
53.0, -41412.23924305907, -49349.25429216079, -20628.916696180906, -18091.881941781277, -6649.55456847603, -8114.242030887846, -187500.02235174447, -187500.02235174447, -0.13, 0.79, 0.556, 192.0, 0.0, 0.0, 0.0, 0.0, 0.0, 0.0, 0.0, 0.0, 0.0, 1.7297057552951143E9, 0.0, 2024-10-23 23:19:15.295
54.0, -41366.44051867015, -49277.68400641489, -20623.932257167373, -18017.674150189658, -6647.341745774955, -8112.5880017981535, -187500.02235174447, -187500.02235174447, -0.128, 0.788, 0.5640000000000001, 192.0, 252.0, 0.0, 24.0, 160.0, 17.0, 160.0, 0.0, 0.0, 0.0, 1.7297057552990656E9, 0.0, 2024-10-23 23:19:15.299
55.0, -41260.9402848411, -49028.14913131585, -20625.295713579144, -17425.330570379563, -6632.813111879005, -8068.219789054369, -187500.02235174447, -187500.02235174447, -0.128, 0.788, 0.5640000000000001, 192.0, 0.0, 0.0, 0.0, 0.0, 0.0, 0.0, 0.0, 0.0, 0.0, 1.7297057553030393E9, 0.0, 2024-10-23 23:19:15.303
56.0, -41229.71489783703, -48938.92096745026, -20639.17614688589, -17153.220433380655, -6633.416608979298, -8060.419030239467, -187500.02235174447, -187500.02235174447, -0.128, 0.788, 0.5640000000000001, 192.0, 0.0, 0.0, 0.0, 0.0, 0.0, 0.0, 0.0, 0.0, 0.0, 1.729705755307079E9, 0.0, 2024-10-23 23:19:15.307
57.0, -41326.74382051752, -49157.2528072897, -20656.454045349845, -17599.361252708586, -6651.901501643837, -8103.3120278492015, -187500.02235174447, -187500.02235174447, -0.128, 0.788, 0.5640000000000001, 192.0, 0.0, 0.0, 0.0, 0.0, 0.0, 0.0, 0.0, 0.0, 0.0, 1.729705755312071E9, 0.0, 2024-10-23 23:19:15.312
58.0, -41402.33742026537, -49335.15034140949, -20661.930222741394, -18082.829485276878, -6672.956844920736, -8143.723981824396, -187500.02235174447, -187500.02235174447, -0.128, 0.788, 0.5640000000000001, 192.0, 0.0, 0.0, 0.0, 0.0, 0.0, 0.0, 0.0, 0.0, 0.0, 1.729705755315055E9, 0.0, 2024-10-23 23:19:15.315
59.0, -41378.68927463165, -49275.58294243609, -20669.149836200457, -18019.350531023807, -6673.158010620834, -8141.891138779061, -187500.02235174447, -187500.02235174447, -0.128, 0.788, 0.5640000000000001, 192.0, 0.0, 0.0, 0.0, 0.0, 0.0, 0.0, 0.0, 0.0, 0.0, 1.729705755319084E9, 0.0, 2024-10-23 23:19:15.319
60.0, -41274.485441981014, -49030.11608482791, -20667.451103621854, -17436.68525656286, -6655.254263312133, -8090.906809676506, -187500.02235174447, -187500.02235174447, -0.128, 0.788, 0.5640000000000001, 192.0, 0.0, 0.0, 0.0, 0.0, 0.0, 0.0, 0.0, 0.0, 0.0, 1.729705755323073E9, 0.0, 2024-10-23 23:19:15.323
61.0, -41244.0870695218, -48941.96080469618, -20669.395705389466, -17161.892910229315, -6640.1891875492565, -8062.542445962721, -187500.02235174447, -187500.02235174447, -0.128, 0.788, 0.5640000000000001, 192.0, 0.0, 0.0, 0.0, 0.0, 0.0, 0.0, 0.0, 0.0, 0.0, 1.7297057553270876E9, 0.0, 2024-10-23 23:19:15.327
62.0, -41345.07225097087, -49152.80481014309, -20681.42094390642, -17596.433174184942, -6646.067696341002, -8097.701739990919, -187500.02235174447, -187500.02235174447, -0.128, 0.788, 0.5640000000000001, 192.0, 0.0, 0.0, 0.0, 0.0, 0.0, 0.0, 0.0, 0.0, 0.0, 1.7297057553310792E9, 0.0, 2024-10-23 23:19:15.331
63.0, -41418.16245533973, -49329.83062622912, -20681.890330539984, -18075.364002628805, -6659.836370925471, -8125.931993237972, -187500.02235174447, -187500.02235174447, -0.128, 0.788, 0.5640000000000001, 192.0, 0.0, 0.0, 0.0, 0.0, 0.0, 0.0, 0.0, 0.0, 0.0, 1.72970575533513E9, 0.0, 2024-10-23 23:19:15.335
64.0, -41387.20528926913, -49274.621817424515, -20689.691089354885, -18013.293208276416, -6669.2241035967, -8117.684199533964, -187500.02235174447, -187500.02235174447, -0.136, 0.792, 0.562, 192.0, 251.0, 192.0, 24.0, 192.0, 17.0, 144.0, 0.0, 0.0, 0.0, 1.7297057553400974E9, 0.0, 2024-10-23 23:19:15.340
65.0, -41288.678799710135, -49035.03346860808, -20696.128391758015, -17436.908774007414, -6659.523446503097, -8069.963225121883, -187500.02235174447, -187500.02235174447, -0.136, 0.792, 0.562, 192.0, 0.0, 0.0, 0.0, 0.0, 0.0, 0.0, 0.0, 0.0, 0.0, 1.7297057553431745E9, 0.0, 2024-10-23 23:19:15.343
66.0, -41261.83435461931, -48952.64493854582, -20703.57152266163, -17165.96092772018, -6647.229987052678, -8041.867082341562, -187500.02235174447, -187500.02235174447, -0.136, 0.792, 0.562, 192.0, 0.0, 0.0, 0.0, 0.0, 0.0, 0.0, 0.0, 0.0, 0.0, 1.7297057553460999E9, 0.0, 2024-10-23 23:19:15.346
67.0, -41362.774832579475, -49172.54140049713, -20720.312979258655, -17606.916142334478, -6662.071545371002, -8091.3985480545225, -187500.02235174447, -187500.02235174447, -0.136, 0.792, 0.562, 192.0, 0.0, 0.0, 0.0, 0.0, 0.0, 0.0, 0.0, 0.0, 0.0, 1.729705755351148E9, 0.0, 2024-10-23 23:19:15.351
68.0, -41432.53462702449, -49349.008422971776, -20714.970912333836, -18089.28913942446, -6666.005452395136, -8115.963115210905, -187500.02235174447, -187500.02235174447, -0.136, 0.792, 0.562, 192.0, 0.0, 0.0, 0.0, 0.0, 0.0, 0.0, 0.0, 0.0, 0.0, 1.7297057553551123E9, 0.0, 2024-10-23 23:19:15.355
69.0, -41398.783492896975, -49296.19125082389, -20711.551095432176, -18032.605115485803, -6659.970481392203, -8109.07877791867, -187500.02235174447, -187500.02235174447, -0.136, 0.792, 0.562, 192.0, 0.0, 0.0, 0.0, 0.0, 0.0, 0.0, 0.0, 0.0, 0.0, 1.729705755359135E9, 0.0, 2024-10-23 23:19:15.359
70.0, -41297.86536668127, -49046.298747813555, -20709.51708668674, -17447.347038668042, -6648.347574275444, -8053.825265625152, -187500.02235174447, -187500.02235174447, -0.136, 0.792, 0.562, 192.0, 0.0, 0.0, 0.0, 0.0, 0.0, 0.0, 0.0, 0.0, 0.0, 1.729705755363145E9, 0.0, 2024-10-23 23:19:15.363
71.0, -41262.4378517196, -48959.3057583935, -20716.513182701252, -17172.48763710113, -6636.679963669773, -8029.551271146688, -187500.02235174447, -187500.02235174447, -0.136, 0.792, 0.562, 192.0, 0.0, 0.0, 0.0, 0.0, 0.0, 0.0, 0.0, 0.0, 0.0, 1.7297057553681495E9, 0.0, 2024-10-23 23:19:15.368
72.0, -41356.47164064308, -49169.6580254624, -20723.73279616032, -17600.903523076002, -6634.131864801868, -8065.850504142107, -187500.02235174447, -187500.02235174447, -0.136, 0.792, 0.562, 192.0, 0.0, 0.0, 0.0, 0.0, 0.0, 0.0, 0.0, 0.0, 0.0, 1.7297057553711655E9, 0.0, 2024-10-23 23:19:15.371
73.0, -41440.380089328304, -49351.78003928424, -20727.286723528712, -18085.824619033887, -6640.41270499381, -8094.416033555989, -187500.02235174447, -187500.02235174447, -0.136, 0.792, 0.562, 192.0, 0.0, 0.0, 0.0, 0.0, 0.0, 0.0, 0.0, 0.0, 0.0, 1.729705755374168E9, 0.0, 2024-10-23 23:19:15.374
74.0, -41394.51430970601, -49283.853087884556, -20715.775575134227, -18008.822859385356, -6624.3418007304435, -8075.93114089145, -187500.02235174447, -187500.02235174447, -0.14200000000000002, 0.796, 0.558, 192.0, 251.0, 144.0, 24.0, 224.0, 17.0, 112.0, 0.0, 0.0, 0.0, 1.7297057553792584E9, 0.0, 2024-10-23 23:19:15.379
75.0, -41295.00434339099, -49043.54948324555, -20719.977703091827, -17427.856317503014, -6618.30682972751, -8028.634849624021, -187500.02235174447, -187500.02235174447, -0.14200000000000002, 0.796, 0.558, 192.0, 0.0, 0.0, 0.0, 0.0, 0.0, 0.0, 0.0, 0.0, 0.0, 1.7297057553831866E9, 0.0, 2024-10-23 23:19:15.383
76.0, -41265.41063373216, -48950.96855771167, -20726.77263340624, -17151.655811268785, -6606.259239466101, -8010.06054998166, -187500.02235174447, -187500.02235174447, -0.14200000000000002, 0.796, 0.558, 192.0, 0.0, 0.0, 0.0, 0.0, 0.0, 0.0, 0.0, 0.0, 0.0, 1.7297057553871424E9, 0.0, 2024-10-23 23:19:15.387
77.0, -41361.456079656615, -49165.32178703807, -20742.64237196951, -17588.364194436574, -6624.408855963809, -8067.169257064969, -187500.02235174447, -187500.02235174447, -0.14200000000000002, 0.796, 0.558, 192.0, 0.0, 0.0, 0.0, 0.0, 0.0, 0.0, 0.0, 0.0, 0.0, 1.7297057553912177E9, 0.0, 2024-10-23 23:19:15.391
78.0, -41437.92139743822, -49350.57304508365, -20739.088444601115, -18083.321223654893, -6629.125074043879, -8111.269248875291, -187500.02235174447, -187500.02235174447, -0.14200000000000002, 0.796, 0.558, 192.0, 0.0, 0.0, 0.0, 0.0, 0.0, 0.0, 0.0, 0.0, 0.0, 1.7297057553952084E9, 0.0, 2024-10-23 23:19:15.395
79.0, -41396.45891147362, -49279.85212562706, -20723.91161011596, -18016.377749011248, -6623.425379207776, -8101.881516204062, -187500.02235174447, -187500.02235174447, -0.14200000000000002, 0.796, 0.558, 192.0, 0.0, 0.0, 0.0, 0.0, 0.0, 0.0, 0.0, 0.0, 0.0, 1.72970575539927E9, 0.0, 2024-10-23 23:19:15.399
80.0, -41293.7973491904, -49026.80802664853, -20721.72113915934, -17432.438425116354, -6614.238812236645, -8056.082791815137, -187500.02235174447, -187500.02235174447, -0.14200000000000002, 0.796, 0.558, 192.0, 0.0, 0.0, 0.0, 0.0, 0.0, 0.0, 0.0, 0.0, 0.0, 1.729705755402256E9, 0.0, 2024-10-23 23:19:15.402
81.0, -41264.96359884305, -48933.958880181184, -20739.446072512397, -17156.372029348855, -6621.793701862539, -8045.711582387875, -187500.02235174447, -187500.02235174447, -0.14200000000000002, 0.796, 0.558, 192.0, 0.0, 0.0, 0.0, 0.0, 0.0, 0.0, 0.0, 0.0, 0.0, 1.7297057554062212E9, 0.0, 2024-10-23 23:19:15.406
82.0, -41352.448326641126, -49132.5988331555, -20749.951392406394, -17574.439057640917, -6638.043420081547, -8083.508382261799, -187500.02235174447, -187500.02235174447, -0.14200000000000002, 0.796, 0.558, 192.0, 0.0, 0.0, 0.0, 0.0, 0.0, 0.0, 0.0, 0.0, 0.0, 1.7297057554112432E9, 0.0, 2024-10-23 23:19:15.411
83.0, -41430.72413572361, -49316.62074525604, -20756.96984016536, -18068.949051970132, -6646.31356553001, -8114.219679143391, -187500.02235174447, -187500.02235174447, -0.14200000000000002, 0.796, 0.558, 192.0, 0.0, 0.0, 0.0, 0.0, 0.0, 0.0, 0.0, 0.0, 0.0, 1.729705755415191E9, 0.0, 2024-10-23 23:19:15.415
84.0, -41396.548318451445, -49256.382793948986, -20761.373133823054, -18013.092042576318, -6643.005507350625, -8107.625914529075, -187500.02235174447, -187500.02235174447, -0.134, 0.8, 0.558, 192.0, 251.0, 208.0, 25.0, 0.0, 17.0, 112.0, 0.0, 0.0, 0.0, 1.729705755419183E9, 0.0, 2024-10-23 23:19:15.419
85.0, -41296.367799802756, -49016.61563117691, -20776.68407877494, -17434.092454206046, -6626.8675478538935, -8058.4073732384895, -187500.02235174447, -187500.02235174447, -0.134, 0.8, 0.558, 192.0, 0.0, 0.0, 0.0, 0.0, 0.0, 0.0, 0.0, 0.0, 0.0, 1.729705755423218E9, 0.0, 2024-10-23 23:19:15.423
86.0, -41276.00536060397, -48934.58472902593, -20805.227256444367, -17166.36325912038, -6631.047324067035, -8044.68340214293, -187500.02235174447, -187500.02235174447, -0.134, 0.8, 0.558, 192.0, 0.0, 0.0, 0.0, 0.0, 0.0, 0.0, 0.0, 0.0, 0.0, 1.729705755427255E9, 0.0, 2024-10-23 23:19:15.427
87.0, -41354.549390619926, -49132.91175757787, -20809.58584661315, -17575.556644863682, -6626.152292031324, -8073.383042023545, -187500.02235174447, -187500.02235174447, -0.134, 0.8, 0.558, 192.0, 0.0, 0.0, 0.0, 0.0, 0.0, 0.0, 0.0, 0.0, 0.0, 1.7297057554303195E9, 0.0, 2024-10-23 23:19:15.430
88.0, -41423.526874009, -49322.90158544798, -20816.85016356113, -18069.373735114783, -6644.637184695863, -8113.593830298642, -187500.02235174447, -187500.02235174447, -0.134, 0.8, 0.558, 192.0, 0.0, 0.0, 0.0, 0.0, 0.0, 0.0, 0.0, 0.0, 0.0, 1.7297057554342172E9, 0.0, 2024-10-23 23:19:15.434
89.0, -41390.96038233762, -49269.4809161998, -20817.69952985043, -18022.010388613988, -6643.541949217552, -8099.467527802888, -187500.02235174447, -187500.02235174447, -0.134, 0.8, 0.558, 192.0, 0.0, 0.0, 0.0, 0.0, 0.0, 0.0, 0.0, 0.0, 0.0, 1.7297057554392729E9, 0.0, 2024-10-23 23:19:15.439
90.0, -41284.38726477471, -49026.025715592594, -20818.660654862008, -17443.949573510836, -6630.779103133572, -8048.930233589439, -187500.02235174447, -187500.02235174447, -0.134, 0.8, 0.558, 192.0, 0.0, 0.0, 0.0, 0.0, 0.0, 0.0, 0.0, 0.0, 0.0, 1.7297057554432776E9, 0.0, 2024-10-23 23:19:15.443
91.0, -41260.3367877408, -48941.82669422945, -20833.368102713597, -17161.4011718513, -6625.012353064103, -8035.407428193978, -187500.02235174447, -187500.02235174447, -0.134, 0.8, 0.558, 192.0, 0.0, 0.0, 0.0, 0.0, 0.0, 0.0, 0.0, 0.0, 0.0, 1.7297057554472368E9, 0.0, 2024-10-23 23:19:15.447
92.0, -41363.73595759105, -49160.0020718577, -20853.50702446783, -17584.564397879174, -6640.859739882915, -8079.350957793112, -187500.02235174447, -187500.02235174447, -0.134, 0.8, 0.558, 192.0, 0.0, 0.0, 0.0, 0.0, 0.0, 0.0, 0.0, 0.0, 0.0, 1.729705755451233E9, 0.0, 2024-10-23 23:19:15.451
93.0, -41443.039946918485, -49352.83057127364, -20857.68680068097, -18090.205560947128, -6648.347574275444, -8127.22839441638, -187500.02235174447, -187500.02235174447, -0.134, 0.8, 0.558, 192.0, 0.0, 0.0, 0.0, 0.0, 0.0, 0.0, 0.0, 0.0, 0.0, 1.7297057554552844E9, 0.0, 2024-10-23 23:19:15.455
94.0, -41385.081873545874, -49283.853087884556, -20836.40793995952, -18026.480737505048, -6626.196995520234, -8094.3936818115335, -187500.02235174447, -187500.02235174447, -0.136, 0.794, 0.56, 192.0, 251.0, 192.0, 24.0, 208.0, 17.0, 128.0, 0.0, 0.0, 0.0, 1.729705755458306E9, 0.0, 2024-10-23 23:19:15.458
95.0, -41282.08503509582, -49033.37943951839, -20836.36323647061, -17437.86989901899, -6609.053207523014, -8031.182948491925, -187500.02235174447, -187500.02235174447, -0.136, 0.794, 0.56, 192.0, 0.0, 0.0, 0.0, 0.0, 0.0, 0.0, 0.0, 0.0, 0.0, 1.7297057554622834E9, 0.0, 2024-10-23 23:19:15.462
96.0, -41259.77799412942, -48947.7052030212, -20856.65862043603, -17156.036753182027, -6603.889954553838, -8018.107177985571, -187500.02235174447, -187500.02235174447, -0.136, 0.794, 0.56, 192.0, 0.0, 0.0, 0.0, 0.0, 0.0, 0.0, 0.0, 0.0, 0.0, 1.729705755467275E9, 0.0, 2024-10-23 23:19:15.467
97.0, -41341.540675346936, -49151.46370547578, -20865.97929787389, -17562.592633079606, -6610.8413470794385, -8053.668803413964, -187500.02235174447, -187500.02235174447, -0.136, 0.794, 0.56, 192.0, 0.0, 0.0, 0.0, 0.0, 0.0, 0.0, 0.0, 0.0, 0.0, 1.7297057554713144E9, 0.0, 2024-10-23 23:19:15.471
98.0, -41422.6775077197, -49348.583739827125, -20876.998707890358, -18071.81007526041, -6630.443826966743, -8096.807670212707, -187500.02235174447, -187500.02235174447, -0.136, 0.794, 0.56, 192.0, 0.0, 0.0, 0.0, 0.0, 0.0, 0.0, 0.0, 0.0, 0.0, 1.729705755475345E9, 0.0, 2024-10-23 23:19:15.475
99.0, -41398.82819638589, -49301.84624217108, -20877.28928056828, -18033.007446885997, -6629.370943232888, -8086.88349567455, -187500.02235174447, -187500.02235174447, -0.136, 0.794, 0.56, 192.0, 0.0, 0.0, 0.0, 0.0, 0.0, 0.0, 0.0, 0.0, 0.0, 1.7297057554793348E9, 0.0, 2024-10-23 23:19:15.479
100.0, -41304.50383478449, -49054.39007930638, -20871.209606076434, -17453.94080328236, -6611.131919757357, -8033.194605492903, -187500.02235174447, -187500.02235174447, -0.136, 0.794, 0.56, 192.0, 0.0, 0.0, 0.0, 0.0, 0.0, 0.0, 0.0, 0.0, 0.0, 1.729705755483318E9, 0.0, 2024-10-23 23:19:15.483
101.0, -41268.49517446699, -48953.49430483512, -20866.828664163193, -17152.30401185799, -6587.595532845919, -8003.824413278629, -187500.02235174447, -187500.02235174447, -0.136, 0.794, 0.56, 192.0, 0.0, 0.0, 0.0, 0.0, 0.0, 0.0, 0.0, 0.0, 0.0, 1.7297057554863553E9, 0.0, 2024-10-23 23:19:15.486
102.0, -41360.80787906741, -49162.81839165907, -20874.56236774473, -17570.639261083517, -6596.647989350318, -8052.0147743242715, -187500.02235174447, -187500.02235174447, -0.136, 0.794, 0.56, 192.0, 0.0, 0.0, 0.0, 0.0, 0.0, 0.0, 0.0, 0.0, 0.0, 1.7297057554903111E9, 0.0, 2024-10-23 23:19:15.490
103.0, -41437.76493522703, -49352.361184640074, -20878.69744046896, -18078.29208115245, -6614.797605848027, -8100.898039448028, -187500.02235174447, -187500.02235174447, -0.136, 0.794, 0.56, 192.0, 0.0, 0.0, 0.0, 0.0, 0.0, 0.0, 0.0, 0.0, 0.0, 1.7297057554953177E9, 0.0, 2024-10-23 23:19:15.495
104.0, -41398.783492896975, -49293.17376532242, -20874.919995656015, -18034.52736550896, -6615.7140273706955, -8100.249838858824, -187500.02235174447, -187500.02235174447, -0.136, 0.794, 0.56, 192.0, 0.0, 0.0, 0.0, 0.0, 0.0, 0.0, 0.0, 0.0, 0.0, 1.729705755499322E9, 0.0, 2024-10-23 23:19:15.499
105.0, -41305.71082898508, -49038.118009342914, -20895.975338932913, -17457.78530332867, -6621.301963484521, -8062.78831515173, -187500.02235174447, -187500.02235174447, -0.132, 0.794, 0.556, 192.0, 251.0, 224.0, 24.0, 208.0, 17.0, 96.0, 0.0, 0.0, 0.0, 1.7297057555033565E9, 0.0, 2024-10-23 23:19:15.503
106.0, -41279.06754959435, -48942.139618651825, -20918.12591768812, -17167.860825998883, -6618.373884960876, -8039.16252126247, -187500.02235174447, -187500.02235174447, -0.132, 0.794, 0.556, 192.0, 0.0, 0.0, 0.0, 0.0, 0.0, 0.0, 0.0, 0.0, 0.0, 1.72970575550735E9, 0.0, 2024-10-23 23:19:15.507
107.0, -41372.67665537318, -49133.67171688935, -20944.18805172301, -17565.654822069984, -6637.104646814424, -8094.103109133614, -187500.02235174447, -187500.02235174447, -0.132, 0.794, 0.556, 192.0, 0.0, 0.0, 0.0, 0.0, 0.0, 0.0, 0.0, 0.0, 0.0, 1.7297057555113916E9, 0.0, 2024-10-23 23:19:15.511
108.0, -41441.11769689533, -49314.36321906605, -20953.061694271768, -18069.127865925773, -6652.9296818887815, -8135.789112542762, -187500.02235174447, -187500.02235174447, -0.132, 0.794, 0.556, 192.0, 0.0, 0.0, 0.0, 0.0, 0.0, 0.0, 0.0, 0.0, 0.0, 1.7297057555153697E9, 0.0, 2024-10-23 23:19:15.515
109.0, -41414.25090006005, -49266.5304859317, -20957.599098396196, -18032.94039165263, -6653.197902822245, -8141.309993423223, -187500.02235174447, -187500.02235174447, -0.132, 0.794, 0.556, 192.0, 0.0, 0.0, 0.0, 0.0, 0.0, 0.0, 0.0, 0.0, 0.0, 1.729705755519369E9, 0.0, 2024-10-23 23:19:15.519
110.0, -41313.846863966806, -49020.638945178864, -20961.95768856498, -17453.2702509487, -6650.783914421072, -8088.64928348652, -187500.02235174447, -187500.02235174447, -0.132, 0.794, 0.556, 192.0, 0.0, 0.0, 0.0, 0.0, 0.0, 0.0, 0.0, 0.0, 0.0, 1.729705755522524E9, 0.0, 2024-10-23 23:19:15.522
111.0, -41291.182195089124, -48938.00454592759, -20979.77202889586, -17169.224282410658, -6656.237740068167, -8074.388870524034, -187500.02235174447, -187500.02235174447, -0.132, 0.794, 0.556, 192.0, 0.0, 0.0, 0.0, 0.0, 0.0, 0.0, 0.0, 0.0, 0.0, 1.7297057555265183E9, 0.0, 2024-10-23 23:19:15.526
112.0, -41388.83696661436, -49144.311147250075, -20989.07035458927, -17575.15431346349, -6668.84412394096, -8117.438330344955, -187500.02235174447, -187500.02235174447, -0.132, 0.794, 0.556, 192.0, 0.0, 0.0, 0.0, 0.0, 0.0, 0.0, 0.0, 0.0, 0.0, 1.729705755530554E9, 0.0, 2024-10-23 23:19:15.530
113.0, -41446.54917079797, -49322.3427918366, -20966.91977583406, -18070.692488037646, -6674.029728654591, -8142.360525412622, -187500.02235174447, -187500.02235174447, -0.132, 0.794, 0.556, 192.0, 0.0, 0.0, 0.0, 0.0, 0.0, 0.0, 0.0, 0.0, 0.0, 1.7297057555345147E9, 0.0, 2024-10-23 23:19:15.534
114.0, -41415.68141170519, -49272.811326123636, -20949.79833958129, -18023.642065959226, -6671.615740253418, -8126.982525227371, -187500.02235174447, -187500.02235174447, -0.132, 0.794, 0.556, 192.0, 0.0, 0.0, 0.0, 0.0, 0.0, 0.0, 0.0, 0.0, 0.0, 1.7297057555393898E9, 0.0, 2024-10-23 23:19:15.539
115.0, -41316.506721556994, -49028.32794527149, -20937.95191501998, -17441.669695576395, -6648.772257420094, -8071.840771656129, -187500.02235174447, -187500.02235174447, -0.122, 0.796, 0.558, 192.0, 252.0, 48.0, 24.0, 224.0, 17.0, 112.0, 0.0, 0.0, 0.0, 1.7297057555433795E9, 0.0, 2024-10-23 23:19:15.543
116.0, -41286.93536364262, -48932.93069993624, -20940.94704877699, -17138.96002041817, -6643.474893984187, -8052.64062316902, -187500.02235174447, -187500.02235174447, -0.122, 0.796, 0.558, 192.0, 0.0, 0.0, 0.0, 0.0, 0.0, 0.0, 0.0, 0.0, 0.0, 1.7297057555473971E9, 0.0, 2024-10-23 23:19:15.547
117.0, -41378.644571142744, -49146.278100762145, -20939.918868532048, -17540.129129902023, -6643.474893984187, -8091.465603287888, -187500.02235174447, -187500.02235174447, -0.122, 0.796, 0.558, 192.0, 0.0, 0.0, 0.0, 0.0, 0.0, 0.0, 0.0, 0.0, 0.0, 1.7297057555503976E9, 0.0, 2024-10-23 23:19:15.550
118.0, -41444.716327752634, -49342.72758277984, -20922.28334215681, -18053.258127362507, -6649.711030687217, -8126.043751960248, -187500.02235174447, -187500.02235174447, -0.122, 0.796, 0.558, 192.0, 0.0, 0.0, 0.0, 0.0, 0.0, 0.0, 0.0, 0.0, 0.0, 1.7297057555544932E9, 0.0, 2024-10-23 23:19:15.554
119.0, -41423.01278388653, -49302.80736718266, -20910.861600740147, -18031.062845118387, -6657.623548224396, -8119.2264699013795, -187500.02235174447, -187500.02235174447, -0.122, 0.796, 0.558, 192.0, 0.0, 0.0, 0.0, 0.0, 0.0, 0.0, 0.0, 0.0, 0.0, 1.7297057555584245E9, 0.0, 2024-10-23 23:19:15.558
120.0, -41322.25111988201, -49065.96828293423, -20902.300882613767, -17452.040905003658, -6638.445751481742, -8060.195512794914, -187500.02235174447, -187500.02235174447, -0.122, 0.796, 0.558, 192.0, 0.0, 0.0, 0.0, 0.0, 0.0, 0.0, 0.0, 0.0, 0.0, 1.7297057555633552E9, 0.0, 2024-10-23 23:19:15.563
121.0, -41297.26186958097, -48973.54381961153, -20905.497182070874, -17155.612070037376, -6628.543928688041, -8026.7125996008635, -187500.02235174447, -187500.02235174447, -0.122, 0.796, 0.558, 192.0, 0.0, 0.0, 0.0, 0.0, 0.0, 0.0, 0.0, 0.0, 0.0, 1.7297057555674403E9, 0.0, 2024-10-23 23:19:15.567
122.0, -41378.778681609474, -49165.701766693805, -20896.914112200036, -17547.326391616632, -6628.0968937989355, -8062.743611662819, -187500.02235174447, -187500.02235174447, -0.122, 0.796, 0.558, 192.0, 0.0, 0.0, 0.0, 0.0, 0.0, 0.0, 0.0, 0.0, 0.0, 1.7297057555715084E9, 0.0, 2024-10-23 23:19:15.571
123.0, -41452.71825226763, -49361.167771955465, -20885.626481250107, -18061.05888617741, -6632.701353156728, -8093.991350411338, -187500.02235174447, -187500.02235174447, -0.122, 0.796, 0.558, 192.0, 0.0, 0.0, 0.0, 0.0, 0.0, 0.0, 0.0, 0.0, 0.0, 1.729705755575547E9, 0.0, 2024-10-23 23:19:15.575
124.0, -41428.287795577984, -49321.62753601403, -20879.859731180637, -18031.621638729768, -6622.2854402405555, -8086.972902652372, -187500.02235174447, -187500.02235174447, -0.122, 0.796, 0.558, 192.0, 0.0, 0.0, 0.0, 0.0, 0.0, 0.0, 0.0, 0.0, 0.0, 1.7297057555784771E9, 0.0, 2024-10-23 23:19:15.578
125.0, -41336.93621598914, -49080.832192997004, -20891.974376675415, -17458.88053880698, -6619.603230905918, -8051.008945823783, -187500.02235174447, -187500.02235174447, -0.13, 0.794, 0.55, 192.0, 251.0, 240.0, 24.0, 208.0, 17.0, 48.0, 0.0, 0.0, 0.0, 1.7297057555826144E9, 0.0, 2024-10-23 23:19:15.582
126.0, -41308.683610997636, -48973.90144752282, -20917.120089187632, -17156.573195048953, -6620.363190217399, -8033.68634387092, -187500.02235174447, -187500.02235174447, -0.13, 0.794, 0.55, 192.0, 0.0, 0.0, 0.0, 0.0, 0.0, 0.0, 0.0, 0.0, 0.0, 1.7297057555866208E9, 0.0, 2024-10-23 23:19:15.586
127.0, -41411.635745958774, -49179.358682556, -20955.274516972844, -17557.071752199146, -6641.351478260932, -8084.693024717931, -187500.02235174447, -187500.02235174447, -0.13, 0.794, 0.55, 192.0, 0.0, 0.0, 0.0, 0.0, 0.0, 0.0, 0.0, 0.0, 0.0, 1.7297057555905116E9, 0.0, 2024-10-23 23:19:15.590
128.0, -41489.28570619651, -49371.0025395158, -20971.457179958485, -18083.634148077268, -6645.2183300517, -8128.345981639145, -187500.02235174447, -187500.02235174447, -0.13, 0.794, 0.55, 192.0, 0.0, 0.0, 0.0, 0.0, 0.0, 0.0, 0.0, 0.0, 0.0, 1.7297057555954783E9, 0.0, 2024-10-23 23:19:15.595
129.0, -41457.725043025624, -49317.15718712297, -20979.928491107046, -18064.34459261234, -6637.1940537922455, -8122.735693780863, -187500.02235174447, -187500.02235174447, -0.13, 0.794, 0.55, 192.0, 0.0, 0.0, 0.0, 0.0, 0.0, 0.0, 0.0, 0.0, 0.0, 1.729705755599593E9, 0.0, 2024-10-23 23:19:15.599
130.0, -41351.42014639618, -49060.53680903159, -20994.077145347255, -17476.404306459943, -6630.622640922385, -8068.845637899118, -187500.02235174447, -187500.02235174447, -0.13, 0.794, 0.55, 192.0, 0.0, 0.0, 0.0, 0.0, 0.0, 0.0, 0.0, 0.0, 0.0, 1.7297057556036897E9, 0.0, 2024-10-23 23:19:15.603
131.0, -41318.22780588005, -48956.623549058866, -21025.43664281805, -17172.711154545683, -6643.720763173194, -8059.971995350361, -187500.02235174447, -187500.02235174447, -0.13, 0.794, 0.55, 192.0, 0.0, 0.0, 0.0, 0.0, 0.0, 0.0, 0.0, 0.0, 0.0, 1.7297057556066277E9, 0.0, 2024-10-23 23:19:15.606
132.0, -41398.60467894133, -49142.232435015736, -21036.83603249026, -17557.27291789924, -6659.903426158837, -8116.5219088222875, -187500.02235174447, -187500.02235174447, -0.13, 0.794, 0.55, 192.0, 0.0, 0.0, 0.0, 0.0, 0.0, 0.0, 0.0, 0.0, 0.0, 1.729705755610572E9, 0.0, 2024-10-23 23:19:15.610
133.0, -41477.72985431312, -49345.74506828131, -21038.60182030223, -18090.47378188059, -6677.985987423181, -8168.4673629364215, -187500.02235174447, -187500.02235174447, -0.13, 0.794, 0.55, 192.0, 0.0, 0.0, 0.0, 0.0, 0.0, 0.0, 0.0, 0.0, 0.0, 1.729705755614588E9, 0.0, 2024-10-23 23:19:15.614
134.0, -41447.95733069865, -49309.33407656361, -21026.218953873988, -18079.923758497687, -6675.03555715508, -8166.52276116881, -187500.02235174447, -187500.02235174447, -0.13, 0.794, 0.55, 192.0, 0.0, 0.0, 0.0, 0.0, 0.0, 0.0, 0.0, 0.0, 0.0, 1.729705755618562E9, 0.0, 2024-10-23 23:19:15.618
135.0, -41349.90022777322, -49066.0800416565, -21015.937151424547, -17496.632635191996, -6667.167743106812, -8127.27309790529, -187500.02235174447, -187500.02235174447, -0.136, 0.796, 0.552, 192.0, 251.0, 192.0, 24.0, 224.0, 17.0, 64.0, 0.0, 0.0, 0.0, 1.7297057556237333E9, 0.0, 2024-10-23 23:19:15.623
136.0, -41299.07236088185, -48953.42724960176, -21000.693261706027, -17175.572177835962, -6652.683812699773, -8097.165298123992, -187500.02235174447, -187500.02235174447, -0.136, 0.796, 0.552, 192.0, 0.0, 0.0, 0.0, 0.0, 0.0, 0.0, 0.0, 0.0, 0.0, 1.7297057556275196E9, 0.0, 2024-10-23 23:19:15.627
137.0, -41378.08577753136, -49150.256711275186, -20991.618453457173, -17559.91042374497, -6652.817923166504, -8126.759007782818, -187500.02235174447, -187500.02235174447, -0.136, 0.796, 0.552, 192.0, 0.0, 0.0, 0.0, 0.0, 0.0, 0.0, 0.0, 0.0, 0.0, 1.7297057556316428E9, 0.0, 2024-10-23 23:19:15.631
138.0, -41465.52580184052, -49354.64106257452, -20980.62139518516, -18092.172514459195, -6664.5525890055405, -8162.477095422399, -187500.02235174447, -187500.02235174447, -0.136, 0.796, 0.552, 192.0, 0.0, 0.0, 0.0, 0.0, 0.0, 0.0, 0.0, 0.0, 0.0, 1.7297057556347759E9, 0.0, 2024-10-23 23:19:15.634
139.0, -41437.228493360104, -49317.403056311974, -20963.790531610317, -18077.755639285522, -6659.635205225373, -8145.623880103098, -187500.02235174447, -187500.02235174447, -0.136, 0.796, 0.552, 192.0, 0.0, 0.0, 0.0, 0.0, 0.0, 0.0, 0.0, 0.0, 0.0, 1.7297057556386425E9, 0.0, 2024-10-23 23:19:15.638
140.0, -41327.77200076247, -49068.20345737976, -20946.847909313194, -17489.524780455205, -6643.296080028544, -8088.31400731969, -187500.02235174447, -187500.02235174447, -0.136, 0.796, 0.552, 192.0, 0.0, 0.0, 0.0, 0.0, 0.0, 0.0, 0.0, 0.0, 0.0, 1.7297057556427565E9, 0.0, 2024-10-23 23:19:15.642
141.0, -41285.9965903755, -48961.69739505022, -20945.462101156965, -17161.87055848486, -6631.024972322581, -8059.2343877833355, -187500.02235174447, -187500.02235174447, -0.136, 0.796, 0.552, 192.0, 0.0, 0.0, 0.0, 0.0, 0.0, 0.0, 0.0, 0.0, 0.0, 1.729705755646642E9, 0.0, 2024-10-23 23:19:15.646
142.0, -41381.930277577674, -49164.56182772658, -20956.257993728876, -17548.488682328305, -6650.828617909982, -8094.639551000542, -187500.02235174447, -187500.02235174447, -0.136, 0.796, 0.552, 192.0, 0.0, 0.0, 0.0, 0.0, 0.0, 0.0, 0.0, 0.0, 0.0, 1.7297057556506336E9, 0.0, 2024-10-23 23:19:15.650
143.0, -41455.758089513554, -49363.53705686773, -20939.51653713185, -18075.319299139894, -6650.180417320778, -8121.886327491561, -187500.02235174447, -187500.02235174447, -0.136, 0.796, 0.552, 192.0, 0.0, 0.0, 0.0, 0.0, 0.0, 0.0, 0.0, 0.0, 0.0, 1.7297057556557856E9, 0.0, 2024-10-23 23:19:15.655
144.0, -41413.06625760392, -49311.99393415379, -20911.889780985093, -18053.23577561805, -6628.45452171022, -8100.406301070011, -187500.02235174447, -187500.02235174447, -0.136, 0.796, 0.552, 192.0, 0.0, 0.0, 0.0, 0.0, 0.0, 0.0, 0.0, 0.0, 0.0, 1.7297057556599557E9, 0.0, 2024-10-23 23:19:15.659
145.0, -41306.001401662994, -49065.61065502294, -20906.503010571363, -17463.775570842692, -6605.16400398779, -8041.665916641465, -187500.02235174447, -187500.02235174447, -0.13, 0.794, 0.556, 192.0, 251.0, 240.0, 24.0, 208.0, 17.0, 96.0, 0.0, 0.0, 0.0, 1.7297057556637375E9, 0.0, 2024-10-23 23:19:15.663
