%OpenBCI Raw EXG Data
%Number of channels = 8
%Sample Rate = 250 Hz
%Board = OpenBCI_GUI$BoardCytonSerial
Sample Index, EXG Channel 0, EXG Channel 1, EXG Channel 2, EXG Channel 3, EXG Channel 4, EXG Channel 5, EXG Channel 6, EXG Channel 7, Accel Channel 0, Accel Channel 1, Accel Channel 2, Other, Other, Other, Other, Other, Other, Other, Analog Channel 0, Analog Channel 1, Analog Channel 2, Timestamp, Other, Timestamp (Formatted)
0.0, 0.0, 0.0, 0.0, 0.0, 0.0, 0.0, 0.0, 0.0, 0.14, 0.968, 0.098, 192.0, 4.0, 96.0, 30.0, 64.0, 3.0, 16.0, 0.0, 0.0, 0.0, 1.7297114261035993E9, 0.0, 2024-10-24 00:53:46.103
1.0, -43747.14717234936, -45999.59951634402, -38159.054596311405, -50825.274089011444, -50920.8725000468, -42455.05988062142, 64064.25703337873, 81998.62623198345, 0.14, 0.968, 0.098, 192.0, 0.0, 0.0, 0.0, 0.0, 0.0, 0.0, 0.0, 0.0, 0.0, 1.7297114261385427E9, 0.0, 2024-10-24 00:53:46.138
2.0, -43751.95279740725, -46006.4615018918, -38177.49478548703, -50840.36151651878, -50943.783038113485, -42474.17062213071, 64148.47840648633, 82076.85733757704, 0.14, 0.968, 0.098, 192.0, 0.0, 0.0, 0.0, 0.0, 0.0, 0.0, 0.0, 0.0, 0.0, 1.7297114261385756E9, 0.0, 2024-10-24 00:53:46.138
3.0, -43759.37357656641, -46016.47508340777, -38193.297468816934, -50849.190455578624, -50960.30097726596, -42482.9772094461, 64265.847416621145, 82213.2029787544, 0.14, 0.968, 0.098, 192.0, 0.0, 0.0, 0.0, 0.0, 0.0, 0.0, 0.0, 0.0, 0.0, 1.7297114261385903E9, 0.0, 2024-10-24 00:53:46.138
4.0, -43775.422129085324, -46023.82880733357, -38206.2167771121, -50849.21280732308, -50967.4311837472, -42483.11131991283, 64274.63165219208, 82229.11742080658, 0.14, 0.968, 0.098, 192.0, 0.0, 0.0, 0.0, 0.0, 0.0, 0.0, 0.0, 0.0, 0.0, 1.729711426138604E9, 0.0, 2024-10-24 00:53:46.138
5.0, -43768.42603307081, -46006.61796410298, -38198.86305318631, -50830.90672861418, -50955.540055696976, -42465.45344179314, 64187.50455230529, 82108.03802109219, 0.14, 0.968, 0.098, 192.0, 0.0, 0.0, 0.0, 0.0, 0.0, 0.0, 0.0, 0.0, 0.0, 1.7297114261386182E9, 0.0, 2024-10-24 00:53:46.138
6.0, -43751.37165205141, -45988.78127202765, -38188.491843759046, -50816.333391229324, -50945.72763988109, -42454.79165968796, 64123.37739746302, 82004.03535414164, 0.14, 0.968, 0.098, 192.0, 0.0, 0.0, 0.0, 0.0, 0.0, 0.0, 0.0, 0.0, 0.0, 1.7297114261386333E9, 0.0, 2024-10-24 00:53:46.138
7.0, -43748.19770433876, -45991.99992322921, -38199.600660753335, -50828.515091957466, -50965.21836104612, -42476.36109308733, 64225.90484927951, 82100.25961402174, 0.14, 0.968, 0.098, 192.0, 0.0, 0.0, 0.0, 0.0, 0.0, 0.0, 0.0, 0.0, 0.0, 1.7297114261404717E9, 0.0, 2024-10-24 00:53:46.140
8.0, -43753.13743986338, -46000.985324500245, -38207.73669573506, -50840.29446128541, -50978.00355887456, -42491.85085199486, 64351.968688007444, 82245.32243553668, 0.146, 0.964, 0.124, 192.0, 4.0, 144.0, 30.0, 32.0, 3.0, 224.0, 0.0, 0.0, 0.0, 1.72971142614975E9, 0.0, 2024-10-24 00:53:46.149
9.0, -43772.53875405058, -46001.81233904509, -38206.2167771121, -50836.740533917015, -50978.83057341941, -42491.537927572484, 64336.34481863318, 82239.1086505781, 0.146, 0.964, 0.124, 192.0, 0.0, 0.0, 0.0, 0.0, 0.0, 0.0, 0.0, 0.0, 0.0, 1.7297114261497753E9, 0.0, 2024-10-24 00:53:46.149
10.0, -43774.013969184634, -45993.69865580781, -38187.55307049192, -50826.72695240104, -50948.20868351564, -42481.30082861195, 64232.58802087165, 82099.83493087708, 0.146, 0.964, 0.124, 192.0, 0.0, 0.0, 0.0, 0.0, 0.0, 0.0, 0.0, 0.0, 0.0, 1.7297114261535938E9, 0.0, 2024-10-24 00:53:46.153
11.0, -43760.33470157799, -45979.63940854543, -38169.604619694306, -50814.63465865072, -50929.43321817317, -42462.74888071405, 64160.056610114174, 81987.47271150026, 0.146, 0.964, 0.124, 192.0, 0.0, 0.0, 0.0, 0.0, 0.0, 0.0, 0.0, 0.0, 0.0, 1.7297114261575944E9, 0.0, 2024-10-24 00:53:46.157
12.0, -43745.783715937585, -45972.531553808636, -38170.6104481948, -50818.635620908215, -50949.39332597177, -42470.706101740136, 64250.82704434718, 82069.59302062905, 0.146, 0.964, 0.124, 192.0, 0.0, 0.0, 0.0, 0.0, 0.0, 0.0, 0.0, 0.0, 0.0, 1.7297114261616714E9, 0.0, 2024-10-24 00:53:46.161
13.0, -43755.81964919802, -45988.22247841627, -38188.53654724795, -50841.61321420827, -50975.030776862004, -42500.210404421145, 64390.212522770475, 82226.68108066096, 0.146, 0.964, 0.124, 192.0, 0.0, 0.0, 0.0, 0.0, 0.0, 0.0, 0.0, 0.0, 0.0, 1.729711426164885E9, 0.0, 2024-10-24 00:53:46.164
14.0, -43768.09075690398, -45996.67143782037, -38191.12934960477, -50846.262377054976, -50968.77228841452, -42500.92566024371, 64411.49138349192, 82254.2184298299, 0.146, 0.964, 0.124, 192.0, 0.0, 0.0, 0.0, 0.0, 0.0, 0.0, 0.0, 0.0, 0.0, 1.7297114261684964E9, 0.0, 2024-10-24 00:53:46.168
15.0, -43743.30267230304, -45981.71812077977, -38174.79022440794, -50833.253661781986, -50950.645023661265, -42484.00538969105, 64297.74335595887, 82102.74065765628, 0.146, 0.964, 0.124, 192.0, 0.0, 0.0, 0.0, 0.0, 0.0, 0.0, 0.0, 0.0, 0.0, 1.7297114261725159E9, 0.0, 2024-10-24 00:53:46.172
16.0, -43714.62538416689, -45968.73175725124, -38164.776642891964, -50828.62685067974, -50935.98227929858, -42481.546697800964, 64224.89902077902, 81987.62917371145, 0.146, 0.964, 0.124, 192.0, 0.0, 0.0, 0.0, 0.0, 0.0, 0.0, 0.0, 0.0, 0.0, 1.7297114261817446E9, 0.0, 2024-10-24 00:53:46.181
17.0, -43713.66425915531, -45975.102004421, -38177.24891629803, -50848.40814452269, -50955.40594523024, -42508.234680680594, 64313.74720498887, 82070.2188694738, 0.146, 0.964, 0.124, 192.0, 0.0, 0.0, 0.0, 0.0, 0.0, 0.0, 0.0, 0.0, 0.0, 1.7297114261817803E9, 0.0, 2024-10-24 00:53:46.181
18.0, -43726.628270939385, -45987.976609227255, -38196.42671304068, -50866.44600229812, -50980.01521587554, -42526.47370415613, 64455.8148927468, 82229.96678709588, 0.148, 0.96, 0.13, 192.0, 4.0, 160.0, 30.0, 0.0, 4.0, 16.0, 0.0, 0.0, 0.0, 1.7297114261855228E9, 0.0, 2024-10-24 00:53:46.185
19.0, -43738.22882631169, -45992.24579241822, -38200.360620064814, -50858.33231906084, -50983.32327405492, -42505.46306436814, 64485.90034078364, 82266.44483404694, 0.148, 0.96, 0.13, 192.0, 0.0, 0.0, 0.0, 0.0, 0.0, 0.0, 0.0, 0.0, 0.0, 1.7297114261885788E9, 0.0, 2024-10-24 00:53:46.188
20.0, -43721.77794239258, -45996.76084479819, -38177.94182037614, -50830.90672861418, -50946.442895703665, -42473.45536630814, 64369.20188298248, 82115.74937292926, 0.148, 0.96, 0.13, 192.0, 0.0, 0.0, 0.0, 0.0, 0.0, 0.0, 0.0, 0.0, 0.0, 1.7297114261925273E9, 0.0, 2024-10-24 00:53:46.192
21.0, -43705.237651495656, -46009.14371122643, -38162.22854402406, -50812.712408627565, -50922.682991347676, -42456.78096494448, 64284.91345464152, 81990.53490049063, 0.148, 0.96, 0.13, 192.0, 0.0, 0.0, 0.0, 0.0, 0.0, 0.0, 0.0, 0.0, 0.0, 1.7297114261968608E9, 0.0, 2024-10-24 00:53:46.196
22.0, -43706.24347999615, -46020.23017647627, -38178.81353840989, -50825.564661689365, -50945.05708754744, -42475.48937505357, 64358.02601075483, 82055.98080825577, 0.148, 0.96, 0.13, 192.0, 0.0, 0.0, 0.0, 0.0, 0.0, 0.0, 0.0, 0.0, 0.0, 1.7297114262005563E9, 0.0, 2024-10-24 00:53:46.200
23.0, -43725.19775929425, -46040.8161331196, -38205.188596867156, -50844.13896133172, -50967.542942469474, -42495.00244796306, 64497.724413600496, 82212.77829560975, 0.148, 0.96, 0.13, 192.0, 0.0, 0.0, 0.0, 0.0, 0.0, 0.0, 0.0, 0.0, 0.0, 1.7297114262045352E9, 0.0, 2024-10-24 00:53:46.204
24.0, -43734.29491928755, -46041.97842383128, -38204.3168788334, -50832.069019325856, -50952.455514962145, -42472.76246223003, 64508.16267826113, 82229.4079934845, 0.148, 0.96, 0.13, 192.0, 0.0, 0.0, 0.0, 0.0, 0.0, 0.0, 0.0, 0.0, 0.0, 1.7297114262095747E9, 0.0, 2024-10-24 00:53:46.209
25.0, -43730.69628843025, -46032.97067081579, -38196.33730606286, -50817.85330985228, -50936.98810779907, -42456.848020177844, 64410.44085150253, 82094.96225058583, 0.148, 0.96, 0.13, 192.0, 0.0, 0.0, 0.0, 0.0, 0.0, 0.0, 0.0, 0.0, 0.0, 1.729711426213718E9, 0.0, 2024-10-24 00:53:46.213
26.0, -43713.328982988474, -46015.670420607385, -38185.22848906857, -50798.228478220524, -50920.09018899086, -42434.697441422635, 64334.35551337666, 81977.63794393992, 0.148, 0.96, 0.13, 192.0, 0.0, 0.0, 0.0, 0.0, 0.0, 0.0, 0.0, 0.0, 0.0, 1.7297114262165625E9, 0.0, 2024-10-24 00:53:46.216
27.0, -43718.089904557455, -46019.15729274241, -38194.52681476198, -50804.48696666801, -50936.20579674313, -42444.711022938616, 64413.838316659734, 82052.65039833193, 0.148, 0.96, 0.13, 192.0, 0.0, 0.0, 0.0, 0.0, 0.0, 0.0, 0.0, 0.0, 0.0, 1.729711426220332E9, 0.0, 2024-10-24 00:53:46.220
28.0, -43752.73510846318, -46036.05521155062, -38214.352812093835, -50821.42958896513, -50958.93752085418, -42464.31350282592, 64527.720454659524, 82185.91149877447, 0.148, 0.96, 0.134, 192.0, 4.0, 160.0, 30.0, 0.0, 4.0, 48.0, 0.0, 0.0, 0.0, 1.7297114262245736E9, 0.0, 2024-10-24 00:53:46.224
29.0, -43781.88178323291, -46049.868589624, -38219.62782378529, -50826.01169657847, -50965.48658197959, -42467.33098832738, 64554.87782417272, 82219.17089452397, 0.148, 0.96, 0.134, 192.0, 0.0, 0.0, 0.0, 0.0, 0.0, 0.0, 0.0, 0.0, 0.0, 1.7297114262441556E9, 0.0, 2024-10-24 00:53:46.244
30.0, -43766.01204466964, -46034.44588594984, -38195.55499500692, -50805.42573993513, -50944.36418346932, -42444.39809851624, 64452.12685491167, 82081.03711379017, 0.148, 0.96, 0.134, 192.0, 0.0, 0.0, 0.0, 0.0, 0.0, 0.0, 0.0, 0.0, 0.0, 1.7297114262441928E9, 0.0, 2024-10-24 00:53:46.244
31.0, -43748.22005608321, -46023.04649627763, -38175.79605290843, -50795.367454930245, -50921.900680291736, -42435.92678736768, 64372.77816209533, 81962.57286817704, 0.148, 0.96, 0.134, 192.0, 0.0, 0.0, 0.0, 0.0, 0.0, 0.0, 0.0, 0.0, 0.0, 1.7297114262442088E9, 0.0, 2024-10-24 00:53:46.244
32.0, -43746.78954443807, -46030.04259229214, -38181.85337565582, -50811.12543477124, -50943.69363113566, -42457.16094460022, 64470.65645106512, 82057.07604373408, 0.148, 0.96, 0.134, 192.0, 0.0, 0.0, 0.0, 0.0, 0.0, 0.0, 0.0, 0.0, 0.0, 1.729711426244223E9, 0.0, 2024-10-24 00:53:46.244
33.0, -43763.91098069084, -46053.37781350349, -38201.411152054214, -50837.791065906415, -50966.98414885809, -42486.75465425905, 64609.103156221296, 82217.51686543429, 0.148, 0.96, 0.134, 192.0, 0.0, 0.0, 0.0, 0.0, 0.0, 0.0, 0.0, 0.0, 0.0, 1.729711426244678E9, 0.0, 2024-10-24 00:53:46.244
34.0, -43770.0800621605, -46058.60812170603, -38194.70562871762, -50836.181740305634, -50953.23782601808, -42483.11131991283, 64623.07299650586, 82241.74615642383, 0.148, 0.96, 0.134, 192.0, 0.0, 0.0, 0.0, 0.0, 0.0, 0.0, 0.0, 0.0, 0.0, 1.72971142624862E9, 0.0, 2024-10-24 00:53:46.248
35.0, -43750.96932065122, -46040.19028427485, -38172.465642984585, -50816.37809471823, -50926.68395360517, -42458.99378764556, 64504.295826470356, 82088.74846562726, 0.148, 0.96, 0.134, 192.0, 0.0, 0.0, 0.0, 0.0, 0.0, 0.0, 0.0, 0.0, 0.0, 1.729711426253609E9, 0.0, 2024-10-24 00:53:46.253
36.0, -43727.969375606706, -46028.030935291164, -38156.3053317434, -50807.99619054749, -50913.33996216535, -42452.98116838708, 64414.86649690467, 81960.00241756468, 0.148, 0.96, 0.134, 192.0, 0.0, 0.0, 0.0, 0.0, 0.0, 0.0, 0.0, 0.0, 0.0, 1.7297114262585847E9, 0.0, 2024-10-24 00:53:46.258
37.0, -43704.45534043972, -46033.909444082914, -38167.436500482145, -50827.55396694589, -50939.4244479447, -42482.3290088569, 64501.83713458027, 82043.55323833863, 0.148, 0.96, 0.134, 192.0, 0.0, 0.0, 0.0, 0.0, 0.0, 0.0, 0.0, 0.0, 0.0, 1.7297114262616572E9, 0.0, 2024-10-24 00:53:46.261
38.0, -43710.24444225364, -46043.274825009685, -38186.90486990272, -50844.67540319865, -50967.31942502492, -42495.941221230176, 64613.21587720107, 82177.68605681493, 0.152, 0.964, 0.14200000000000002, 192.0, 4.0, 192.0, 30.0, 32.0, 4.0, 112.0, 0.0, 0.0, 0.0, 1.7297114262753923E9, 0.0, 2024-10-24 00:53:46.275
39.0, -43721.48736971466, -46044.07948781008, -38190.8164251824, -50841.52380723046, -50964.79367790147, -42486.10645366985, 64624.21293547308, 82195.09806574561, 0.152, 0.964, 0.14200000000000002, 192.0, 0.0, 0.0, 0.0, 0.0, 0.0, 0.0, 0.0, 0.0, 0.0, 1.7297114262754354E9, 0.0, 2024-10-24 00:53:46.275
40.0, -43709.439779453256, -46026.086333523555, -38172.666808684684, -50826.03404832292, -50931.46722691861, -42474.86352620882, 64528.122786059714, 82062.75338682573, 0.152, 0.964, 0.14200000000000002, 192.0, 0.0, 0.0, 0.0, 0.0, 0.0, 0.0, 0.0, 0.0, 0.0, 1.7297114262754507E9, 0.0, 2024-10-24 00:53:46.275
41.0, -43698.95681130372, -46012.13884498344, -38166.14009930374, -50822.18954827661, -50926.81806407191, -42475.15409888674, 64459.14530267064, 81955.46501344026, 0.152, 0.964, 0.14200000000000002, 192.0, 0.0, 0.0, 0.0, 0.0, 0.0, 0.0, 0.0, 0.0, 0.0, 1.7297114262766323E9, 0.0, 2024-10-24 00:53:46.276
42.0, -43692.34069494494, -46008.54021412614, -38175.2596110415, -50828.06805706836, -50944.341831724865, -42474.058863408434, 64534.515384973936, 82029.65045328742, 0.152, 0.964, 0.14200000000000002, 192.0, 0.0, 0.0, 0.0, 0.0, 0.0, 0.0, 0.0, 0.0, 0.0, 1.7297114262888904E9, 0.0, 2024-10-24 00:53:46.288
43.0, -43703.494215428145, -46023.64999337793, -38194.012724639506, -50844.8989206432, -50964.57016045692, -42495.248317152065, 64666.077752837875, 82182.55873710618, 0.152, 0.964, 0.14200000000000002, 192.0, 0.0, 0.0, 0.0, 0.0, 0.0, 0.0, 0.0, 0.0, 0.0, 1.729711426288924E9, 0.0, 2024-10-24 00:53:46.288
44.0, -43718.13460804637, -46034.87056909449, -38199.13127411977, -50845.569472976866, -50959.38455574329, -42494.957744474144, 64682.148657101236, 82208.68792637443, 0.152, 0.964, 0.14200000000000002, 192.0, 0.0, 0.0, 0.0, 0.0, 0.0, 0.0, 0.0, 0.0, 0.0, 1.7297114262895284E9, 0.0, 2024-10-24 00:53:46.289
45.0, -43703.22599449468, -46015.469254907286, -38179.05940759891, -50818.83678660831, -50928.71796235061, -42460.64781673525, 64570.367583080246, 82063.24512520374, 0.152, 0.964, 0.14200000000000002, 192.0, 0.0, 0.0, 0.0, 0.0, 0.0, 0.0, 0.0, 0.0, 0.0, 1.7297114263004572E9, 0.0, 2024-10-24 00:53:46.300
46.0, -43688.74206408764, -46002.75111231222, -38166.78829989294, -50801.24596372199, -50918.59262211235, -42439.68188043617, 64474.3668406447, 81925.75954505916, 0.152, 0.964, 0.14200000000000002, 192.0, 0.0, 0.0, 0.0, 0.0, 0.0, 0.0, 0.0, 0.0, 0.0, 1.729711426300768E9, 0.0, 2024-10-24 00:53:46.300
47.0, -43695.06760776849, -46015.737475840746, -38182.814500667395, -50815.88635634022, -50941.86078809033, -42458.54675275645, 64560.644574242186, 82007.4104675544, 0.152, 0.964, 0.14200000000000002, 192.0, 0.0, 0.0, 0.0, 0.0, 0.0, 0.0, 0.0, 0.0, 0.0, 1.7297114263007903E9, 0.0, 2024-10-24 00:53:46.300
48.0, -43706.24347999615, -46025.63929863445, -38194.6162217398, -50820.91549884266, -50946.55465442594, -42464.6711307372, 64669.58697671736, 82135.59772200558, 0.152, 0.968, 0.136, 192.0, 4.0, 192.0, 30.0, 64.0, 4.0, 64.0, 0.0, 0.0, 0.0, 1.7297114263047123E9, 0.0, 2024-10-24 00:53:46.304
49.0, -43728.930500618284, -46039.94441508585, -38205.61328001181, -50821.54134768741, -50949.19216027167, -42462.368901058304, 64684.65205248023, 82159.22351589483, 0.152, 0.968, 0.136, 192.0, 0.0, 0.0, 0.0, 0.0, 0.0, 0.0, 0.0, 0.0, 0.0, 1.7297114263086927E9, 0.0, 2024-10-24 00:53:46.308
50.0, -43717.195834779246, -46024.3652492005, -38186.0108001245, -50799.3907689322, -50920.80544481343, -42434.71979316709, 64584.426830342636, 82026.00711894121, 0.152, 0.968, 0.136, 192.0, 0.0, 0.0, 0.0, 0.0, 0.0, 0.0, 0.0, 0.0, 0.0, 1.7297114263126523E9, 0.0, 2024-10-24 00:53:46.312
51.0, -43700.45437818222, -46010.48481589375, -38171.88449762875, -50786.493812381486, -50907.86378477381, -42423.32040349489, 64497.165619989115, 81900.43501859129, 0.152, 0.968, 0.136, 192.0, 0.0, 0.0, 0.0, 0.0, 0.0, 0.0, 0.0, 0.0, 0.0, 1.729711426316695E9, 0.0, 2024-10-24 00:53:46.316
52.0, -43705.0141340511, -46021.23600497675, -38187.53071874747, -50804.55402190138, -50940.22911074509, -42449.11431659631, 64580.53762680741, 81978.50966197369, 0.152, 0.968, 0.136, 192.0, 0.0, 0.0, 0.0, 0.0, 0.0, 0.0, 0.0, 0.0, 0.0, 1.7297114263207388E9, 0.0, 2024-10-24 00:53:46.320
53.0, -43725.98007035018, -46041.77725813118, -38212.00587892603, -50828.93977510212, -50972.14740182727, -42478.68567451068, 64713.821078994406, 82133.07197488213, 0.152, 0.968, 0.136, 192.0, 0.0, 0.0, 0.0, 0.0, 0.0, 0.0, 0.0, 0.0, 0.0, 1.7297114263257477E9, 0.0, 2024-10-24 00:53:46.325
54.0, -43744.06263161453, -46044.39241223245, -38207.37906782378, -50822.18954827661, -50954.623634174306, -42463.55354351444, 64733.93764900418, 82160.65402753997, 0.152, 0.968, 0.136, 192.0, 0.0, 0.0, 0.0, 0.0, 0.0, 0.0, 0.0, 0.0, 0.0, 1.7297114263286903E9, 0.0, 2024-10-24 00:53:46.328
55.0, -43741.022794368604, -46025.08050502306, -38180.06523609939, -50801.2906672109, -50916.42450290019, -42437.37965075728, 64623.005941272495, 82013.64660425742, 0.152, 0.968, 0.136, 192.0, 0.0, 0.0, 0.0, 0.0, 0.0, 0.0, 0.0, 0.0, 0.0, 1.7297114263327181E9, 0.0, 2024-10-24 00:53:46.332
56.0, -43725.287166272064, -46009.99307751573, -38163.79316613593, -50791.724120584026, -50905.87447951728, -42433.13281931077, 64569.942899935595, 81919.61281533395, 0.152, 0.968, 0.136, 192.0, 0.0, 0.0, 0.0, 0.0, 0.0, 0.0, 0.0, 0.0, 0.0, 1.7297114263369398E9, 0.0, 2024-10-24 00:53:46.336
57.0, -43725.24246278316, -46015.62571711847, -38175.8631081418, -50809.136129514714, -50932.942442052656, -42455.61867423281, 64656.73472365555, 82000.88375817344, 0.152, 0.968, 0.136, 192.0, 0.0, 0.0, 0.0, 0.0, 0.0, 0.0, 0.0, 0.0, 0.0, 1.7297114263407075E9, 0.0, 2024-10-24 00:53:46.340
58.0, -43736.26187279962, -46030.422571947885, -38195.890271173754, -50830.12441755825, -50965.106602323845, -42476.852831465345, 64752.37783817981, 82115.9281868849, 0.15, 0.968, 0.128, 192.0, 4.0, 176.0, 30.0, 64.0, 4.0, 0.0, 0.0, 0.0, 0.0, 1.7297114263447337E9, 0.0, 2024-10-24 00:53:46.344
59.0, -43751.3269485625, -46039.34091798555, -38203.24399509955, -50836.047629838904, -50961.44091623317, -42477.83630822138, 64767.19704475368, 82139.64338775199, 0.15, 0.968, 0.128, 192.0, 0.0, 0.0, 0.0, 0.0, 0.0, 0.0, 0.0, 0.0, 0.0, 1.7297114263487244E9, 0.0, 2024-10-24 00:53:46.348
60.0, -43734.093753587455, -46017.74913284172, -38179.05940759891, -50819.127359286234, -50923.10767449233, -42462.324197569396, 64668.46938949459, 82005.64467974243, 0.15, 0.968, 0.128, 192.0, 0.0, 0.0, 0.0, 0.0, 0.0, 0.0, 0.0, 0.0, 0.0, 1.72971142635372E9, 0.0, 2024-10-24 00:53:46.353
61.0, -43720.43683772527, -46006.86383329199, -38171.32570401737, -50814.36643771725, -50915.530433121974, -42456.17746784419, 64599.223685172044, 81896.59051854498, 0.15, 0.968, 0.128, 192.0, 0.0, 0.0, 0.0, 0.0, 0.0, 0.0, 0.0, 0.0, 0.0, 1.7297114263569071E9, 0.0, 2024-10-24 00:53:46.356
62.0, -43699.26973572609, -46011.736513583244, -38185.11673034629, -50830.5491007029, -50937.70336362164, -42475.109395397834, 64687.64718623724, 81981.3483335195, 0.15, 0.968, 0.128, 192.0, 0.0, 0.0, 0.0, 0.0, 0.0, 0.0, 0.0, 0.0, 0.0, 1.7297114263607635E9, 0.0, 2024-10-24 00:53:46.360
63.0, -43703.38245670587, -46024.275842222676, -38201.969945665594, -50846.01650786597, -50957.641119675776, -42485.05592168045, 64803.04924285999, 82118.72215494182, 0.15, 0.968, 0.128, 192.0, 0.0, 0.0, 0.0, 0.0, 0.0, 0.0, 0.0, 0.0, 0.0, 1.7297114263647492E9, 0.0, 2024-10-24 00:53:46.364
64.0, -43715.07241905599, -46030.73549637026, -38204.29452708895, -50844.87656889875, -50955.249483019055, -42479.512689055526, 64787.715946163655, 82110.00497460425, 0.15, 0.968, 0.128, 192.0, 0.0, 0.0, 0.0, 0.0, 0.0, 0.0, 0.0, 0.0, 0.0, 1.7297114263687952E9, 0.0, 2024-10-24 00:53:46.368
65.0, -43700.72259911568, -46017.19033923034, -38184.58028847937, -50828.358629746275, -50929.43321817317, -42462.324197569396, 64696.25260785253, 81980.07428408555, 0.15, 0.968, 0.128, 192.0, 0.0, 0.0, 0.0, 0.0, 0.0, 0.0, 0.0, 0.0, 0.0, 1.72971142637286E9, 0.0, 2024-10-24 00:53:46.372
66.0, -43685.79163381954, -46002.86287103449, -38169.13523306075, -50817.40627496318, -50917.497386634044, -42451.43889801966, 64601.79413578441, 81841.314654507, 0.15, 0.968, 0.128, 192.0, 0.0, 0.0, 0.0, 0.0, 0.0, 0.0, 0.0, 0.0, 0.0, 1.7297114263767679E9, 0.0, 2024-10-24 00:53:46.376
67.0, -43707.69634338574, -46011.93767928334, -38184.513233246, -50833.54423445991, -50943.51481718002, -42471.42135756271, 64680.539331500455, 81916.21535017675, 0.15, 0.968, 0.128, 192.0, 0.0, 0.0, 0.0, 0.0, 0.0, 0.0, 0.0, 0.0, 0.0, 1.7297114263817475E9, 0.0, 2024-10-24 00:53:46.381
68.0, -43731.165675063814, -46028.477970180276, -38202.32757357688, -50847.73759218903, -50956.590587686376, -42489.25804963804, 64794.51087647807, 82051.75632855372, 0.15, 0.964, 0.128, 192.0, 4.0, 176.0, 30.0, 32.0, 4.0, 0.0, 0.0, 0.0, 0.0, 1.7297114263848913E9, 0.0, 2024-10-24 00:53:46.384
69.0, -43747.14717234936, -46037.28455749567, -38204.629803255775, -50843.13313283124, -50946.24173000357, -42482.28430536798, 64819.58953375692, 82083.40639870244, 0.15, 0.964, 0.128, 192.0, 0.0, 0.0, 0.0, 0.0, 0.0, 0.0, 0.0, 0.0, 0.0, 1.7297114263888664E9, 0.0, 2024-10-24 00:53:46.388
70.0, -43741.08984960197, -46022.21948173278, -38190.570555993385, -50821.60840292078, -50929.254404217536, -42456.53509575547, 64730.69664605816, 81957.45431869678, 0.15, 0.964, 0.128, 192.0, 0.0, 0.0, 0.0, 0.0, 0.0, 0.0, 0.0, 0.0, 0.0, 1.7297114263927848E9, 0.0, 2024-10-24 00:53:46.392
71.0, -43728.595224451456, -46006.506205380705, -38182.03218961146, -50806.409216691165, -50925.40990417122, -42440.35243276983, 64643.94952582712, 81829.26706424559, 0.15, 0.964, 0.128, 192.0, 0.0, 0.0, 0.0, 0.0, 0.0, 0.0, 0.0, 0.0, 0.0, 1.729711426396772E9, 0.0, 2024-10-24 00:53:46.396
72.0, -43729.24342504066, -46011.892975794435, -38192.35869554981, -50814.321734228346, -50933.568290897405, -42451.68476720867, 64743.50419563105, 81923.34555665798, 0.15, 0.964, 0.128, 192.0, 0.0, 0.0, 0.0, 0.0, 0.0, 0.0, 0.0, 0.0, 0.0, 1.729711426402809E9, 0.0, 2024-10-24 00:53:46.402
73.0, -43743.41443102532, -46028.746191113736, -38207.96021317961, -50826.72695240104, -50948.745125382564, -42459.70904346812, 64891.96448230321, 82089.9778115723, 0.15, 0.964, 0.128, 192.0, 0.0, 0.0, 0.0, 0.0, 0.0, 0.0, 0.0, 0.0, 0.0, 1.7297114264069517E9, 0.0, 2024-10-24 00:53:46.406
74.0, -43754.21032359723, -46034.84821735004, -38214.28575686047, -50823.17302503264, -50960.055108076944, -42452.958816642626, 64903.36387197541, 82108.82033214813, 0.15, 0.964, 0.128, 192.0, 0.0, 0.0, 0.0, 0.0, 0.0, 0.0, 0.0, 0.0, 0.0, 1.729711426410861E9, 0.0, 2024-10-24 00:53:46.410
75.0, -43722.04616332605, -46016.989173530244, -38193.096303116836, -50802.363550944756, -50932.4730554191, -42430.67412742068, 64787.648890930286, 81957.45431869678, 0.15, 0.964, 0.128, 192.0, 0.0, 0.0, 0.0, 0.0, 0.0, 0.0, 0.0, 0.0, 0.0, 1.7297114264139216E9, 0.0, 2024-10-24 00:53:46.413
76.0, -43693.72650310117, -46004.00281000171, -38180.020532610484, -50792.46172815105, -50914.12227322129, -42422.56044418341, 64705.52858180149, 81834.1620962813, 0.15, 0.964, 0.128, 192.0, 0.0, 0.0, 0.0, 0.0, 0.0, 0.0, 0.0, 0.0, 0.0, 1.729711426417945E9, 0.0, 2024-10-24 00:53:46.417
77.0, -43691.044293766536, -46007.60144085901, -38187.150739091725, -50806.833899835816, -50927.153340238736, -42445.64979620574, 64792.119239821346, 81915.7906670321, 0.15, 0.964, 0.128, 192.0, 0.0, 0.0, 0.0, 0.0, 0.0, 0.0, 0.0, 0.0, 0.0, 1.7297114264208484E9, 0.0, 2024-10-24 00:53:46.420
78.0, -43694.93349730176, -46016.02804851867, -38196.42671304068, -50821.854272109784, -50945.459418947634, -42467.80037496095, 64912.52808720209, 82056.00316000023, 0.152, 0.962, 0.13, 192.0, 4.0, 192.0, 30.0, 16.0, 4.0, 16.0, 0.0, 0.0, 0.0, 1.7297114264248102E9, 0.0, 2024-10-24 00:53:46.424
79.0, -43708.255136997126, -46028.187397502355, -38203.869843944296, -50828.17981579064, -50953.506046951545, -42470.08025289539, 64920.328846016986, 82071.31410495212, 0.152, 0.962, 0.13, 192.0, 0.0, 0.0, 0.0, 0.0, 0.0, 0.0, 0.0, 0.0, 0.0, 1.7297114264288394E9, 0.0, 2024-10-24 00:53:46.428
80.0, -43704.00830555061, -46019.649031120425, -38194.280945572966, -50821.80956862087, -50936.80929384343, -42460.20078184614, 64812.30286506449, 81929.26876893864, 0.152, 0.962, 0.13, 192.0, 0.0, 0.0, 0.0, 0.0, 0.0, 0.0, 0.0, 0.0, 0.0, 1.7297114264328556E9, 0.0, 2024-10-24 00:53:46.432
81.0, -43685.27754369707, -46000.65004833342, -38176.75717792001, -50812.80181560538, -50926.01340127151, -42453.53996199846, 64720.77247152001, 81800.03098249805, 0.152, 0.962, 0.13, 192.0, 0.0, 0.0, 0.0, 0.0, 0.0, 0.0, 0.0, 0.0, 0.0, 1.729711426438896E9, 0.0, 2024-10-24 00:53:46.438
82.0, -43676.62741859286, -45998.10194946551, -38176.377198264265, -50818.97089707505, -50929.47792166209, -42459.01613939001, 64802.78102192653, 81881.05605614855, 0.152, 0.962, 0.13, 192.0, 0.0, 0.0, 0.0, 0.0, 0.0, 0.0, 0.0, 0.0, 0.0, 1.7297114264418824E9, 0.0, 2024-10-24 00:53:46.441
83.0, -43694.55351764602, -46016.855063063515, -38199.33243981987, -50840.54033047442, -50955.49535220806, -42483.8265757354, 64934.70101770175, 82035.77483126818, 0.152, 0.962, 0.13, 192.0, 0.0, 0.0, 0.0, 0.0, 0.0, 0.0, 0.0, 0.0, 0.0, 1.7297114264458892E9, 0.0, 2024-10-24 00:53:46.445
84.0, -43707.62928815238, -46024.544063156136, -38202.57344276589, -50842.08260084184, -50945.01238405852, -42482.396064090266, 64952.828282455004, 82060.54056412466, 0.152, 0.962, 0.13, 192.0, 0.0, 0.0, 0.0, 0.0, 0.0, 0.0, 0.0, 0.0, 0.0, 1.7297114264488888E9, 0.0, 2024-10-24 00:53:46.448
85.0, -43697.90627931432, -46011.64710660543, -38189.1623960927, -50828.11276055727, -50928.94147979516, -42464.693482481656, 64824.93160068174, 81895.74115225568, 0.152, 0.962, 0.13, 192.0, 0.0, 0.0, 0.0, 0.0, 0.0, 0.0, 0.0, 0.0, 0.0, 1.7297114264528506E9, 0.0, 2024-10-24 00:53:46.452
86.0, -43691.178404233266, -46006.30503968061, -38184.69204720164, -50823.86592911076, -50919.95607852413, -42457.16094460022, 64761.25148072857, 81791.06793297148, 0.152, 0.962, 0.13, 192.0, 0.0, 0.0, 0.0, 0.0, 0.0, 0.0, 0.0, 0.0, 0.0, 1.7297114264569108E9, 0.0, 2024-10-24 00:53:46.456
87.0, -43683.93643902975, -46002.21467044529, -38188.87182341478, -50826.59284193431, -50935.91522406522, -42461.16190685772, 64838.342647354926, 81864.58282048498, 0.152, 0.962, 0.13, 192.0, 0.0, 0.0, 0.0, 0.0, 0.0, 0.0, 0.0, 0.0, 0.0, 1.7297114264608843E9, 0.0, 2024-10-24 00:53:46.460
88.0, -43699.94028805975, -46020.006659031715, -38210.68712600316, -50846.5529497329, -50966.917093624725, -42480.563221044926, 64946.43568354079, 81995.25111857071, 0.15, 0.964, 0.132, 192.0, 4.0, 176.0, 30.0, 32.0, 4.0, 32.0, 0.0, 0.0, 0.0, 1.7297114264648767E9, 0.0, 2024-10-24 00:53:46.464
89.0, -43714.31245974451, -46027.9638800578, -38215.38099233878, -50847.62583346675, -50958.55754119844, -42484.56418330243, 64956.20339586776, 82009.98091816675, 0.15, 0.964, 0.132, 192.0, 0.0, 0.0, 0.0, 0.0, 0.0, 0.0, 0.0, 0.0, 0.0, 1.7297114264698856E9, 0.0, 2024-10-24 00:53:46.469
90.0, -43702.086055527456, -46011.58005137206, -38195.91262291821, -50827.95629834608, -50936.36225895432, -42464.82759294839, 64863.5107116116, 81878.84323344746, 0.15, 0.964, 0.132, 192.0, 0.0, 0.0, 0.0, 0.0, 0.0, 0.0, 0.0, 0.0, 0.0, 1.7297114264739661E9, 0.0, 2024-10-24 00:53:46.473
91.0, -43683.06472099599, -45995.039760475134, -38175.4607767416, -50810.58899290431, -50908.042598729444, -42442.028813603974, 64805.954969639184, 81780.47320609966, 0.15, 0.964, 0.132, 192.0, 0.0, 0.0, 0.0, 0.0, 0.0, 0.0, 0.0, 0.0, 0.0, 1.7297114264781594E9, 0.0, 2024-10-24 00:53:46.478
92.0, -43682.729444829165, -46002.77346405667, -38186.97192513608, -50822.43541746562, -50932.45070367464, -42454.07640386539, 64892.791496848055, 81863.84521291795, 0.15, 0.964, 0.132, 192.0, 0.0, 0.0, 0.0, 0.0, 0.0, 0.0, 0.0, 0.0, 0.0, 1.7297114264809556E9, 0.0, 2024-10-24 00:53:46.480
93.0, -43698.4650729257, -46022.42064743288, -38206.8202742124, -50839.93683337413, -50954.10954405183, -42471.3766540738, 65002.06917549005, 81994.17823483684, 0.15, 0.964, 0.132, 192.0, 0.0, 0.0, 0.0, 0.0, 0.0, 0.0, 0.0, 0.0, 0.0, 1.72971142648597E9, 0.0, 2024-10-24 00:53:46.485
94.0, -43714.245404511144, -46035.69758363934, -38212.13998939276, -50840.58503396333, -50949.81800911642, -42466.61573250482, 65005.10901273597, 82003.2530430857, 0.15, 0.964, 0.132, 192.0, 0.0, 0.0, 0.0, 0.0, 0.0, 0.0, 0.0, 0.0, 0.0, 1.7297114264909573E9, 0.0, 2024-10-24 00:53:46.490
95.0, -43696.94515430274, -46016.69860085232, -38190.27998331547, -50816.28868774041, -50920.0678372464, -42437.0667263349, 64883.202598476724, 81845.18150629777, 0.15, 0.964, 0.132, 192.0, 0.0, 0.0, 0.0, 0.0, 0.0, 0.0, 0.0, 0.0, 0.0, 1.7297114264950402E9, 0.0, 2024-10-24 00:53:46.495
96.0, -43683.22118320718, -46005.52272862467, -38179.41703551019, -50805.649257379686, -50908.690799318654, -42428.30484250842, 64802.35633878188, 81723.45390599417, 0.15, 0.964, 0.132, 192.0, 0.0, 0.0, 0.0, 0.0, 0.0, 0.0, 0.0, 0.0, 0.0, 1.729711426498099E9, 0.0, 2024-10-24 00:53:46.498
97.0, -43690.39609317733, -46022.9123858109, -38199.600660753335, -50825.989344834015, -50942.62074740181, -42450.366014285806, 64908.41536622231, 81825.57902641047, 0.15, 0.964, 0.132, 192.0, 0.0, 0.0, 0.0, 0.0, 0.0, 0.0, 0.0, 0.0, 0.0, 1.72971142650202E9, 0.0, 2024-10-24 00:53:46.502
98.0, -43701.77313110508, -46036.144618528444, -38218.04084992896, -50842.127304330745, -50966.492410480074, -42466.995712160555, 65027.10312927999, 81965.32213274504, 0.15, 0.964, 0.132, 192.0, 0.0, 0.0, 0.0, 0.0, 0.0, 0.0, 0.0, 0.0, 0.0, 1.7297114265049753E9, 0.0, 2024-10-24 00:53:46.504
99.0, -43711.943174832246, -46039.92206334139, -38221.1700941527, -50843.8483886538, -50960.54684645496, -42470.30377033994, 65028.51128918068, 81972.11706305946, 0.154, 0.968, 0.138, 192.0, 4.0, 208.0, 30.0, 64.0, 4.0, 80.0, 0.0, 0.0, 0.0, 1.729711426509123E9, 0.0, 2024-10-24 00:53:46.509
100.0, -43693.12300600088, -46017.145635741435, -38196.98550665206, -50822.25660350998, -50931.8695583188, -42450.79069743046, 64934.4775002572, 81838.87831436138, 0.154, 0.968, 0.138, 192.0, 0.0, 0.0, 0.0, 0.0, 0.0, 0.0, 0.0, 0.0, 0.0, 1.7297114265160477E9, 0.0, 2024-10-24 00:53:46.516
101.0, -43676.69447382623, -46002.43818788984, -38182.948611134125, -50811.81833884935, -50917.3185726784, -42441.9170548817, 64857.85572026441, 81721.26343503754, 0.154, 0.968, 0.138, 192.0, 0.0, 0.0, 0.0, 0.0, 0.0, 0.0, 0.0, 0.0, 0.0, 1.7297114265191624E9, 0.0, 2024-10-24 00:53:46.519
102.0, -43678.370854660374, -46009.59074611554, -38198.10309387482, -50829.02918207994, -50949.21451201612, -42465.98988366007, 64934.36574153492, 81795.1583022068, 0.154, 0.968, 0.138, 192.0, 0.0, 0.0, 0.0, 0.0, 0.0, 0.0, 0.0, 0.0, 0.0, 1.729711426521938E9, 0.0, 2024-10-24 00:53:46.521
103.0, -43690.59725887743, -46022.10772301051, -38213.95048069364, -50846.50824624399, -50971.16392507123, -42491.537927572484, 65063.983507631245, 81943.90916155686, 0.154, 0.968, 0.138, 192.0, 0.0, 0.0, 0.0, 0.0, 0.0, 0.0, 0.0, 0.0, 0.0, 1.729711426526071E9, 0.0, 2024-10-24 00:53:46.526
104.0, -43698.666238625796, -46024.23113873376, -38208.38489632427, -50837.56754846186, -50952.00848007303, -42476.584610531885, 65074.93586241435, 81960.51650768716, 0.154, 0.968, 0.138, 192.0, 0.0, 0.0, 0.0, 0.0, 0.0, 0.0, 0.0, 0.0, 0.0, 1.7297114265290616E9, 0.0, 2024-10-24 00:53:46.529
105.0, -43684.40582566331, -46005.8580047915, -38190.03411412646, -50814.29938248389, -50934.1717879977, -42444.26398804951, 64947.26269808564, 81797.28171793005, 0.154, 0.968, 0.138, 192.0, 0.0, 0.0, 0.0, 0.0, 0.0, 0.0, 0.0, 0.0, 0.0, 1.7297114265320666E9, 0.0, 2024-10-24 00:53:46.532
106.0, -43669.653674322806, -45993.81041453009, -38178.38885526524, -50805.716312613054, -50914.07756973238, -42434.16099955571, 64880.38627867535, 81688.78635034399, 0.154, 0.968, 0.138, 192.0, 0.0, 0.0, 0.0, 0.0, 0.0, 0.0, 0.0, 0.0, 0.0, 1.7297114265371842E9, 0.0, 2024-10-24 00:53:46.537
107.0, -43664.93745624274, -45995.330333153055, -38178.835890154354, -50814.187623761616, -50920.38076166878, -42444.59926421634, 64964.160616893845, 81769.297333872, 0.154, 0.968, 0.138, 192.0, 0.0, 0.0, 0.0, 0.0, 0.0, 0.0, 0.0, 0.0, 0.0, 1.7297114265411625E9, 0.0, 2024-10-24 00:53:46.541
108.0, -43683.66821809629, -46011.44594090533, -38195.689105473655, -50833.901862371196, -50942.26311949052, -42471.93544768518, 65065.07874310956, 81892.23192837619, 0.154, 0.968, 0.138, 192.0, 0.0, 0.0, 0.0, 0.0, 0.0, 0.0, 0.0, 0.0, 0.0, 1.7297114265451612E9, 0.0, 2024-10-24 00:53:46.545
109.0, -43705.729389873675, -46024.78993234515, -38204.87567244478, -50839.35568801829, -50946.152323025744, -42474.058863408434, 65097.2652551252, 81929.96167301675, 0.15, 0.964, 0.136, 192.0, 4.0, 176.0, 30.0, 32.0, 4.0, 64.0, 0.0, 0.0, 0.0, 1.7297114265490932E9, 0.0, 2024-10-24 00:53:46.549
110.0, -43692.07247401148, -46005.50037688022, -38189.542375748446, -50819.95437383108, -50928.00270652804, -42455.10458411033, 64992.48027711872, 81786.10584570239, 0.15, 0.964, 0.136, 192.0, 0.0, 0.0, 0.0, 0.0, 0.0, 0.0, 0.0, 0.0, 0.0, 1.7297114265530975E9, 0.0, 2024-10-24 00:53:46.553
111.0, -43674.2581336806, -45984.04270220312, -38176.041922097436, -50801.313018955356, -50917.139758722755, -42435.77032515649, 64912.3716249909, 81662.43364363119, 0.15, 0.964, 0.136, 192.0, 0.0, 0.0, 0.0, 0.0, 0.0, 0.0, 0.0, 0.0, 0.0, 1.7297114265560555E9, 0.0, 2024-10-24 00:53:46.556
112.0, -43678.12498547137, -45990.48000460625, -38186.54724199143, -50812.690056883104, -50929.097942006345, -42450.723642197096, 64981.840846757994, 81728.8853798968, 0.15, 0.964, 0.136, 192.0, 0.0, 0.0, 0.0, 0.0, 0.0, 0.0, 0.0, 0.0, 0.0, 1.7297114265600705E9, 0.0, 2024-10-24 00:53:46.560
113.0, -43693.905317056815, -46007.623792603474, -38203.020477654994, -50829.87854836924, -50945.03473580298, -42469.90143893975, 65075.58406300355, 81844.84623013095, 0.15, 0.964, 0.136, 192.0, 0.0, 0.0, 0.0, 0.0, 0.0, 0.0, 0.0, 0.0, 0.0, 1.7297114265660987E9, 0.0, 2024-10-24 00:53:46.566
114.0, -43709.17155851979, -46020.699563109825, -38210.12833239178, -50834.5500629604, -50949.05804980494, -42469.25323835054, 65093.73367950126, 81868.00263738664, 0.15, 0.964, 0.136, 192.0, 0.0, 0.0, 0.0, 0.0, 0.0, 0.0, 0.0, 0.0, 0.0, 1.7297114265701644E9, 0.0, 2024-10-24 00:53:46.570
115.0, -43692.69832285623, -46000.1583099554, -38188.26832631449, -50811.97480106054, -50920.224299457586, -42444.77807817198, 64994.87191377544, 81731.12055434234, 0.15, 0.964, 0.136, 192.0, 0.0, 0.0, 0.0, 0.0, 0.0, 0.0, 0.0, 0.0, 0.0, 1.7297114265743153E9, 0.0, 2024-10-24 00:53:46.574
116.0, -43680.51662212809, -45991.44112961783, -38178.12063433178, -50804.464614923556, -50913.40701739872, -42434.3174617669, 64902.76037487512, 81596.47364574356, 0.15, 0.964, 0.136, 192.0, 0.0, 0.0, 0.0, 0.0, 0.0, 0.0, 0.0, 0.0, 0.0, 1.729711426577149E9, 0.0, 2024-10-24 00:53:46.577
117.0, -43683.1094244849, -46001.67822857836, -38193.52098626149, -50819.686152897615, -50939.06682003341, -42448.622578218296, 65003.29852143509, 81691.5803184009, 0.15, 0.964, 0.136, 192.0, 0.0, 0.0, 0.0, 0.0, 0.0, 0.0, 0.0, 0.0, 0.0, 1.7297114265810652E9, 0.0, 2024-10-24 00:53:46.581
118.0, -43702.93542181676, -46023.04649627763, -38216.69974526164, -50837.83576939533, -50955.13772429678, -42464.693482481656, 65125.0708252276, 81833.80446837003, 0.15, 0.964, 0.136, 192.0, 0.0, 0.0, 0.0, 0.0, 0.0, 0.0, 0.0, 0.0, 0.0, 1.7297114265840845E9, 0.0, 2024-10-24 00:53:46.584
119.0, -43705.97525906268, -46026.645127134936, -38209.390724824756, -50829.967955347056, -50935.57994789838, -42452.19885733114, 65133.29626718716, 81846.50025922064, 0.152, 0.962, 0.134, 192.0, 4.0, 192.0, 30.0, 16.0, 4.0, 48.0, 0.0, 0.0, 0.0, 1.7297114265881543E9, 0.0, 2024-10-24 00:53:46.588
120.0, -43690.2619827106, -46010.66362984939, -38191.486977516055, -50813.539423172406, -50926.95217453864, -42438.72075542459, 65013.62502737344, 81687.24407997658, 0.152, 0.962, 0.134, 192.0, 0.0, 0.0, 0.0, 0.0, 0.0, 0.0, 0.0, 0.0, 0.0, 1.729711426593083E9, 0.0, 2024-10-24 00:53:46.593
121.0, -43675.085148225444, -45996.58203084255, -38180.512270988496, -50802.430606178124, -50922.77239832549, -42426.89668260774, 64929.15778507684, 81561.247296482, 0.152, 0.962, 0.134, 192.0, 0.0, 0.0, 0.0, 0.0, 0.0, 0.0, 0.0, 0.0, 0.0, 1.7297114265981753E9, 0.0, 2024-10-24 00:53:46.598
122.0, -43671.21829643468, -45997.18552794284, -38183.61916346779, -50808.17500450314, -50930.774322840494, -42438.67605193568, 65012.37332968394, 81642.98762595507, 0.152, 0.962, 0.134, 192.0, 0.0, 0.0, 0.0, 0.0, 0.0, 0.0, 0.0, 0.0, 0.0, 1.729711426603242E9, 0.0, 2024-10-24 00:53:46.603
123.0, -43684.22701170767, -46009.68015309336, -38196.15849210721, -50823.30713549938, -50939.4244479447, -42454.478735265584, 65126.94837176185, 81781.76960727807, 0.152, 0.962, 0.134, 192.0, 0.0, 0.0, 0.0, 0.0, 0.0, 0.0, 0.0, 0.0, 0.0, 1.7297114266061528E9, 0.0, 2024-10-24 00:53:46.606
124.0, -43693.905317056815, -46015.245737462734, -38194.79503569544, -50824.67059191115, -50935.959927554126, -42453.562313742914, 65141.23113646879, 81800.29920343151, 0.152, 0.962, 0.134, 192.0, 0.0, 0.0, 0.0, 0.0, 0.0, 0.0, 0.0, 0.0, 0.0, 1.7297114266091228E9, 0.0, 2024-10-24 00:53:46.609
125.0, -43674.50400286961, -45995.44209187533, -38176.08662558635, -50805.76101610196, -50922.21360471411, -42433.512798966505, 65026.83490834653, 81644.88752423377, 0.152, 0.962, 0.134, 192.0, 0.0, 0.0, 0.0, 0.0, 0.0, 0.0, 0.0, 0.0, 0.0, 1.7297114266120956E9, 0.0, 2024-10-24 00:53:46.612
126.0, -43663.48459285314, -45988.401292371906, -38166.07304407037, -50800.01661777695, -50905.85212777283, -42429.62359543128, 64937.383227036386, 81512.09581042478, 0.152, 0.962, 0.134, 192.0, 0.0, 0.0, 0.0, 0.0, 0.0, 0.0, 0.0, 0.0, 0.0, 1.7297114266161273E9, 0.0, 2024-10-24 00:53:46.616
127.0, -43661.11530794088, -45992.670475562874, -38172.01860809548, -50812.690056883104, -50918.324401178885, -42445.11335433881, 65018.38594894242, 81590.48337822955, 0.152, 0.962, 0.134, 192.0, 0.0, 0.0, 0.0, 0.0, 0.0, 0.0, 0.0, 0.0, 0.0, 1.729711426621111E9, 0.0, 2024-10-24 00:53:46.621
128.0, -43671.754738301606, -46006.9085367809, -38188.24597457003, -50829.72208615805, -50945.14649452526, -42461.0724998799, 65127.5742206066, 81719.60940594786, 0.152, 0.962, 0.134, 192.0, 0.0, 0.0, 0.0, 0.0, 0.0, 0.0, 0.0, 0.0, 0.0, 1.7297114266251135E9, 0.0, 2024-10-24 00:53:46.625
129.0, -43688.27267745408, -46020.67721136537, -38196.78434095196, -50833.58893794882, -50952.880198106795, -42461.36307255782, 65141.54406089117, 81738.4966300126, 0.152, 0.96, 0.13, 192.0, 4.0, 192.0, 30.0, 0.0, 4.0, 16.0, 0.0, 0.0, 0.0, 1.729711426629254E9, 0.0, 2024-10-24 00:53:46.629
130.0, -43673.11819471338, -46002.7064088233, -38175.93016337516, -50812.421835949644, -50922.5712326254, -42441.51472348151, 65035.41797821737, 81594.99843060953, 0.152, 0.96, 0.13, 192.0, 0.0, 0.0, 0.0, 0.0, 0.0, 0.0, 0.0, 0.0, 0.0, 1.7297114266332245E9, 0.0, 2024-10-24 00:53:46.633
131.0, -43659.81890676247, -45992.82693777406, -38163.97198009157, -50802.25179222248, -50908.28846791846, -42435.01036584501, 64950.66016324284, 81469.8286616598, 0.152, 0.96, 0.13, 192.0, 0.0, 0.0, 0.0, 0.0, 0.0, 0.0, 0.0, 0.0, 0.0, 1.7297114266362271E9, 0.0, 2024-10-24 00:53:46.636
132.0, -43659.46127885119, -46000.985324500245, -38171.571573206376, -50814.27703073943, -50918.30204943443, -42448.890799151755, 65042.43642597633, 81560.17441274815, 0.152, 0.96, 0.13, 192.0, 0.0, 0.0, 0.0, 0.0, 0.0, 0.0, 0.0, 0.0, 0.0, 1.7297114266402214E9, 0.0, 2024-10-24 00:53:46.640
133.0, -43671.464165623685, -46013.234080461756, -38187.55307049192, -50829.18564429112, -50940.497331678554, -42467.755671472034, 65160.76656112273, 81701.2362720056, 0.152, 0.96, 0.13, 192.0, 0.0, 0.0, 0.0, 0.0, 0.0, 0.0, 0.0, 0.0, 0.0, 1.729711426644104E9, 0.0, 2024-10-24 00:53:46.644
134.0, -43678.99670350512, -46013.16702522839, -38188.42478852568, -50824.40237097769, -50935.8705205763, -42464.2240958481, 65158.017296554724, 81704.16435052924, 0.152, 0.96, 0.13, 192.0, 0.0, 0.0, 0.0, 0.0, 0.0, 0.0, 0.0, 0.0, 0.0, 1.7297114266501255E9, 0.0, 2024-10-24 00:53:46.650
135.0, -43665.29508415402, -45993.653952318906, -38175.79605290843, -50804.84459457929, -50935.26702347601, -42442.453496748625, 65035.5520886841, 81542.91886602866, 0.152, 0.96, 0.13, 192.0, 0.0, 0.0, 0.0, 0.0, 0.0, 0.0, 0.0, 0.0, 0.0, 1.7297114266541493E9, 0.0, 2024-10-24 00:53:46.654
136.0, -43654.52154332656, -45980.42171960136, -38169.20228829412, -50798.60845787626, -50934.30589846443, -42441.559426970416, 64941.13832010488, 81406.0144312399, 0.152, 0.96, 0.13, 192.0, 0.0, 0.0, 0.0, 0.0, 0.0, 0.0, 0.0, 0.0, 0.0, 1.7297114266581817E9, 0.0, 2024-10-24 00:53:46.658
137.0, -43662.858744008394, -45993.497490107715, -38186.68135245817, -50823.038914565914, -50960.56919819942, -42474.28238085299, 65026.43257694633, 81487.7771124574, 0.152, 0.96, 0.13, 192.0, 0.0, 0.0, 0.0, 0.0, 0.0, 0.0, 0.0, 0.0, 0.0, 1.7297114266631055E9, 0.0, 2024-10-24 00:53:46.663
138.0, -43682.84120355144, -46016.18451072985, -38215.38099233878, -50847.69288870012, -50998.70127424017, -42494.73422702959, 65151.60234589605, 81634.53866655096, 0.152, 0.96, 0.13, 192.0, 0.0, 0.0, 0.0, 0.0, 0.0, 0.0, 0.0, 0.0, 0.0, 1.7297114266671455E9, 0.0, 2024-10-24 00:53:46.667
139.0, -43695.89462231334, -46026.93569981286, -38216.431524328174, -50846.73176368854, -50966.09007907988, -42483.60305829085, 65140.337066690576, 81629.71068974861, 0.154, 0.96, 0.136, 192.0, 4.0, 208.0, 30.0, 0.0, 4.0, 64.0, 0.0, 0.0, 0.0, 1.729711426670188E9, 0.0, 2024-10-24 00:53:46.670
140.0, -43672.67115982428, -46005.96976351378, -38181.11576808879, -50818.635620908215, -50907.03677022896, -42446.54386598395, 65024.37621645645, 81477.49531000797, 0.154, 0.96, 0.136, 192.0, 0.0, 0.0, 0.0, 0.0, 0.0, 0.0, 0.0, 0.0, 0.0, 1.7297114266731915E9, 0.0, 2024-10-24 00:53:46.673
141.0, -43663.59635157542, -45999.48775762174, -38177.83006165386, -50813.42766445013, -50921.87832854728, -42440.10656358082, 64955.04110515608, 81369.60343952221, 0.154, 0.96, 0.136, 192.0, 0.0, 0.0, 0.0, 0.0, 0.0, 0.0, 0.0, 0.0, 0.0, 1.729711426679185E9, 0.0, 2024-10-24 00:53:46.679
142.0, -43671.77709004606, -46010.48481589375, -38197.70076247463, -50828.716257657565, -50952.94725334016, -42455.73043295508, 65037.496690451706, 81451.85785911774, 0.154, 0.96, 0.136, 192.0, 0.0, 0.0, 0.0, 0.0, 0.0, 0.0, 0.0, 0.0, 0.0, 1.7297114266832266E9, 0.0, 2024-10-24 00:53:46.683
143.0, -43682.48357564015, -46019.939603798346, -38211.13416089227, -50838.282804284434, -50970.51572448203, -42467.84507844986, 65145.299153959655, 81582.70497115911, 0.154, 0.96, 0.136, 192.0, 0.0, 0.0, 0.0, 0.0, 0.0, 0.0, 0.0, 0.0, 0.0, 1.729711426686316E9, 0.0, 2024-10-24 00:53:46.686
144.0, -43685.0093227636, -46018.956127042315, -38199.399495053236, -50826.16815878966, -50934.060029275424, -42457.295055066956, 65162.062962301134, 81606.19665458162, 0.154, 0.96, 0.136, 192.0, 0.0, 0.0, 0.0, 0.0, 0.0, 0.0, 0.0, 0.0, 0.0, 1.7297114266893203E9, 0.0, 2024-10-24 00:53:46.689
145.0, -43670.97242724567, -46000.73945531124, -38176.511308731, -50805.492795168495, -50905.1145202058, -42435.457400734114, 65047.17499580086, 81455.09886206375, 0.154, 0.96, 0.136, 192.0, 0.0, 0.0, 0.0, 0.0, 0.0, 0.0, 0.0, 0.0, 0.0, 1.7297114266932E9, 0.0, 2024-10-24 00:53:46.693
146.0, -43662.43406086374, -45992.78223428515, -38169.71637841659, -50798.80962357636, -50902.320552148885, -42426.78492388546, 64967.49102681769, 81336.5005059839, 0.154, 0.96, 0.136, 192.0, 0.0, 0.0, 0.0, 0.0, 0.0, 0.0, 0.0, 0.0, 0.0, 1.7297114266962988E9, 0.0, 2024-10-24 00:53:46.696
147.0, -43661.674101552264, -46000.04655123312, -38177.76300642049, -50810.56664115985, -50917.899718034234, -42435.949139112134, 65038.52487069665, 81407.60140509623, 0.154, 0.96, 0.136, 192.0, 0.0, 0.0, 0.0, 0.0, 0.0, 0.0, 0.0, 0.0, 0.0, 1.7297114267003503E9, 0.0, 2024-10-24 00:53:46.700
148.0, -43666.278560910054, -46009.926022282365, -38190.50350076002, -50823.57535643284, -50937.50219792154, -42452.332967797876, 65120.354607147536, 81512.69930752508, 0.154, 0.96, 0.136, 192.0, 0.0, 0.0, 0.0, 0.0, 0.0, 0.0, 0.0, 0.0, 0.0, 1.7297114267042356E9, 0.0, 2024-10-24 00:53:46.704
149.0, -43682.438872151244, -46023.15825499991, -38198.75129446403, -50829.275051268945, -50939.91618632271, -42459.664339979216, 65126.74720606175, 81526.0432989649, 0.152, 0.9540000000000001, 0.14200000000000002, 192.0, 4.0, 192.0, 29.0, 208.0, 4.0, 112.0, 0.0, 0.0, 0.0, 1.729711426709249E9, 0.0, 2024-10-24 00:53:46.709
150.0, -43673.94520925823, -46014.53048164016, -38186.18961408015, -50818.72502788604, -50926.48278790507, -42449.516647996505, 65023.102167022495, 81387.86481474219, 0.152, 0.9540000000000001, 0.14200000000000002, 192.0, 0.0, 0.0, 0.0, 0.0, 0.0, 0.0, 0.0, 0.0, 0.0, 1.7297114267132032E9, 0.0, 2024-10-24 00:53:46.713
151.0, -43661.2047149187, -45999.97949599976, -38175.14785231923, -50808.711446370064, -50914.97163951059, -42440.62065370329, 64934.63396246838, 81261.935086481, 0.152, 0.9540000000000001, 0.14200000000000002, 192.0, 0.0, 0.0, 0.0, 0.0, 0.0, 0.0, 0.0, 0.0, 0.0, 1.7297114267172854E9, 0.0, 2024-10-24 00:53:46.717
152.0, -43662.83639226394, -46004.78512105765, -38187.55307049192, -50823.64241166621, -50935.13291300928, -42458.45734577863, 65026.387873457425, 81354.38190154814, 0.152, 0.9540000000000001, 0.14200000000000002, 192.0, 0.0, 0.0, 0.0, 0.0, 0.0, 0.0, 0.0, 0.0, 0.0, 1.7297114267213252E9, 0.0, 2024-10-24 00:53:46.721
153.0, -43673.140546457835, -46014.0610950066, -38202.32757357688, -50835.712353672076, -50953.41663997372, -42473.94710468616, 65138.75009283425, 81491.55455727036, 0.152, 0.9540000000000001, 0.14200000000000002, 192.0, 0.0, 0.0, 0.0, 0.0, 0.0, 0.0, 0.0, 0.0, 0.0, 1.7297114267263367E9, 0.0, 2024-10-24 00:53:46.726
154.0, -43692.720674600685, -46029.75201961423, -38211.80471322593, -50843.69192644262, -50954.02013707401, -42484.13950015778, 65140.8735085575, 81502.55161554237, 0.152, 0.9540000000000001, 0.14200000000000002, 192.0, 0.0, 0.0, 0.0, 0.0, 0.0, 0.0, 0.0, 0.0, 0.0, 1.7297114267292714E9, 0.0, 2024-10-24 00:53:46.729
155.0, -43679.39903490532, -46013.54700488413, -38192.87278567228, -50824.53648144442, -50927.913299550215, -42459.59728474585, 65020.86699257696, 81346.11175609968, 0.152, 0.9540000000000001, 0.14200000000000002, 192.0, 0.0, 0.0, 0.0, 0.0, 0.0, 0.0, 0.0, 0.0, 0.0, 1.7297114267323787E9, 0.0, 2024-10-24 00:53:46.732
156.0, -43663.81986901997, -45997.8560802765, -38182.23335531156, -50811.14778651569, -50916.13393022227, -42440.48654323656, 64941.585354993986, 81226.86519943061, 0.152, 0.9540000000000001, 0.14200000000000002, 192.0, 0.0, 0.0, 0.0, 0.0, 0.0, 0.0, 0.0, 0.0, 0.0, 1.7297114267372577E9, 0.0, 2024-10-24 00:53:46.737
157.0, -43663.61870331987, -46000.53828961114, -38196.80669269642, -50827.62102217925, -50938.888006077774, -42465.744014471056, 65023.57155365605, 81310.70659288247, 0.152, 0.9540000000000001, 0.14200000000000002, 192.0, 0.0, 0.0, 0.0, 0.0, 0.0, 0.0, 0.0, 0.0, 0.0, 1.729711426741264E9, 0.0, 2024-10-24 00:53:46.741
158.0, -43675.44277613673, -46008.40610365941, -38216.923262706194, -50842.57433921985, -50963.83255288989, -42482.84309897937, 65124.55673510513, 81435.65284438763, 0.152, 0.9540000000000001, 0.14200000000000002, 192.0, 0.0, 0.0, 0.0, 0.0, 0.0, 0.0, 0.0, 0.0, 0.0, 1.7297114267455213E9, 0.0, 2024-10-24 00:53:46.745
159.0, -43687.64682860933, -46011.51299613869, -38222.35473660883, -50840.383868263234, -50957.08232606439, -42477.97041868811, 65114.967836733806, 81432.99298679746, 0.15, 0.9580000000000001, 0.14400000000000002, 192.0, 4.0, 176.0, 29.0, 240.0, 4.0, 128.0, 0.0, 0.0, 0.0, 1.7297114267484405E9, 0.0, 2024-10-24 00:53:46.748
160.0, -43676.44860463722, -45998.34781865452, -38206.105018389826, -50824.2459087665, -50932.78597984147, -42459.664339979216, 65011.79218432811, 81292.15464498456, 0.15, 0.9580000000000001, 0.14400000000000002, 192.0, 0.0, 0.0, 0.0, 0.0, 0.0, 0.0, 0.0, 0.0, 0.0, 1.7297114267523777E9, 0.0, 2024-10-24 00:53:46.752
161.0, -43659.34952012891, -45982.81335625808, -38194.16918685069, -50809.78433010392, -50925.70047684914, -42440.91122638121, 64926.65438969784, 81169.68943711394, 0.15, 0.9580000000000001, 0.14400000000000002, 192.0, 0.0, 0.0, 0.0, 0.0, 0.0, 0.0, 0.0, 0.0, 0.0, 1.7297114267562923E9, 0.0, 2024-10-24 00:53:46.756
162.0, -43664.3563108869, -45990.10002495051, -38208.00491666853, -50824.312963999866, -50949.28156724949, -42460.20078184614, 64999.56578011105, 81245.3277403507, 0.15, 0.9580000000000001, 0.14400000000000002, 192.0, 0.0, 0.0, 0.0, 0.0, 0.0, 0.0, 0.0, 0.0, 0.0, 1.729711426760324E9, 0.0, 2024-10-24 00:53:46.760
163.0, -43677.72265407117, -46002.594650101026, -38221.23714938607, -50836.67347868365, -50965.68774767969, -42473.433014563685, 65089.866827710495, 81358.87460218366, 0.15, 0.9580000000000001, 0.14400000000000002, 192.0, 0.0, 0.0, 0.0, 0.0, 0.0, 0.0, 0.0, 0.0, 0.0, 1.7297114267673297E9, 0.0, 2024-10-24 00:53:46.767
164.0, -43699.38149444837, -46016.40802817441, -38225.685146532676, -50836.09233332781, -50954.66833766322, -42466.3251598269, 65090.135048643955, 81364.7084074865, 0.15, 0.9580000000000001, 0.14400000000000002, 192.0, 0.0, 0.0, 0.0, 0.0, 0.0, 0.0, 0.0, 0.0, 0.0, 1.729711426772332E9, 0.0, 2024-10-24 00:53:46.772
165.0, -43689.6137821214, -46003.26520243469, -38207.33436433487, -50815.215804006555, -50932.58481414137, -42443.526380482486, 64981.52792233562, 81220.7184697054, 0.15, 0.9580000000000001, 0.14400000000000002, 192.0, 0.0, 0.0, 0.0, 0.0, 0.0, 0.0, 0.0, 0.0, 0.0, 1.7297114267753265E9, 0.0, 2024-10-24 00:53:46.775
166.0, -43670.346578400924, -45989.47417610576, -38186.12255884678, -50799.12254799873, -50907.46145337361, -42427.41077273021, 64899.40761320682, 81100.35432581358, 0.15, 0.9580000000000001, 0.14400000000000002, 192.0, 0.0, 0.0, 0.0, 0.0, 0.0, 0.0, 0.0, 0.0, 0.0, 1.7297114267784822E9, 0.0, 2024-10-24 00:53:46.778
167.0, -43667.194982432724, -45994.838594775036, -38192.17988159417, -50808.800853347886, -50923.80057857044, -42440.73241242557, 64968.60861404045, 81171.65639062601, 0.15, 0.9580000000000001, 0.14400000000000002, 192.0, 0.0, 0.0, 0.0, 0.0, 0.0, 0.0, 0.0, 0.0, 0.0, 1.7297114267823336E9, 0.0, 2024-10-24 00:53:46.782
168.0, -43678.63907559384, -46010.082484493556, -38208.206082368626, -50825.45290296709, -50947.38166897079, -42461.29601732445, 65059.58021397355, 81287.10315073766, 0.15, 0.9580000000000001, 0.14400000000000002, 192.0, 0.0, 0.0, 0.0, 0.0, 0.0, 0.0, 0.0, 0.0, 0.0, 1.7297114267854023E9, 0.0, 2024-10-24 00:53:46.785
169.0, -43696.58752639145, -46020.02901077617, -38211.625899270286, -50826.65989716767, -50946.59935791485, -42460.916037668714, 65068.56561524459, 81303.19640674548, 0.152, 0.9540000000000001, 0.14200000000000002, 192.0, 4.0, 192.0, 29.0, 208.0, 4.0, 112.0, 0.0, 0.0, 0.0, 1.7297114267883103E9, 0.0, 2024-10-24 00:53:46.788
170.0, -43687.199793720225, -46007.690847836835, -38197.32078281889, -50811.05837953787, -50932.45070367464, -42443.74989792704, 64968.42980008481, 81169.77884409176, 0.152, 0.9540000000000001, 0.14200000000000002, 192.0, 0.0, 0.0, 0.0, 0.0, 0.0, 0.0, 0.0, 0.0, 0.0, 1.7297114267923195E9, 0.0, 2024-10-24 00:53:46.792
171.0, -43667.86553476638, -45994.43626337484, -38183.35094253432, -50798.027312520426, -50925.678125104685, -42432.97635709958, 64872.04907799353, 81036.8753715605, 0.152, 0.9540000000000001, 0.14200000000000002, 192.0, 0.0, 0.0, 0.0, 0.0, 0.0, 0.0, 0.0, 0.0, 0.0, 1.729711426797362E9, 0.0, 2024-10-24 00:53:46.797
172.0, -43669.430156878254, -46009.05430424861, -38193.92331766168, -50817.42862670763, -50941.3243462234, -42457.40681378923, 64947.9779539082, 81114.05594516468, 0.152, 0.9540000000000001, 0.14200000000000002, 192.0, 0.0, 0.0, 0.0, 0.0, 0.0, 0.0, 0.0, 0.0, 0.0, 1.7297114268013988E9, 0.0, 2024-10-24 00:53:46.801
173.0, -43681.522450628574, -46026.220443990285, -38209.390724824756, -50837.00875485048, -50952.61197717333, -42481.59140128987, 65057.38974301693, 81247.04882467375, 0.152, 0.9540000000000001, 0.14200000000000002, 192.0, 0.0, 0.0, 0.0, 0.0, 0.0, 0.0, 0.0, 0.0, 0.0, 1.729711426804368E9, 0.0, 2024-10-24 00:53:46.804
174.0, -43701.2143374937, -46038.9162348409, -38217.95144295114, -50842.32847003084, -50944.900625336246, -42483.424244335205, 65066.66571696589, 81262.53858358128, 0.152, 0.9540000000000001, 0.14200000000000002, 192.0, 0.0, 0.0, 0.0, 0.0, 0.0, 0.0, 0.0, 0.0, 0.0, 1.729711426808483E9, 0.0, 2024-10-24 00:53:46.808
175.0, -43685.56811637498, -46023.78410384466, -38201.94759392114, -50825.63171692273, -50934.66352637572, -42459.172601601196, 64968.630965784905, 81130.43977385042, 0.152, 0.9540000000000001, 0.14200000000000002, 192.0, 0.0, 0.0, 0.0, 0.0, 0.0, 0.0, 0.0, 0.0, 0.0, 1.7297114268133595E9, 0.0, 2024-10-24 00:53:46.813
176.0, -43678.370854660374, -46020.23017647627, -38202.84166369935, -50827.173987290145, -50941.3243462234, -42461.340720813365, 64864.85181627892, 80990.00376343772, 0.152, 0.9540000000000001, 0.14200000000000002, 192.0, 0.0, 0.0, 0.0, 0.0, 0.0, 0.0, 0.0, 0.0, 0.0, 1.729711426818426E9, 0.0, 2024-10-24 00:53:46.818
177.0, -43677.38737790434, -46024.67817362287, -38217.973794695594, -50842.127304330745, -50961.060936577436, -42481.36788384532, 64947.26269808564, 81072.4817004778, 0.152, 0.9540000000000001, 0.14200000000000002, 192.0, 0.0, 0.0, 0.0, 0.0, 0.0, 0.0, 0.0, 0.0, 0.0, 1.7297114268223655E9, 0.0, 2024-10-24 00:53:46.822
178.0, -43688.42913966526, -46034.401182460926, -38233.75412628104, -50857.68411847164, -50975.388404773286, -42499.94218348768, 65060.80955991859, 81210.79429516724, 0.152, 0.9540000000000001, 0.14200000000000002, 192.0, 0.0, 0.0, 0.0, 0.0, 0.0, 0.0, 0.0, 0.0, 0.0, 1.729711426826373E9, 0.0, 2024-10-24 00:53:46.826
179.0, -43701.6166688939, -46038.87153135199, -38237.86684726082, -50856.56653124888, -50961.28445402199, -42497.99758172007, 65037.34022824052, 81200.24427178434, 0.152, 0.96, 0.14, 192.0, 4.0, 192.0, 30.0, 0.0, 4.0, 96.0, 0.0, 0.0, 0.0, 1.7297114268310387E9, 0.0, 2024-10-24 00:53:46.831
180.0, -43686.61864836438, -46018.330278197565, -38219.65017552974, -50833.320717015355, -50936.786942098974, -42466.90630518273, 64884.72251709968, 81017.89874051795, 0.152, 0.96, 0.14, 192.0, 0.0, 0.0, 0.0, 0.0, 0.0, 0.0, 0.0, 0.0, 0.0, 1.7297114268343935E9, 0.0, 2024-10-24 00:53:46.834
181.0, -43676.64977033732, -46009.43428390435, -38217.03502142847, -50828.53744370192, -50934.39530544225, -42457.51857251151, 64809.35243479639, 80909.96216654326, 0.152, 0.96, 0.14, 192.0, 0.0, 0.0, 0.0, 0.0, 0.0, 0.0, 0.0, 0.0, 0.0, 1.7297114268373668E9, 0.0, 2024-10-24 00:53:46.837
182.0, -43670.8606685234, -46014.888109551444, -38226.020422699505, -50842.1496560752, -50951.74025913957, -42473.38831107477, 64890.86924682489, 80997.15632166342, 0.152, 0.96, 0.14, 192.0, 0.0, 0.0, 0.0, 0.0, 0.0, 0.0, 0.0, 0.0, 0.0, 1.7297114268403735E9, 0.0, 2024-10-24 00:53:46.840
183.0, -43681.678912839765, -46030.08729578106, -38243.65594907474, -50857.304138815896, -50972.728547183106, -42491.85085199486, 64993.933140508314, 81127.8469714936, 0.152, 0.96, 0.14, 192.0, 0.0, 0.0, 0.0, 0.0, 0.0, 0.0, 0.0, 0.0, 0.0, 1.7297114268474147E9, 0.0, 2024-10-24 00:53:46.847
184.0, -43697.92863105877, -46039.81030461911, -38254.4294899022, -50857.929987660646, -50975.74603268457, -42491.29205838347, 64971.96137570875, 81115.8440847211, 0.152, 0.96, 0.14, 192.0, 0.0, 0.0, 0.0, 0.0, 0.0, 0.0, 0.0, 0.0, 0.0, 1.729711426850392E9, 0.0, 2024-10-24 00:53:46.850
185.0, -43684.964619274695, -46020.990135787746, -38236.88337050479, -50834.70652517158, -50951.36027948383, -42464.38055805928, 64866.014106990595, 80977.88911794295, 0.152, 0.96, 0.14, 192.0, 0.0, 0.0, 0.0, 0.0, 0.0, 0.0, 0.0, 0.0, 0.0, 1.7297114268544605E9, 0.0, 2024-10-24 00:53:46.854
186.0, -43668.960770244696, -46005.50037688022, -38223.20410289813, -50818.81443486386, -50938.10569502183, -42446.1191828393, 64783.98320483961, 80860.31894210803, 0.152, 0.96, 0.14, 192.0, 0.0, 0.0, 0.0, 0.0, 0.0, 0.0, 0.0, 0.0, 0.0, 1.729711426857499E9, 0.0, 2024-10-24 00:53:46.857
187.0, -43668.26786616658, -46015.33514444055, -38233.351794880844, -50831.644336181205, -50950.30974749443, -42465.676959237695, 64876.60883386241, 80952.98927461974, 0.152, 0.96, 0.14, 192.0, 0.0, 0.0, 0.0, 0.0, 0.0, 0.0, 0.0, 0.0, 0.0, 1.7297114268605208E9, 0.0, 2024-10-24 00:53:46.860
188.0, -43679.53314537205, -46029.30498472512, -38248.34981541036, -50843.960147376085, -50970.627483204305, -42482.35136060135, 64971.06730593053, 81072.25818303325, 0.152, 0.96, 0.14, 192.0, 0.0, 0.0, 0.0, 0.0, 0.0, 0.0, 0.0, 0.0, 0.0, 1.7297114268645077E9, 0.0, 2024-10-24 00:53:46.864
189.0, -43697.25807872511, -46040.3690982305, -38255.14474572477, -50840.62973745224, -50969.68870993718, -42470.52728778449, 64969.413276840845, 81079.92483138143, 0.154, 0.962, 0.14200000000000002, 192.0, 4.0, 208.0, 30.0, 16.0, 4.0, 112.0, 0.0, 0.0, 0.0, 1.729711426868467E9, 0.0, 2024-10-24 00:53:46.868
190.0, -43683.623514607374, -46028.76854285819, -38236.436335615675, -50821.63075466523, -50945.817046858916, -42444.889836894254, 64857.900423753315, 80940.06996632458, 0.154, 0.962, 0.14200000000000002, 192.0, 0.0, 0.0, 0.0, 0.0, 0.0, 0.0, 0.0, 0.0, 0.0, 1.729711426872438E9, 0.0, 2024-10-24 00:53:46.872
191.0, -43661.51763934107, -46014.619888617985, -38219.89604471875, -50807.05741728037, -50924.02409601499, -42431.277624520975, 64784.989033340105, 80834.83795342899, 0.154, 0.962, 0.14200000000000002, 192.0, 0.0, 0.0, 0.0, 0.0, 0.0, 0.0, 0.0, 0.0, 0.0, 1.7297114268764715E9, 0.0, 2024-10-24 00:53:46.876
192.0, -43656.220275905165, -46016.25156596322, -38227.965024467114, -50813.87469933924, -50945.459418947634, -42444.04047060495, 64844.24350789112, 80898.20514895978, 0.154, 0.962, 0.14200000000000002, 192.0, 0.0, 0.0, 0.0, 0.0, 0.0, 0.0, 0.0, 0.0, 0.0, 1.7297114268814332E9, 0.0, 2024-10-24 00:53:46.881
193.0, -43667.15027894382, -46027.24862423523, -38245.175867697704, -50824.380019233235, -50969.08521283689, -42458.50204926754, 64935.572735735506, 81014.5236271052, 0.154, 0.962, 0.14200000000000002, 192.0, 0.0, 0.0, 0.0, 0.0, 0.0, 0.0, 0.0, 0.0, 0.0, 1.7297114268854394E9, 0.0, 2024-10-24 00:53:46.885
194.0, -43673.22995343566, -46029.90848182541, -38243.38772814128, -50817.6968476411, -50955.20477953015, -42450.63423521927, 64928.08490134298, 81014.43422012738, 0.154, 0.962, 0.14200000000000002, 192.0, 0.0, 0.0, 0.0, 0.0, 0.0, 0.0, 0.0, 0.0, 0.0, 1.7297114268894885E9, 0.0, 2024-10-24 00:53:46.889
195.0, -43660.17653467376, -46018.7102578533, -38227.987376211575, -50805.26927772394, -50927.71213385012, -42433.55750245542, 64815.00742614358, 80868.56673581204, 0.154, 0.962, 0.14200000000000002, 192.0, 0.0, 0.0, 0.0, 0.0, 0.0, 0.0, 0.0, 0.0, 0.0, 1.729711426893473E9, 0.0, 2024-10-24 00:53:46.893
196.0, -43649.805325246496, -46010.75303682721, -38220.767762752504, -50801.35772244426, -50915.30691567742, -42430.361202998305, 64725.71220704463, 80742.8605249954, 0.154, 0.962, 0.14200000000000002, 192.0, 0.0, 0.0, 0.0, 0.0, 0.0, 0.0, 0.0, 0.0, 0.0, 1.7297114268974545E9, 0.0, 2024-10-24 00:53:46.897
197.0, -43656.10851718289, -46020.23017647627, -38237.620978071805, -50821.2954784984, -50939.60326190034, -42452.84705792035, 64786.08426881841, 80807.30060426005, 0.154, 0.962, 0.14200000000000002, 192.0, 0.0, 0.0, 0.0, 0.0, 0.0, 0.0, 0.0, 0.0, 0.0, 1.7297114269004605E9, 0.0, 2024-10-24 00:53:46.900
198.0, -43674.16872670278, -46036.39048771745, -38259.23511496009, -50844.34012703182, -50965.55363721295, -42476.00346517604, 64874.954804772715, 80921.83094284903, 0.154, 0.962, 0.14200000000000002, 192.0, 0.0, 0.0, 0.0, 0.0, 0.0, 0.0, 0.0, 0.0, 0.0, 1.7297114269044707E9, 0.0, 2024-10-24 00:53:46.904
199.0, -43686.35042743092, -46046.96286284481, -38266.76765284153, -50850.1515805902, -50967.09590758037, -42480.295000111466, 64867.98106050266, 80925.22840800625, 0.152, 0.962, 0.146, 192.0, 4.0, 192.0, 30.0, 16.0, 4.0, 144.0, 0.0, 0.0, 0.0, 1.7297114269105008E9, 0.0, 2024-10-24 00:53:46.910
200.0, -43676.02392149257, -46033.39535396044, -38253.96010326864, -50838.10399032879, -50943.425410202195, -42467.73331972758, 64735.36816064933, 80762.88768802735, 0.152, 0.962, 0.146, 192.0, 0.0, 0.0, 0.0, 0.0, 0.0, 0.0, 0.0, 0.0, 0.0, 1.729711426913535E9, 0.0, 2024-10-24 00:53:46.913
201.0, -43665.76447078759, -46025.594595145536, -38250.78615555599, -50835.846464138805, -50940.34086946736, -42465.90047668225, 64648.35281948481, 80643.66348310275, 0.152, 0.962, 0.146, 192.0, 0.0, 0.0, 0.0, 0.0, 0.0, 0.0, 0.0, 0.0, 0.0, 1.7297114269174745E9, 0.0, 2024-10-24 00:53:46.917
202.0, -43661.58469457444, -46027.53919691315, -38260.37505392731, -50846.329432288345, -50953.86367486283, -42478.08217741039, 64707.36142484682, 80706.2036640887, 0.152, 0.962, 0.146, 192.0, 0.0, 0.0, 0.0, 0.0, 0.0, 0.0, 0.0, 0.0, 0.0, 1.7297114269204812E9, 0.0, 2024-10-24 00:53:46.920
203.0, -43675.21925869218, -46040.3690982305, -38276.15538551276, -50859.24874058351, -50969.62165470382, -42487.80518624845, 64815.677978477244, 80838.45893603074, 0.152, 0.962, 0.146, 192.0, 0.0, 0.0, 0.0, 0.0, 0.0, 0.0, 0.0, 0.0, 0.0, 1.729711426924498E9, 0.0, 2024-10-24 00:53:46.924
204.0, -43690.39609317733, -46046.96286284481, -38281.09512103738, -50855.11366785928, -50965.732451168595, -42475.668189009215, 64792.76744041055, 80826.56780798052, 0.152, 0.962, 0.146, 192.0, 0.0, 0.0, 0.0, 0.0, 0.0, 0.0, 0.0, 0.0, 0.0, 1.72971142692851E9, 0.0, 2024-10-24 00:53:46.928
205.0, -43683.66821809629, -46036.79281911765, -38269.1816412427, -50842.68609794213, -50951.025003317, -42463.75470921454, 64682.707450712616, 80687.40584700178, 0.152, 0.962, 0.146, 192.0, 0.0, 0.0, 0.0, 0.0, 0.0, 0.0, 0.0, 0.0, 0.0, 1.7297114269325497E9, 0.0, 2024-10-24 00:53:46.932
206.0, -43672.447642379724, -46024.409952689406, -38258.54221088198, -50832.11372281477, -50945.459418947634, -42452.44472652015, 64600.54243809491, 80572.62963922377, 0.152, 0.962, 0.146, 192.0, 0.0, 0.0, 0.0, 0.0, 0.0, 0.0, 0.0, 0.0, 0.0, 1.7297114269375315E9, 0.0, 2024-10-24 00:53:46.937
207.0, -43675.28631392554, -46029.19322600284, -38267.125280752814, -50838.93100487364, -50955.249483019055, -42460.53605801297, 64668.53644472796, 80645.83160231491, 0.152, 0.962, 0.146, 192.0, 0.0, 0.0, 0.0, 0.0, 0.0, 0.0, 0.0, 0.0, 0.0, 1.7297114269414852E9, 0.0, 2024-10-24 00:53:46.941
208.0, -43693.05595076751, -46048.169857045395, -38285.11843503934, -50855.22542658156, -50972.66149194974, -42481.65845652324, 64784.541998451, 80788.77100810659, 0.152, 0.962, 0.146, 192.0, 0.0, 0.0, 0.0, 0.0, 0.0, 0.0, 0.0, 0.0, 0.0, 1.729711426944488E9, 0.0, 2024-10-24 00:53:46.944
209.0, -43703.87419508388, -46053.623682692494, -38287.398312973775, -50850.91153990168, -50969.55459947045, -42474.99763667556, 64787.00069034108, 80799.67865940079, 0.146, 0.964, 0.136, 192.0, 4.0, 144.0, 30.0, 32.0, 4.0, 64.0, 0.0, 0.0, 0.0, 1.7297114269485352E9, 0.0, 2024-10-24 00:53:46.948
210.0, -43690.552555388516, -46039.3185662411, -38272.24383023308, -50832.627812937244, -50953.84132311837, -42454.836363176866, 64689.43532579367, 80671.15612878276, 0.146, 0.964, 0.136, 192.0, 0.0, 0.0, 0.0, 0.0, 0.0, 0.0, 0.0, 0.0, 0.0, 1.7297114269525971E9, 0.0, 2024-10-24 00:53:46.952
211.0, -43669.296046411524, -46022.33124045506, -38256.217629458624, -50813.02533304994, -50931.28841296297, -42430.94234835415, 64608.0973277208, 80557.94454311664, 0.146, 0.964, 0.136, 192.0, 0.0, 0.0, 0.0, 0.0, 0.0, 0.0, 0.0, 0.0, 0.0, 1.7297114269566164E9, 0.0, 2024-10-24 00:53:46.956
212.0, -43669.54191560053, -46027.3156794686, -38265.62771387431, -50820.22259476454, -50947.001689315046, -42442.29703453744, 64672.716220941096, 80629.44777362917, 0.146, 0.964, 0.136, 192.0, 0.0, 0.0, 0.0, 0.0, 0.0, 0.0, 0.0, 0.0, 0.0, 1.7297114269605536E9, 0.0, 2024-10-24 00:53:46.960
213.0, -43679.26492443859, -46037.97746157378, -38281.40804545976, -50829.65503092469, -50964.95014011266, -42456.088060866365, 64771.80150411147, 80754.21521117869, 0.146, 0.964, 0.136, 192.0, 0.0, 0.0, 0.0, 0.0, 0.0, 0.0, 0.0, 0.0, 0.0, 1.7297114269645753E9, 0.0, 2024-10-24 00:53:46.964
214.0, -43688.384436176355, -46045.174723288386, -38283.37499897182, -50823.48594945502, -50961.46326797763, -42446.387403772766, 64738.564460106434, 80731.61759753438, 0.146, 0.964, 0.136, 192.0, 0.0, 0.0, 0.0, 0.0, 0.0, 0.0, 0.0, 0.0, 0.0, 1.729711426969538E9, 0.0, 2024-10-24 00:53:46.969
215.0, -43678.16968896028, -46033.93179582737, -38266.18650748569, -50808.4432254366, -50936.80929384343, -42430.5623686984, 64617.84268830332, 80581.19035735016, 0.146, 0.964, 0.136, 192.0, 0.0, 0.0, 0.0, 0.0, 0.0, 0.0, 0.0, 0.0, 0.0, 1.7297114269725661E9, 0.0, 2024-10-24 00:53:46.972
216.0, -43668.84901152242, -46026.846292835035, -38256.932885281196, -50804.71048411256, -50926.236918716066, -42429.042450075445, 64529.44153898258, 80459.14983262419, 0.146, 0.964, 0.136, 192.0, 0.0, 0.0, 0.0, 0.0, 0.0, 0.0, 0.0, 0.0, 0.0, 1.7297114269765716E9, 0.0, 2024-10-24 00:53:46.976
217.0, -43673.140546457835, -46036.05521155062, -38271.0815395214, -50820.58022267583, -50949.61684341632, -42448.2202468181, 64622.13422323874, 80554.39061574824, 0.146, 0.964, 0.136, 192.0, 0.0, 0.0, 0.0, 0.0, 0.0, 0.0, 0.0, 0.0, 0.0, 1.7297114269805887E9, 0.0, 2024-10-24 00:53:46.980
218.0, -43676.850936037416, -46045.53235119967, -38282.70444663816, -50830.63850768072, -50969.71106168164, -42461.273665579996, 64731.009570480535, 80689.59631795839, 0.146, 0.964, 0.136, 192.0, 0.0, 0.0, 0.0, 0.0, 0.0, 0.0, 0.0, 0.0, 0.0, 1.7297114269845707E9, 0.0, 2024-10-24 00:53:46.984
219.0, -43681.45539539521, -46049.89094136846, -38280.04458904798, -50828.425684979644, -50953.640157418275, -42458.613807989816, 64691.96107291712, 80659.75673911057, 0.146, 0.964, 0.136, 192.0, 0.0, 0.0, 0.0, 0.0, 0.0, 0.0, 0.0, 0.0, 0.0, 1.7297114269886055E9, 0.0, 2024-10-24 00:53:46.988
220.0, -43671.41946213478, -46041.73255464227, -38267.4829086641, -50822.65893491017, -50942.88896833527, -42449.89662765225, 64567.73007723452, 80503.2051209456, 0.15, 0.964, 0.13, 192.0, 4.0, 176.0, 30.0, 32.0, 4.0, 16.0, 0.0, 0.0, 0.0, 1.7297114269925952E9, 0.0, 2024-10-24 00:53:46.992
221.0, -43658.41074686179, -46030.981365559266, -38260.19623997167, -50819.1944145196, -50935.35643045383, -42445.11335433881, 64495.33277694378, 80399.0236400394, 0.15, 0.964, 0.13, 192.0, 0.0, 0.0, 0.0, 0.0, 0.0, 0.0, 0.0, 0.0, 0.0, 1.7297114269976127E9, 0.0, 2024-10-24 00:53:46.997
222.0, -43657.136697427835, -46036.92692958438, -38271.34976045487, -50837.56754846186, -50952.6790324067, -42467.08511913838, 64570.94872843609, 80480.74161776801, 0.15, 0.964, 0.13, 192.0, 0.0, 0.0, 0.0, 0.0, 0.0, 0.0, 0.0, 0.0, 0.0, 1.729711427000584E9, 0.0, 2024-10-24 00:53:47.000
223.0, -43675.35336915891, -46054.78597340417, -38293.03095257651, -50863.316758074376, -50978.115317596836, -42494.64482005177, 64664.110799325805, 80601.91042446023, 0.15, 0.964, 0.13, 192.0, 0.0, 0.0, 0.0, 0.0, 0.0, 0.0, 0.0, 0.0, 0.0, 1.7297114270035925E9, 0.0, 2024-10-24 00:53:47.003
224.0, -43685.70222684172, -46060.23979905126, -38296.04843807798, -50861.59567375132, -50971.94623612717, -42488.27457288201, 64651.32560149737, 80602.60332853835, 0.15, 0.964, 0.13, 192.0, 0.0, 0.0, 0.0, 0.0, 0.0, 0.0, 0.0, 0.0, 0.0, 1.7297114270086408E9, 0.0, 2024-10-24 00:53:47.008
225.0, -43671.48651736815, -46046.31466225561, -38282.72679838262, -50846.30708054389, -50959.83159063239, -42472.091909896364, 64527.54164070388, 80450.63381798672, 0.15, 0.964, 0.13, 192.0, 0.0, 0.0, 0.0, 0.0, 0.0, 0.0, 0.0, 0.0, 0.0, 1.7297114270126011E9, 0.0, 2024-10-24 00:53:47.012
226.0, -43658.187229417235, -46036.03285980617, -38273.87550757832, -50838.506321728986, -50942.82191310191, -42466.88395343828, 64438.42523556057, 80329.57677001676, 0.15, 0.964, 0.13, 192.0, 0.0, 0.0, 0.0, 0.0, 0.0, 0.0, 0.0, 0.0, 0.0, 1.7297114270166008E9, 0.0, 2024-10-24 00:53:47.016
227.0, -43663.842220764425, -46042.939548842856, -38286.68305715121, -50850.88918815723, -50956.925863853205, -42482.46311932363, 64528.01102733744, 80424.21405604054, 0.15, 0.964, 0.13, 192.0, 0.0, 0.0, 0.0, 0.0, 0.0, 0.0, 0.0, 0.0, 0.0, 1.7297114270206137E9, 0.0, 2024-10-24 00:53:47.020
228.0, -43672.939380757736, -46047.29813901164, -38298.41772299024, -50853.34788004731, -50975.164887328734, -42479.19976463315, 64616.18865921363, 80540.15255453021, 0.15, 0.964, 0.13, 192.0, 0.0, 0.0, 0.0, 0.0, 0.0, 0.0, 0.0, 0.0, 0.0, 1.729711427025695E9, 0.0, 2024-10-24 00:53:47.025
229.0, -43688.093863498434, -46051.25439778023, -38302.32927826992, -50845.99415612152, -50967.31942502492, -42466.83924994937, 64583.48805707551, 80519.09721125332, 0.15, 0.964, 0.13, 192.0, 0.0, 0.0, 0.0, 0.0, 0.0, 0.0, 0.0, 0.0, 0.0, 1.7297114270286465E9, 0.0, 2024-10-24 00:53:47.028
230.0, -43682.729444829165, -46042.82779012058, -38289.45467346367, -50830.37028674725, -50945.258253247535, -42448.73433694057, 64451.76922700039, 80360.53393608736, 0.148, 0.966, 0.13, 192.0, 4.0, 160.0, 30.0, 48.0, 4.0, 16.0, 0.0, 0.0, 0.0, 1.7297114270316443E9, 0.0, 2024-10-24 00:53:47.031
231.0, -43668.20081093322, -46034.602348161025, -38277.56354541344, -50819.86496685326, -50940.363221211825, -42436.06089783441, 64349.57705135072, 80226.11054493315, 0.148, 0.966, 0.13, 192.0, 0.0, 0.0, 0.0, 0.0, 0.0, 0.0, 0.0, 0.0, 0.0, 1.7297114270366457E9, 0.0, 2024-10-24 00:53:47.036
232.0, -43671.821793534975, -46044.57122618809, -38285.788987372995, -50830.68321116963, -50960.72566041061, -42450.81304917491, 64443.38732282965, 80324.74879321441, 0.148, 0.966, 0.13, 192.0, 0.0, 0.0, 0.0, 0.0, 0.0, 0.0, 0.0, 0.0, 0.0, 1.729711427040672E9, 0.0, 2024-10-24 00:53:47.040
233.0, -43683.26588669609, -46057.468182738805, -38292.11453105385, -50837.05345833939, -50975.85779140685, -42458.189124845165, 64546.42886476861, 80456.31116107835, 0.148, 0.966, 0.13, 192.0, 0.0, 0.0, 0.0, 0.0, 0.0, 0.0, 0.0, 0.0, 0.0, 1.7297114270446815E9, 0.0, 2024-10-24 00:53:47.044
234.0, -43698.241555481145, -46066.23006656529, -38294.2379467771, -50833.901862371196, -50970.89570413777, -42451.483601508575, 64515.02466380891, 80436.21694281304, 0.148, 0.966, 0.13, 192.0, 0.0, 0.0, 0.0, 0.0, 0.0, 0.0, 0.0, 0.0, 0.0, 1.7297114270486622E9, 0.0, 2024-10-24 00:53:47.048
235.0, -43687.199793720225, -46054.808325148624, -38278.41291170275, -50818.03212380793, -50951.56144518393, -42435.3679937563, 64385.40689771258, 80278.32421998074, 0.148, 0.966, 0.13, 192.0, 0.0, 0.0, 0.0, 0.0, 0.0, 0.0, 0.0, 0.0, 0.0, 1.7297114270536573E9, 0.0, 2024-10-24 00:53:47.053
236.0, -43674.056967980505, -46046.918159355904, -38264.42071967372, -50809.851385337286, -50934.976450798094, -42429.377726242274, 64325.951257461464, 80186.9726403919, 0.148, 0.966, 0.13, 192.0, 0.0, 0.0, 0.0, 0.0, 0.0, 0.0, 0.0, 0.0, 0.0, 1.729711427056706E9, 0.0, 2024-10-24 00:53:47.056
237.0, -43668.31256965549, -46045.57705468858, -38266.655894119256, -50811.46071093807, -50945.14649452526, -42434.49627572254, 64394.951092594994, 80261.31454245026, 0.148, 0.966, 0.13, 192.0, 0.0, 0.0, 0.0, 0.0, 0.0, 0.0, 0.0, 0.0, 0.0, 1.7297114270597389E9, 0.0, 2024-10-24 00:53:47.059
238.0, -43681.79067156204, -46062.78789791917, -38285.43135946171, -50829.36445824677, -50971.65566344925, -42456.78096494448, 64488.94017802956, 80380.98578226398, 0.148, 0.966, 0.13, 192.0, 0.0, 0.0, 0.0, 0.0, 0.0, 0.0, 0.0, 0.0, 0.0, 1.7297114270647237E9, 0.0, 2024-10-24 00:53:47.064
239.0, -43695.00055253512, -46073.49438351326, -38289.208804274655, -50832.627812937244, -50967.542942469474, -42457.51857251151, 64464.84499750674, 80366.25598266792, 0.148, 0.966, 0.13, 192.0, 0.0, 0.0, 0.0, 0.0, 0.0, 0.0, 0.0, 0.0, 0.0, 1.7297114270686743E9, 0.0, 2024-10-24 00:53:47.068
240.0, -43683.1094244849, -46059.05515659513, -38267.66172261974, -50817.450978452085, -50933.05420077494, -42437.02202284599, 64329.01344645184, 80201.36716382112, 0.148, 0.962, 0.13, 192.0, 4.0, 160.0, 30.0, 16.0, 4.0, 16.0, 0.0, 0.0, 0.0, 1.7297114270727258E9, 0.0, 2024-10-24 00:53:47.072
241.0, -43674.43694763624, -46052.75196465874, -38261.64910336126, -50816.06517029586, -50926.12515999379, -42434.988014100556, 64263.5675386867, 80103.57828182916, 0.148, 0.962, 0.13, 192.0, 0.0, 0.0, 0.0, 0.0, 0.0, 0.0, 0.0, 0.0, 0.0, 1.729711427076694E9, 0.0, 2024-10-24 00:53:47.076
242.0, -43677.14150871534, -46059.61395020651, -38274.05432153396, -50830.37028674725, -50946.308785236935, -42449.673110207696, 64333.05911219825, 80177.58490772068, 0.148, 0.962, 0.13, 192.0, 0.0, 0.0, 0.0, 0.0, 0.0, 0.0, 0.0, 0.0, 0.0, 1.729711427081694E9, 0.0, 2024-10-24 00:53:47.081
243.0, -43690.10552049941, -46076.757738203734, -38294.52851945502, -50850.64331896822, -50973.86848615033, -42468.31446508342, 64423.8071946868, 80292.22700503195, 0.148, 0.962, 0.13, 192.0, 0.0, 0.0, 0.0, 0.0, 0.0, 0.0, 0.0, 0.0, 0.0, 1.7297114270847125E9, 0.0, 2024-10-24 00:53:47.084
244.0, -43698.532128159066, -46081.96569466182, -38295.377885744325, -50852.6549759692, -50968.16879131422, -42468.35916857233, 64414.687682949036, 80291.6011561872, 0.148, 0.962, 0.13, 192.0, 0.0, 0.0, 0.0, 0.0, 0.0, 0.0, 0.0, 0.0, 0.0, 1.729711427087679E9, 0.0, 2024-10-24 00:53:47.087
245.0, -43690.50785189961, -46067.07943285459, -38281.251583248566, -50840.517978729964, -50951.29322425047, -42455.77513644399, 64306.05820489624, 80154.16027953151, 0.148, 0.962, 0.13, 192.0, 0.0, 0.0, 0.0, 0.0, 0.0, 0.0, 0.0, 0.0, 0.0, 1.7297114270927608E9, 0.0, 2024-10-24 00:53:47.092
246.0, -43678.70613082721, -46052.19317104735, -38272.48969942209, -50833.34306875981, -50941.346697967856, -42450.857752663826, 64218.7075875649, 80036.92537986343, 0.148, 0.962, 0.13, 192.0, 0.0, 0.0, 0.0, 0.0, 0.0, 0.0, 0.0, 0.0, 0.0, 1.7297114270967245E9, 0.0, 2024-10-24 00:53:47.096
247.0, -43677.81206104899, -46056.79763040515, -38282.54798442698, -50849.14575208971, -50954.31070975193, -42475.39996807575, 64282.410059262525, 80110.28380516575, 0.148, 0.962, 0.13, 192.0, 0.0, 0.0, 0.0, 0.0, 0.0, 0.0, 0.0, 0.0, 0.0, 1.7297114271007867E9, 0.0, 2024-10-24 00:53:47.100
248.0, -43693.05595076751, -46073.91906665791, -38300.85406313587, -50869.12821163276, -50973.287340794486, -42492.81197700644, 64362.71987709044, 80219.87440823013, 0.148, 0.962, 0.13, 192.0, 0.0, 0.0, 0.0, 0.0, 0.0, 0.0, 0.0, 0.0, 0.0, 1.7297114271047125E9, 0.0, 2024-10-24 00:53:47.104
249.0, -43714.44657021124, -46088.67121799842, -38313.72866794213, -50873.21858086808, -50981.46807926513, -42488.76631126003, 64353.868586286146, 80222.75778326485, 0.148, 0.962, 0.13, 192.0, 0.0, 0.0, 0.0, 0.0, 0.0, 0.0, 0.0, 0.0, 0.0, 1.729711427108786E9, 0.0, 2024-10-24 00:53:47.108
250.0, -43704.321229972986, -46071.46037476783, -38301.74813291409, -50855.47129577056, -50971.2309803046, -42467.979188916586, 64224.92137252347, 80066.0497028887, 0.146, 0.962, 0.132, 192.0, 4.0, 144.0, 30.0, 16.0, 4.0, 32.0, 0.0, 0.0, 0.0, 1.7297114271127095E9, 0.0, 2024-10-24 00:53:47.112
251.0, -43693.65944786781, -46056.127078071484, -38291.62279267583, -50843.177836320145, -50953.19312252917, -42454.79165968796, 64141.325848260625, 79952.27932361119, 0.146, 0.962, 0.132, 192.0, 0.0, 0.0, 0.0, 0.0, 0.0, 0.0, 0.0, 0.0, 0.0, 1.7297114271157308E9, 0.0, 2024-10-24 00:53:47.115
252.0, -43698.62153513689, -46066.81121192112, -38304.944432371194, -50857.32649056036, -50971.745070427074, -42474.08121515289, 64228.2070789584, 80047.83303115763, 0.146, 0.962, 0.132, 192.0, 0.0, 0.0, 0.0, 0.0, 0.0, 0.0, 0.0, 0.0, 0.0, 1.7297114271207235E9, 0.0, 2024-10-24 00:53:47.120
253.0, -43708.098674785935, -46078.21060159333, -38318.78016218903, -50866.44600229812, -50989.31354156895, -42487.134633914786, 64323.60432429366, 80174.16509081902, 0.146, 0.962, 0.132, 192.0, 0.0, 0.0, 0.0, 0.0, 0.0, 0.0, 0.0, 0.0, 0.0, 1.7297114271247232E9, 0.0, 2024-10-24 00:53:47.124
254.0, -43713.37368647739, -46082.12215687301, -38314.309813297965, -50857.17002834917, -50970.60513145985, -42471.57781977389, 64288.86971341011, 80153.08739579766, 0.146, 0.962, 0.132, 192.0, 0.0, 0.0, 0.0, 0.0, 0.0, 0.0, 0.0, 0.0, 0.0, 1.7297114271287763E9, 0.0, 2024-10-24 00:53:47.128
255.0, -43698.62153513689, -46065.91714214291, -38293.410932232255, -50833.65599318218, -50937.837474088374, -42445.22511306109, 64143.44926398388, 79980.93426000289, 0.146, 0.962, 0.132, 192.0, 0.0, 0.0, 0.0, 0.0, 0.0, 0.0, 0.0, 0.0, 0.0, 1.7297114271328833E9, 0.0, 2024-10-24 00:53:47.132
0.0, -43693.10065425643, -46065.872438654, -38292.29334500949, -50829.58797569132, -50945.884102092285, -42443.436973504664, 64046.37563781448, 79853.43990962981, 0.146, 0.962, 0.132, 192.0, 0.0, 0.0, 0.0, 0.0, 0.0, 0.0, 0.0, 0.0, 0.0, 1.729711427136888E9, 0.0, 2024-10-24 00:53:47.136
1.0, -43706.10936952941, -46086.10076738605, -38317.90844415527, -50849.01164162298, -50983.6809019662, -42464.31350282592, 64158.78256068022, 79973.96051573283, 0.146, 0.962, 0.132, 192.0, 0.0, 0.0, 0.0, 0.0, 0.0, 0.0, 0.0, 0.0, 0.0, 1.7297114271417632E9, 0.0, 2024-10-24 00:53:47.141
2.0, -43710.400904464834, -46091.800462222156, -38321.14944710129, -50851.67149921316, -50981.84805892087, -42467.95683717213, 64271.16713180151, 80116.38583140205, 0.146, 0.962, 0.132, 192.0, 0.0, 0.0, 0.0, 0.0, 0.0, 0.0, 0.0, 0.0, 0.0, 1.7297114271449003E9, 0.0, 2024-10-24 00:53:47.144
3.0, -43717.77698013508, -46095.06381691263, -38316.902615654784, -50841.72497293055, -50964.547808712465, -42455.28339806598, 64235.18082322846, 80091.53069156775, 0.146, 0.962, 0.132, 192.0, 0.0, 0.0, 0.0, 0.0, 0.0, 0.0, 0.0, 0.0, 0.0, 1.729711427148838E9, 0.0, 2024-10-24 00:53:47.148
4.0, -43708.81393060851, -46082.61389525102, -38304.56445271545, -50826.10110355629, -50958.71400340963, -42438.340775768855, 64130.17232777743, 79959.99067544827, 0.15, 0.962, 0.13, 192.0, 4.0, 176.0, 30.0, 16.0, 4.0, 16.0, 0.0, 0.0, 0.0, 1.729711427152939E9, 0.0, 2024-10-24 00:53:47.152
5.0, -43692.430101922764, -46066.85591541004, -38291.35457174237, -50816.0428185514, -50945.48177069209, -42428.95304309762, 64038.99956214423, 79840.87822924594, 0.15, 0.962, 0.13, 192.0, 0.0, 0.0, 0.0, 0.0, 0.0, 0.0, 0.0, 0.0, 0.0, 1.7297114271568089E9, 0.0, 2024-10-24 00:53:47.156
6.0, -43692.05012226703, -46074.09788061355, -38297.94833635668, -50829.85619662478, -50950.68972715017, -42445.046299105445, 64123.019769551734, 79932.65449197943, 0.15, 0.962, 0.13, 192.0, 0.0, 0.0, 0.0, 0.0, 0.0, 0.0, 0.0, 0.0, 0.0, 1.729711427161178E9, 0.0, 2024-10-24 00:53:47.161
7.0, -43700.72259911568, -46087.62068600902, -38312.20874931917, -50843.468408998066, -50970.09104133738, -42461.74305221356, 64221.90388702201, 80059.23242082982, 0.15, 0.962, 0.13, 192.0, 0.0, 0.0, 0.0, 0.0, 0.0, 0.0, 0.0, 0.0, 0.0, 1.7297114271650236E9, 0.0, 2024-10-24 00:53:47.165
8.0, -43712.18904402126, -46092.44866281136, -38314.62273772034, -50840.048592096406, -50962.55850345594, -42452.91411315371, 64186.05168891569, 80034.84666762908, 0.15, 0.962, 0.13, 192.0, 0.0, 0.0, 0.0, 0.0, 0.0, 0.0, 0.0, 0.0, 0.0, 1.7297114271688223E9, 0.0, 2024-10-24 00:53:47.168
9.0, -43699.9626398042, -46075.46133702533, -38298.84240613489, -50825.63171692273, -50944.67710789169, -42439.57012171389, 64052.23179486177, 79873.53412789514, 0.15, 0.962, 0.13, 192.0, 0.0, 0.0, 0.0, 0.0, 0.0, 0.0, 0.0, 0.0, 0.0, 1.7297114271718984E9, 0.0, 2024-10-24 00:53:47.171
10.0, -43688.89852629883, -46060.68683394037, -38289.25350776357, -50816.66866739615, -50938.08334327738, -42428.23778727505, 63953.57119483605, 79743.49167865416, 0.15, 0.962, 0.13, 192.0, 0.0, 0.0, 0.0, 0.0, 0.0, 0.0, 0.0, 0.0, 0.0, 1.7297114271770673E9, 0.0, 2024-10-24 00:53:47.177
11.0, -43701.30374447152, -46072.91323815742, -38311.649955707784, -50838.95335661809, -50970.202800059655, -42455.59632248835, 64034.90919290891, 79830.64113028541, 0.15, 0.962, 0.13, 192.0, 0.0, 0.0, 0.0, 0.0, 0.0, 0.0, 0.0, 0.0, 0.0, 1.7297114271808395E9, 0.0, 2024-10-24 00:53:47.180
12.0, -43715.65356441183, -46083.39620630696, -38326.58092100393, -50854.5548742479, -50983.18916358819, -42470.50493604004, 64137.23547902531, 79961.01885569321, 0.15, 0.962, 0.13, 192.0, 0.0, 0.0, 0.0, 0.0, 0.0, 0.0, 0.0, 0.0, 0.0, 1.7297114271848593E9, 0.0, 2024-10-24 00:53:47.184
13.0, -43732.8197041535, -46094.68383725689, -38329.64310999431, -50860.56749350637, -50971.45449774915, -42476.07052040941, 64133.145109789984, 79968.01495170772, 0.15, 0.962, 0.13, 192.0, 0.0, 0.0, 0.0, 0.0, 0.0, 0.0, 0.0, 0.0, 0.0, 1.729711427188856E9, 0.0, 2024-10-24 00:53:47.188
14.0, -43713.17252077729, -46068.71111019982, -38309.05715335097, -50837.96987986206, -50954.958910341134, -42451.72947069758, 64010.165811796884, 79817.92298769033, 0.15, 0.9560000000000001, 0.136, 192.0, 4.0, 176.0, 29.0, 224.0, 4.0, 64.0, 0.0, 0.0, 0.0, 1.7297114271949263E9, 0.0, 2024-10-24 00:53:47.194
15.0, -43695.13466300186, -46048.460429723316, -38298.75299915708, -50826.056400067384, -50954.89185510777, -42438.85486589133, 63893.46735399573, 79672.43548303074, 0.15, 0.9560000000000001, 0.136, 192.0, 0.0, 0.0, 0.0, 0.0, 0.0, 0.0, 0.0, 0.0, 0.0, 1.729711427197984E9, 0.0, 2024-10-24 00:53:47.197
16.0, -43700.49908167113, -46060.26215079572, -38312.09699059689, -50846.01650786597, -50962.49144822257, -42464.96170341512, 63975.74412533571, 79762.62477190791, 0.15, 0.9560000000000001, 0.136, 192.0, 0.0, 0.0, 0.0, 0.0, 0.0, 0.0, 0.0, 0.0, 0.0, 1.7297114272009706E9, 0.0, 2024-10-24 00:53:47.200
17.0, -43717.64286966835, -46078.165898104424, -38327.92202567125, -50865.57428426437, -50980.73047169811, -42490.64385779427, 64083.9265684994, 79898.38926772944, 0.15, 0.9560000000000001, 0.136, 192.0, 0.0, 0.0, 0.0, 0.0, 0.0, 0.0, 0.0, 0.0, 0.0, 1.7297114272050312E9, 0.0, 2024-10-24 00:53:47.205
18.0, -43729.75751516313, -46084.20086910735, -38330.49247628361, -50861.3051010734, -50978.584704230394, -42480.78673848948, 64073.26478639422, 79899.03746831864, 0.15, 0.9560000000000001, 0.136, 192.0, 0.0, 0.0, 0.0, 0.0, 0.0, 0.0, 0.0, 0.0, 0.0, 1.729711427208992E9, 0.0, 2024-10-24 00:53:47.208
19.0, -43717.6205179239, -46067.325302043595, -38316.67909821023, -50840.76384791897, -50967.38648025829, -42454.85871492133, 63921.56349677605, 79719.35179464243, 0.15, 0.9560000000000001, 0.136, 192.0, 0.0, 0.0, 0.0, 0.0, 0.0, 0.0, 0.0, 0.0, 0.0, 1.7297114272129097E9, 0.0, 2024-10-24 00:53:47.212
20.0, -43704.83532009546, -46058.60812170603, -38304.609156204366, -50831.800798392396, -50951.89672135076, -42450.63423521927, 63830.05545497602, 79597.9818222501, 0.15, 0.9560000000000001, 0.136, 192.0, 0.0, 0.0, 0.0, 0.0, 0.0, 0.0, 0.0, 0.0, 0.0, 1.7297114272169948E9, 0.0, 2024-10-24 00:53:47.216
21.0, -43711.33967773196, -46069.292255555665, -38315.89678715429, -50847.13409508873, -50970.44866924866, -42473.25420060804, 63906.49842101317, 79681.35382906841, 0.15, 0.9560000000000001, 0.136, 192.0, 0.0, 0.0, 0.0, 0.0, 0.0, 0.0, 0.0, 0.0, 0.0, 1.7297114272209885E9, 0.0, 2024-10-24 00:53:47.220
22.0, -43726.22593953919, -46089.60999126554, -38332.81705770696, -50864.79197320843, -50987.72656771262, -42488.34162811538, 64013.13859380944, 79813.5420457771, 0.15, 0.9560000000000001, 0.136, 192.0, 0.0, 0.0, 0.0, 0.0, 0.0, 0.0, 0.0, 0.0, 0.0, 1.7297114272251587E9, 0.0, 2024-10-24 00:53:47.225
23.0, -43738.54175073406, -46098.61774428103, -38335.20869436368, -50859.69577547262, -50978.674111208216, -42478.30569485494, 64014.300884521115, 79820.62754876942, 0.15, 0.9560000000000001, 0.136, 192.0, 0.0, 0.0, 0.0, 0.0, 0.0, 0.0, 0.0, 0.0, 0.0, 1.7297114272280705E9, 0.0, 2024-10-24 00:53:47.228
24.0, -43720.28037551408, -46076.891848670464, -38314.71214469816, -50831.30906001438, -50950.980299828094, -42444.64396770525, 63879.519865455615, 79655.98459911163, 0.148, 0.9560000000000001, 0.136, 192.0, 4.0, 160.0, 29.0, 224.0, 4.0, 64.0, 0.0, 0.0, 0.0, 1.729711427232106E9, 0.0, 2024-10-24 00:53:47.232
25.0, -43703.09188402795, -46064.97836887579, -38304.29623178199, -50823.79887387739, -50948.09692479336, -42441.134743825765, 63794.04679465852, 79538.19090583216, 0.148, 0.9560000000000001, 0.136, 192.0, 0.0, 0.0, 0.0, 0.0, 0.0, 0.0, 0.0, 0.0, 0.0, 1.7297114272371745E9, 0.0, 2024-10-24 00:53:47.237
26.0, -43709.88681434236, -46077.45064228185, -38319.853045922886, -50840.83090315234, -50972.81795416093, -42463.19591560315, 63879.63162417789, 79629.60954065438, 0.148, 0.9560000000000001, 0.136, 192.0, 0.0, 0.0, 0.0, 0.0, 0.0, 0.0, 0.0, 0.0, 0.0, 1.7297114272411249E9, 0.0, 2024-10-24 00:53:47.241
27.0, -43723.00728833763, -46097.99189543628, -38337.84620020941, -50858.46642952757, -50996.51080328355, -42481.41258733423, 63988.641081886424, 79764.88229809789, 0.148, 0.9560000000000001, 0.136, 192.0, 0.0, 0.0, 0.0, 0.0, 0.0, 0.0, 0.0, 0.0, 0.0, 1.7297114272450743E9, 0.0, 2024-10-24 00:53:47.245
28.0, -43726.695326172754, -46100.338828604086, -38333.37585131834, -50850.598615479306, -50983.81501243294, -42469.34264532836, 63957.885081515924, 79744.09517575445, 0.148, 0.9560000000000001, 0.136, 192.0, 0.0, 0.0, 0.0, 0.0, 0.0, 0.0, 0.0, 0.0, 0.0, 1.7297114272489433E9, 0.0, 2024-10-24 00:53:47.248
29.0, -43715.9664888342, -46089.98997092128, -38316.567339487956, -50836.36055426128, -50955.98709058608, -42455.1716393437, 63830.68130382077, 79587.72237154513, 0.148, 0.9560000000000001, 0.136, 192.0, 0.0, 0.0, 0.0, 0.0, 0.0, 0.0, 0.0, 0.0, 0.0, 1.729711427253158E9, 0.0, 2024-10-24 00:53:47.253
30.0, -43707.38341896336, -46083.86559294052, -38309.5935952179, -50833.00779259298, -50952.00848007303, -42453.718775954105, 63759.31218377497, 79481.73039933806, 0.148, 0.9560000000000001, 0.136, 192.0, 0.0, 0.0, 0.0, 0.0, 0.0, 0.0, 0.0, 0.0, 0.0, 1.7297114272582502E9, 0.0, 2024-10-24 00:53:47.258
31.0, -43717.821683623995, -46102.37283734952, -38329.5984065054, -50861.26039758449, -50983.144460099276, -42488.878069982304, 63857.704562867235, 79584.01198196555, 0.148, 0.9560000000000001, 0.136, 192.0, 0.0, 0.0, 0.0, 0.0, 0.0, 0.0, 0.0, 0.0, 0.0, 1.7297114272615051E9, 0.0, 2024-10-24 00:53:47.261
32.0, -43725.51068371662, -46110.06183744215, -38338.91908394326, -50867.18360986515, -50987.391291545784, -42478.037473921475, 63964.27768043014, 79716.28960565205, 0.148, 0.9560000000000001, 0.136, 192.0, 0.0, 0.0, 0.0, 0.0, 0.0, 0.0, 0.0, 0.0, 0.0, 1.7297114272650845E9, 0.0, 2024-10-24 00:53:47.265
33.0, -43732.66324194232, -46110.01713395323, -38337.06388915347, -50860.88041792875, -50971.85682914935, -42466.302808082444, 63919.41772930834, 79679.25276508961, 0.148, 0.9560000000000001, 0.136, 192.0, 0.0, 0.0, 0.0, 0.0, 0.0, 0.0, 0.0, 0.0, 0.0, 1.7297114272689357E9, 0.0, 2024-10-24 00:53:47.268
34.0, -43724.951890105236, -46099.44475882587, -38328.81609544946, -50852.900845158205, -50965.531285468496, -42463.084156880876, 63796.751355737615, 79527.68558593818, 0.138, 0.966, 0.126, 192.0, 4.0, 80.0, 30.0, 48.0, 3.0, 240.0, 0.0, 0.0, 0.0, 1.729711427273E9, 0.0, 2024-10-24 00:53:47.273
35.0, -43714.42421846679, -46090.43700581038, -38323.474028524644, -50849.63749046773, -50972.63914020528, -42463.59824700335, 63716.642703609796, 79417.64794798469, 0.138, 0.966, 0.126, 192.0, 0.0, 0.0, 0.0, 0.0, 0.0, 0.0, 0.0, 0.0, 0.0, 1.7297114272784517E9, 0.0, 2024-10-24 00:53:47.278
36.0, -43723.7225441602, -46099.422407081416, -38341.06485141097, -50866.51305753148, -50991.70517822566, -42481.0773111674, 63796.99722492662, 79505.22208276059, 0.138, 0.966, 0.126, 192.0, 0.0, 0.0, 0.0, 0.0, 0.0, 0.0, 0.0, 0.0, 0.0, 1.7297114272809591E9, 0.0, 2024-10-24 00:53:47.280
37.0, -43736.910073388826, -46110.50887233125, -38348.575037547955, -50878.09126115934, -50984.2843990665, -42493.86250899584, 63911.259342582154, 79645.7027966622, 0.138, 0.966, 0.126, 192.0, 0.0, 0.0, 0.0, 0.0, 0.0, 0.0, 0.0, 0.0, 0.0, 1.7297114272852082E9, 0.0, 2024-10-24 00:53:47.285
38.0, -43745.426088026295, -46109.81596825313, -38347.792726492014, -50868.256493599, -50982.026872876515, -42482.75369200155, 63887.07475508151, 79631.66590114425, 0.138, 0.966, 0.126, 192.0, 0.0, 0.0, 0.0, 0.0, 0.0, 0.0, 0.0, 0.0, 0.0, 1.7297114272889788E9, 0.0, 2024-10-24 00:53:47.288
39.0, -43732.23855879767, -46093.16391863393, -38333.129982129336, -50853.37023179176, -50966.60416920235, -42475.91405819822, 63754.61831743936, 79469.97338175456, 0.138, 0.966, 0.126, 192.0, 0.0, 0.0, 0.0, 0.0, 0.0, 0.0, 0.0, 0.0, 0.0, 1.7297114272920463E9, 0.0, 2024-10-24 00:53:47.292
40.0, -43723.70019241574, -46084.98318016329, -38324.21163609167, -50846.24002531052, -50955.875331863805, -42469.029720905986, 63689.015947463035, 79372.5868311628, 0.138, 0.966, 0.126, 192.0, 0.0, 0.0, 0.0, 0.0, 0.0, 0.0, 0.0, 0.0, 0.0, 1.7297114272959783E9, 0.0, 2024-10-24 00:53:47.295
41.0, -43727.99172735116, -46089.632343009995, -38331.25243559509, -50847.447019511106, -50965.06189883494, -42461.00544464654, 63769.66104145778, 79460.69740780562, 0.138, 0.966, 0.126, 192.0, 0.0, 0.0, 0.0, 0.0, 0.0, 0.0, 0.0, 0.0, 0.0, 1.729711427300171E9, 0.0, 2024-10-24 00:53:47.300
42.0, -43744.68848045927, -46107.379628107505, -38352.911275972285, -50865.68604298664, -50995.41556780524, -42483.44659607966, 63877.21763577672, 79595.03139198202, 0.138, 0.966, 0.126, 192.0, 0.0, 0.0, 0.0, 0.0, 0.0, 0.0, 0.0, 0.0, 0.0, 1.7297114273041081E9, 0.0, 2024-10-24 00:53:47.304
43.0, -43753.964454408226, -46108.228994396806, -38350.653749782294, -50857.03591788244, -50983.09975661037, -42475.35526458684, 63842.59478361545, 79567.3822840908, 0.138, 0.966, 0.126, 192.0, 0.0, 0.0, 0.0, 0.0, 0.0, 0.0, 0.0, 0.0, 0.0, 1.7297114273091688E9, 0.0, 2024-10-24 00:53:47.309
44.0, -43739.54757923455, -46093.65565701195, -38332.81705770696, -50838.61808045126, -50963.340814511874, -42457.80914518942, 63712.26176169655, 79406.47207575705, 0.14400000000000002, 0.9580000000000001, 0.122, 192.0, 4.0, 128.0, 29.0, 240.0, 3.0, 208.0, 0.0, 0.0, 0.0, 1.7297114273131764E9, 0.0, 2024-10-24 00:53:47.313
45.0, -43725.68949767226, -46084.625552252, -38322.26703432405, -50829.744437902504, -50950.44385796117, -42450.79069743046, 63656.33769706937, 79318.67442353659, 0.14400000000000002, 0.9580000000000001, 0.122, 192.0, 0.0, 0.0, 0.0, 0.0, 0.0, 0.0, 0.0, 0.0, 0.0, 1.7297114273171089E9, 0.0, 2024-10-24 00:53:47.317
46.0, -43724.99659359415, -46093.342732589575, -38330.38071756133, -50842.417877008666, -50970.627483204305, -42467.84507844986, 63728.600886893386, 79397.19610180809, 0.14400000000000002, 0.9580000000000001, 0.122, 192.0, 0.0, 0.0, 0.0, 0.0, 0.0, 0.0, 0.0, 0.0, 0.0, 1.7297114273200576E9, 0.0, 2024-10-24 00:53:47.320
47.0, -43739.838151912474, -46112.58758456559, -38347.21158113618, -50859.606368494795, -50988.9335619132, -42485.391197847275, 63824.31105665101, 79521.47180097959, 0.14400000000000002, 0.9580000000000001, 0.122, 192.0, 0.0, 0.0, 0.0, 0.0, 0.0, 0.0, 0.0, 0.0, 0.0, 1.7297114273241613E9, 0.0, 2024-10-24 00:53:47.324
48.0, -43748.778849694594, -46118.51079684625, -38345.848124724405, -50854.59957773681, -50982.33979729889, -42479.512689055526, 63786.24603584362, 79494.22502448858, 0.14400000000000002, 0.9580000000000001, 0.122, 192.0, 0.0, 0.0, 0.0, 0.0, 0.0, 0.0, 0.0, 0.0, 0.0, 1.72971142732808E9, 0.0, 2024-10-24 00:53:47.328
49.0, -43733.400849509344, -46098.59539253657, -38324.099877369394, -50833.36542050427, -50957.551712697954, -42455.21634283261, 63657.29882208096, 79334.70062431105, 0.14400000000000002, 0.9580000000000001, 0.122, 192.0, 0.0, 0.0, 0.0, 0.0, 0.0, 0.0, 0.0, 0.0, 0.0, 1.7297114273320603E9, 0.0, 2024-10-24 00:53:47.332
50.0, -43719.83334062497, -46084.71495922982, -38312.02993536353, -50824.98351633352, -50948.36514572682, -42446.00742411702, 63583.873341545266, 79229.53566664884, 0.14400000000000002, 0.9580000000000001, 0.122, 192.0, 0.0, 0.0, 0.0, 0.0, 0.0, 0.0, 0.0, 0.0, 0.0, 1.7297114273372605E9, 0.0, 2024-10-24 00:53:47.337
51.0, -43724.97424184969, -46095.06381691263, -38327.027955893034, -50840.47327524106, -50970.67218669322, -42460.64781673525, 63692.39106087579, 79344.64715059366, 0.14400000000000002, 0.9580000000000001, 0.122, 192.0, 0.0, 0.0, 0.0, 0.0, 0.0, 0.0, 0.0, 0.0, 0.0, 1.729711427341032E9, 0.0, 2024-10-24 00:53:47.341
52.0, -43737.111239088925, -46111.46999734283, -38344.43996482372, -50857.63941498273, -50988.441823535184, -42478.90919195524, 63784.74846896512, 79464.47485261856, 0.14400000000000002, 0.9580000000000001, 0.122, 192.0, 0.0, 0.0, 0.0, 0.0, 0.0, 0.0, 0.0, 0.0, 0.0, 1.7297114273579671E9, 0.0, 2024-10-24 00:53:47.357
53.0, -43754.70206197525, -46123.47288411533, -38352.17366840526, -50860.366327806274, -50985.536096756, -42476.91988669871, 63771.359774036384, 79459.57982058285, 0.14400000000000002, 0.9580000000000001, 0.122, 192.0, 0.0, 0.0, 0.0, 0.0, 0.0, 0.0, 0.0, 0.0, 0.0, 1.7297114273579926E9, 0.0, 2024-10-24 00:53:47.357
54.0, -43744.576721736994, -46105.636192039994, -38337.22035136466, -50840.76384791897, -50964.480753479096, -42454.277569565485, 63655.86831043581, 79313.57822580078, 0.148, 0.964, 0.128, 192.0, 4.0, 160.0, 30.0, 32.0, 4.0, 0.0, 0.0, 0.0, 0.0, 1.7297114273580072E9, 0.0, 2024-10-24 00:53:47.358
55.0, -43727.65645118433, -46091.241668610775, -38325.61979599235, -50833.320717015355, -50957.10467780885, -42449.76251718551, 63571.93751000614, 79197.192692422, 0.148, 0.964, 0.128, 192.0, 0.0, 0.0, 0.0, 0.0, 0.0, 0.0, 0.0, 0.0, 0.0, 1.7297114273580203E9, 0.0, 2024-10-24 00:53:47.358
56.0, -43725.913015116814, -46097.16488089143, -38334.40403156329, -50846.84352241082, -50971.34273902688, -42464.64877899275, 63654.50485402404, 79286.35380105423, 0.148, 0.964, 0.128, 192.0, 0.0, 0.0, 0.0, 0.0, 0.0, 0.0, 0.0, 0.0, 0.0, 1.72971142736017E9, 0.0, 2024-10-24 00:53:47.360
57.0, -43746.208399082236, -46116.58854682309, -38359.549744075506, -50867.585941265344, -51002.5904777754, -42485.100625169354, 63765.03423035553, 79425.20283761059, 0.148, 0.964, 0.128, 192.0, 0.0, 0.0, 0.0, 0.0, 0.0, 0.0, 0.0, 0.0, 0.0, 1.7297114273644552E9, 0.0, 2024-10-24 00:53:47.364
58.0, -43760.80408821155, -46123.539939348695, -38364.53418308904, -50867.45183079861, -50999.6847509962, -42483.33483735738, 63727.1927269927, 79396.3914390077, 0.148, 0.964, 0.128, 192.0, 0.0, 0.0, 0.0, 0.0, 0.0, 0.0, 0.0, 0.0, 0.0, 1.7297114273690937E9, 0.0, 2024-10-24 00:53:47.369
59.0, -43753.56212300803, -46111.55940432065, -38351.21254339368, -50855.24777832601, -50973.354396027855, -42468.40387206124, 63616.97627508358, 79256.69303616203, 0.148, 0.964, 0.128, 192.0, 0.0, 0.0, 0.0, 0.0, 0.0, 0.0, 0.0, 0.0, 0.0, 1.7297114273730688E9, 0.0, 2024-10-24 00:53:47.373
60.0, -43736.619500710905, -46094.41561632343, -38330.82775245044, -50840.20505430759, -50942.33017472389, -42447.773211928994, 63538.76752123446, 79145.71662494143, 0.148, 0.964, 0.128, 192.0, 0.0, 0.0, 0.0, 0.0, 0.0, 0.0, 0.0, 0.0, 0.0, 1.729711427376076E9, 0.0, 2024-10-24 00:53:47.376
61.0, -43744.174390336804, -46107.871366485524, -38348.03859568103, -50860.92512141766, -50971.34273902688, -42475.62348552031, 63633.87419389179, 79246.61239941268, 0.148, 0.964, 0.128, 192.0, 0.0, 0.0, 0.0, 0.0, 0.0, 0.0, 0.0, 0.0, 0.0, 1.729711427380128E9, 0.0, 2024-10-24 00:53:47.380
62.0, -43760.28999808908, -46126.71388706135, -38368.37868313536, -50879.052386170915, -50997.71779748414, -42496.36590437483, 63746.52698594654, 79384.52266270193, 0.148, 0.964, 0.128, 192.0, 0.0, 0.0, 0.0, 0.0, 0.0, 0.0, 0.0, 0.0, 0.0, 1.7297114273863108E9, 0.0, 2024-10-24 00:53:47.386
63.0, -43765.922637691816, -46127.56325335065, -38358.61097080839, -50868.97174942157, -50980.059919364445, -42484.74299725807, 63727.14802350379, 79370.485767184, 0.148, 0.964, 0.128, 192.0, 0.0, 0.0, 0.0, 0.0, 0.0, 0.0, 0.0, 0.0, 0.0, 1.729711427389116E9, 0.0, 2024-10-24 00:53:47.389
64.0, -43750.254064828645, -46107.111407174045, -38337.108592642384, -50847.17879857765, -50956.61293943083, -42463.441784792165, 63598.893713819234, 79209.12852396113, 0.148, 0.966, 0.13, 192.0, 4.0, 160.0, 30.0, 48.0, 4.0, 16.0, 0.0, 0.0, 0.0, 1.7297114273921056E9, 0.0, 2024-10-24 00:53:47.392
65.0, -43731.880930886386, -46087.955962175845, -38323.56343550247, -50832.20312979259, -50952.299052750954, -42451.14832534175, 63510.4925644985, 79087.64679284654, 0.148, 0.966, 0.13, 192.0, 0.0, 0.0, 0.0, 0.0, 0.0, 0.0, 0.0, 0.0, 0.0, 1.7297114273981297E9, 0.0, 2024-10-24 00:53:47.398
66.0, -43736.820666411004, -46099.37770359251, -38333.48761004062, -50847.670536955666, -50966.8276866469, -42474.28238085299, 63577.927777520155, 79161.6310669936, 0.148, 0.966, 0.13, 192.0, 0.0, 0.0, 0.0, 0.0, 0.0, 0.0, 0.0, 0.0, 0.0, 1.7297114274012644E9, 0.0, 2024-10-24 00:53:47.401
67.0, -43747.90713166084, -46112.94521247688, -38346.63043578034, -50858.66759522767, -50987.65951247925, -42487.894593226265, 63685.01498520553, 79296.30032733684, 0.148, 0.966, 0.13, 192.0, 0.0, 0.0, 0.0, 0.0, 0.0, 0.0, 0.0, 0.0, 0.0, 1.7297114274051356E9, 0.0, 2024-10-24 00:53:47.405
68.0, -43755.931407920296, -46115.20273866686, -38344.05998516798, -50845.904749143694, -50977.78004143001, -42471.01902616251, 63649.69922896615, 79271.57929796926, 0.148, 0.966, 0.13, 192.0, 0.0, 0.0, 0.0, 0.0, 0.0, 0.0, 0.0, 0.0, 0.0, 1.729711427408172E9, 0.0, 2024-10-24 00:53:47.408
69.0, -43747.75066944965, -46101.05408442666, -38332.50413328459, -50829.140940802215, -50971.409794260246, -42456.937427155666, 63540.443902068604, 79132.2832265238, 0.148, 0.966, 0.13, 192.0, 0.0, 0.0, 0.0, 0.0, 0.0, 0.0, 0.0, 0.0, 0.0, 1.7297114274122193E9, 0.0, 2024-10-24 00:53:47.412
70.0, -43737.26770130011, -46090.816985466125, -38324.77042970305, -50821.13901628721, -50967.900570380756, -42449.248427063045, 63481.591758917784, 79040.77518472377, 0.148, 0.966, 0.13, 192.0, 0.0, 0.0, 0.0, 0.0, 0.0, 0.0, 0.0, 0.0, 0.0, 1.7297114274162872E9, 0.0, 2024-10-24 00:53:47.416
71.0, -43730.249253541144, -46094.01328492323, -38322.848179679895, -50826.23521402302, -50957.819933631414, -42451.30478755293, 63545.204823637585, 79111.74197336937, 0.148, 0.966, 0.13, 192.0, 0.0, 0.0, 0.0, 0.0, 0.0, 0.0, 0.0, 0.0, 0.0, 1.7297114274201748E9, 0.0, 2024-10-24 00:53:47.420
72.0, -43742.788582180576, -46113.59341306608, -38340.41665082177, -50850.308042801385, -50982.60801823235, -42480.138537900275, 63631.68372293517, 79223.56775087926, 0.148, 0.966, 0.13, 192.0, 0.0, 0.0, 0.0, 0.0, 0.0, 0.0, 0.0, 0.0, 0.0, 1.729711427425174E9, 0.0, 2024-10-24 00:53:47.425
73.0, -43757.384271309886, -46123.048200970676, -38350.810211993485, -50855.82892368185, -50991.01227414755, -42483.290133868475, 63618.07151056189, 79217.26455894287, 0.148, 0.966, 0.13, 192.0, 0.0, 0.0, 0.0, 0.0, 0.0, 0.0, 0.0, 0.0, 0.0, 1.7297114274291933E9, 0.0, 2024-10-24 00:53:47.429
74.0, -43744.75553569264, -46110.01713395323, -38337.13094438684, -50843.82603690935, -50974.91901813973, -42470.3261220844, 63483.64811940767, 79050.18526913945, 0.15, 0.968, 0.136, 192.0, 4.0, 176.0, 30.0, 64.0, 4.0, 64.0, 0.0, 0.0, 0.0, 1.729711427433189E9, 0.0, 2024-10-24 00:53:47.433
75.0, -43738.4746955007, -46109.413636852936, -38336.79566822001, -50847.42466776665, -50983.971474644124, -42472.36013082983, 63408.25568535992, 78941.3322736421, 0.15, 0.968, 0.136, 192.0, 0.0, 0.0, 0.0, 0.0, 0.0, 0.0, 0.0, 0.0, 0.0, 1.7297114274362361E9, 0.0, 2024-10-24 00:53:47.436
76.0, -43747.08011711599, -46126.64683182798, -38353.760642261586, -50870.089336644334, -51007.70902725566, -42495.40477936325, 63499.58491320431, 79040.66342600148, 0.15, 0.968, 0.136, 192.0, 0.0, 0.0, 0.0, 0.0, 0.0, 0.0, 0.0, 0.0, 0.0, 1.7297114274403322E9, 0.0, 2024-10-24 00:53:47.440
77.0, -43765.565009780534, -46151.18904723991, -38371.12794770336, -50895.70443579012, -51021.47770184013, -42522.428038409715, 63604.92868482217, 79172.49401479888, 0.15, 0.968, 0.136, 192.0, 0.0, 0.0, 0.0, 0.0, 0.0, 0.0, 0.0, 0.0, 0.0, 1.7297114274444578E9, 0.0, 2024-10-24 00:53:47.444
78.0, -43785.99450421268, -46163.95189332389, -38379.77807280756, -50898.900735247225, -51023.22113790765, -42520.59519536438, 63598.73725160805, 79172.18109037651, 0.15, 0.968, 0.136, 192.0, 0.0, 0.0, 0.0, 0.0, 0.0, 0.0, 0.0, 0.0, 0.0, 1.7297114274483175E9, 0.0, 2024-10-24 00:53:47.448
79.0, -43774.438652329285, -46146.51753264875, -38360.957903976196, -50878.918275704185, -50993.60507650436, -42494.80128226296, 63486.978529331514, 79029.48755377383, 0.15, 0.968, 0.136, 192.0, 0.0, 0.0, 0.0, 0.0, 0.0, 0.0, 0.0, 0.0, 0.0, 1.72971142745319E9, 0.0, 2024-10-24 00:53:47.453
80.0, -43756.60196025395, -46131.295994674685, -38343.612950278875, -50865.17195286417, -50971.00746286005, -42478.663322766224, 63398.73384222196, 78907.58113951459, 0.15, 0.968, 0.136, 192.0, 0.0, 0.0, 0.0, 0.0, 0.0, 0.0, 0.0, 0.0, 0.0, 1.7297114274572384E9, 0.0, 2024-10-24 00:53:47.457
81.0, -43763.62040801292, -46140.97430002383, -38358.20863940819, -50879.6558832712, -50992.82276544843, -42493.95191597366, 63477.70255538256, 78988.7403236318, 0.15, 0.968, 0.136, 192.0, 0.0, 0.0, 0.0, 0.0, 0.0, 0.0, 0.0, 0.0, 0.0, 1.729711427460254E9, 0.0, 2024-10-24 00:53:47.460
82.0, -43780.607733798955, -46158.073384532145, -38378.10169197341, -50898.8113282694, -51012.00056219108, -42513.55439586096, 63593.39518468323, 79127.58936018817, 0.15, 0.968, 0.136, 192.0, 0.0, 0.0, 0.0, 0.0, 0.0, 0.0, 0.0, 0.0, 0.0, 1.7297114274642265E9, 0.0, 2024-10-24 00:53:47.464
83.0, -43789.414321114346, -46159.50389617728, -38372.5584593485, -50891.92699097717, -50990.78875670299, -42503.22788992261, 63561.700411045604, 79101.99661278685, 0.15, 0.968, 0.136, 192.0, 0.0, 0.0, 0.0, 0.0, 0.0, 0.0, 0.0, 0.0, 0.0, 1.7297114274682288E9, 0.0, 2024-10-24 00:53:47.468
84.0, -43776.740882008184, -46137.4874278888, -38350.474935826656, -50870.089336644334, -50969.71106168164, -42481.36788384532, 63434.72015079501, 78943.2321719208, 0.15, 0.968, 0.136, 192.0, 0.0, 0.0, 0.0, 0.0, 0.0, 0.0, 0.0, 0.0, 0.0, 1.7297114274723017E9, 0.0, 2024-10-24 00:53:47.472
85.0, -43762.838096956984, -46119.51662534674, -38338.31558684297, -50854.82309518136, -50962.91613136722, -42463.084156880876, 63351.72812363245, 78829.59590311002, 0.146, 0.964, 0.128, 192.0, 4.0, 144.0, 30.0, 32.0, 4.0, 0.0, 0.0, 0.0, 0.0, 1.7297114274762557E9, 0.0, 2024-10-24 00:53:47.476
86.0, -43772.069367417025, -46133.46411388685, -38358.9015434863, -50874.64909251322, -50991.01227414755, -42490.68856128318, 63449.226432946496, 78935.27495089472, 0.146, 0.964, 0.128, 192.0, 0.0, 0.0, 0.0, 0.0, 0.0, 0.0, 0.0, 0.0, 0.0, 1.7297114274813116E9, 0.0, 2024-10-24 00:53:47.481
87.0, -43787.42501585782, -46154.161829252465, -38377.67700882876, -50895.30210438992, -51012.76052150256, -42513.487340627595, 63564.226158169055, 79077.32028690819, 0.146, 0.964, 0.128, 192.0, 0.0, 0.0, 0.0, 0.0, 0.0, 0.0, 0.0, 0.0, 0.0, 1.7297114274862711E9, 0.0, 2024-10-24 00:53:47.486
88.0, -43796.388065384395, -46154.89943681949, -38373.13960470434, -50882.09222341683, -50998.656570751264, -42495.78475901899, 63533.33604733182, 79055.34852210862, 0.146, 0.964, 0.128, 192.0, 0.0, 0.0, 0.0, 0.0, 0.0, 0.0, 0.0, 0.0, 0.0, 1.729711427490286E9, 0.0, 2024-10-24 00:53:47.490
89.0, -43778.75253900916, -46131.69832607488, -38347.815078236476, -50853.37023179176, -50971.47684949361, -42469.655569750736, 63392.02831888537, 78885.54231948165, 0.146, 0.964, 0.128, 192.0, 0.0, 0.0, 0.0, 0.0, 0.0, 0.0, 0.0, 0.0, 0.0, 1.729711427493283E9, 0.0, 2024-10-24 00:53:47.493
90.0, -43767.1296318924, -46120.947136991876, -38340.327243843945, -50843.55781597589, -50972.99676811657, -42463.151212114244, 63302.50958234187, 78765.64756222338, 0.146, 0.964, 0.128, 192.0, 0.0, 0.0, 0.0, 0.0, 0.0, 0.0, 0.0, 0.0, 0.0, 1.7297114274962976E9, 0.0, 2024-10-24 00:53:47.496
91.0, -43771.46587031673, -46130.49133187429, -38357.58279056344, -50858.578188249856, -50997.56133527295, -42482.865450723824, 63384.1605048371, 78855.14394702244, 0.146, 0.964, 0.128, 192.0, 0.0, 0.0, 0.0, 0.0, 0.0, 0.0, 0.0, 0.0, 0.0, 1.729711427500261E9, 0.0, 2024-10-24 00:53:47.500
92.0, -43781.88178323291, -46146.0928495041, -38368.87042151337, -50874.82790646886, -51001.83051846392, -42499.8304247654, 63510.671378454135, 79007.4487337409, 0.146, 0.964, 0.128, 192.0, 0.0, 0.0, 0.0, 0.0, 0.0, 0.0, 0.0, 0.0, 0.0, 1.7297114275042765E9, 0.0, 2024-10-24 00:53:47.504
93.0, -43797.19272818479, -46155.32411996414, -38375.01715123858, -50880.661711771696, -51004.13274814281, -42508.92758475871, 63505.91045688516, 79008.43221049693, 0.146, 0.964, 0.128, 192.0, 0.0, 0.0, 0.0, 0.0, 0.0, 0.0, 0.0, 0.0, 0.0, 1.7297114275092757E9, 0.0, 2024-10-24 00:53:47.509
94.0, -43780.63008554341, -46137.84505580009, -38356.08522368494, -50861.88624642924, -50979.88110540881, -42484.11714841332, 63399.314987577796, 78869.15849079592, 0.146, 0.964, 0.128, 192.0, 0.0, 0.0, 0.0, 0.0, 0.0, 0.0, 0.0, 0.0, 0.0, 1.729711427513262E9, 0.0, 2024-10-24 00:53:47.513
95.0, -43765.58736152499, -46127.94323300639, -38343.680005512244, -50852.54321724692, -50968.66052969224, -42467.10747088283, 63315.361835403666, 78752.95177137277, 0.14200000000000002, 0.964, 0.128, 192.0, 4.0, 112.0, 30.0, 32.0, 4.0, 0.0, 0.0, 0.0, 0.0, 1.7297114275173116E9, 0.0, 2024-10-24 00:53:47.517
96.0, -43776.897344219375, -46147.165733237955, -38364.60123832241, -50875.632569269255, -50998.76832947354, -42490.755616516544, 63402.041900401346, 78847.96903705229, 0.14200000000000002, 0.964, 0.128, 192.0, 0.0, 0.0, 0.0, 0.0, 0.0, 0.0, 0.0, 0.0, 0.0, 1.7297114275203173E9, 0.0, 2024-10-24 00:53:47.520
97.0, -43794.53287059461, -46169.27160850425, -38382.30381993101, -50897.69374104664, -51017.677905282726, -42515.11901797283, 63497.01446259195, 78972.46825366834, 0.14200000000000002, 0.964, 0.128, 192.0, 0.0, 0.0, 0.0, 0.0, 0.0, 0.0, 0.0, 0.0, 0.0, 1.7297114275243084E9, 0.0, 2024-10-24 00:53:47.524
98.0, -43816.14700748289, -46180.17925979844, -38387.35531417791, -50897.291409646445, -51016.85089073788, -42505.77598879051, 63483.37989847421, 78969.11549200004, 0.14200000000000002, 0.964, 0.128, 192.0, 0.0, 0.0, 0.0, 0.0, 0.0, 0.0, 0.0, 0.0, 0.0, 1.7297114275303528E9, 0.0, 2024-10-24 00:53:47.530
99.0, -43798.489129363195, -46159.03450954372, -38365.22708716716, -50875.18553438014, -50993.87329743783, -42484.13950015778, 63373.230501798454, 78828.36655716498, 0.14200000000000002, 0.964, 0.128, 192.0, 0.0, 0.0, 0.0, 0.0, 0.0, 0.0, 0.0, 0.0, 0.0, 1.729711427532324E9, 0.0, 2024-10-24 00:53:47.532
100.0, -43772.628161028406, -46138.359145922564, -38336.66155775327, -50857.795877193916, -50965.28541627949, -42467.353340071844, 63270.99362265988, 78691.90915726533, 0.14200000000000002, 0.964, 0.128, 192.0, 0.0, 0.0, 0.0, 0.0, 0.0, 0.0, 0.0, 0.0, 0.0, 1.7297114275363293E9, 0.0, 2024-10-24 00:53:47.536
101.0, -43776.78558549709, -46145.39994542598, -38346.80924973598, -50869.53054303295, -50984.30675081095, -42478.64097102177, 63344.217937495465, 78770.36378030345, 0.14200000000000002, 0.964, 0.128, 192.0, 0.0, 0.0, 0.0, 0.0, 0.0, 0.0, 0.0, 0.0, 0.0, 1.7297114275413404E9, 0.0, 2024-10-24 00:53:47.541
102.0, -43786.754463524165, -46158.833343843624, -38355.16880216227, -50882.963941450595, -50990.31937006943, -42494.466006096125, 63453.428560904096, 78904.87657843549, 0.14200000000000002, 0.964, 0.128, 192.0, 0.0, 0.0, 0.0, 0.0, 0.0, 0.0, 0.0, 0.0, 0.0, 1.729711427544341E9, 0.0, 2024-10-24 00:53:47.544
103.0, -43799.38319914141, -46166.544695680706, -38352.33013061644, -50880.12526990477, -50983.01034963255, -42490.55445081645, 63440.10692120873, 78897.16522659842, 0.14200000000000002, 0.964, 0.128, 192.0, 0.0, 0.0, 0.0, 0.0, 0.0, 0.0, 0.0, 0.0, 0.0, 1.7297114275483224E9, 0.0, 2024-10-24 00:53:47.548
104.0, -43785.4357106013, -46148.99857628329, -38332.45942979568, -50859.27109232797, -50969.442840748176, -42466.21340110462, 63329.77871057734, 78752.92941962832, 0.14200000000000002, 0.964, 0.128, 192.0, 0.0, 0.0, 0.0, 0.0, 0.0, 0.0, 0.0, 0.0, 0.0, 1.72971142755238E9, 0.0, 2024-10-24 00:53:47.552
105.0, -43773.70104476226, -46136.50395113277, -38320.054211622984, -50850.91153990168, -50961.329157510896, -42457.83149693388, 63245.736151425386, 78634.86750541539, 0.14200000000000002, 0.97, 0.126, 192.0, 4.0, 112.0, 30.0, 80.0, 3.0, 240.0, 0.0, 0.0, 0.0, 1.7297114275563843E9, 0.0, 2024-10-24 00:53:47.556
106.0, -43782.46292858874, -46144.997614025786, -38333.73347922963, -50867.585941265344, -50981.28926530949, -42479.19976463315, 63337.087731014224, 78729.97417807272, 0.14200000000000002, 0.97, 0.126, 192.0, 0.0, 0.0, 0.0, 0.0, 0.0, 0.0, 0.0, 0.0, 0.0, 1.7297114275603757E9, 0.0, 2024-10-24 00:53:47.560
107.0, -43796.03043747311, -46154.586512397116, -38347.591560791916, -50879.63353152675, -50998.76832947354, -42500.769198032525, 63429.33338038128, 78846.18089749585, 0.14200000000000002, 0.97, 0.126, 192.0, 0.0, 0.0, 0.0, 0.0, 0.0, 0.0, 0.0, 0.0, 0.0, 1.7297114275643592E9, 0.0, 2024-10-24 00:53:47.564
108.0, -43808.99444925719, -46156.8440385871, -38349.53616255953, -50875.05142391341, -51002.97045743113, -42498.1316921868, 63424.99714195695, 78847.03026378516, 0.14200000000000002, 0.97, 0.126, 192.0, 0.0, 0.0, 0.0, 0.0, 0.0, 0.0, 0.0, 0.0, 0.0, 1.7297114275694027E9, 0.0, 2024-10-24 00:53:47.569
109.0, -43794.68933280579, -46132.12300921953, -38327.676156482245, -50847.8493509113, -50980.39519553127, -42468.31446508342, 63315.495945870396, 78704.8731690494, 0.14200000000000002, 0.97, 0.126, 192.0, 0.0, 0.0, 0.0, 0.0, 0.0, 0.0, 0.0, 0.0, 0.0, 1.7297114275723588E9, 0.0, 2024-10-24 00:53:47.572
110.0, -43781.18887915479, -46113.48165434381, -38313.57220573094, -50833.499530971, -50963.005538345045, -42461.340720813365, 63250.8770526501, 78607.79954288, 0.14200000000000002, 0.97, 0.126, 192.0, 0.0, 0.0, 0.0, 0.0, 0.0, 0.0, 0.0, 0.0, 0.0, 1.729711427576394E9, 0.0, 2024-10-24 00:53:47.576
111.0, -43785.81569025704, -46116.052104956165, -38327.51969427105, -50844.92127238766, -50987.92773341271, -42480.429110578196, 63332.66208561207, 78695.66425033382, 0.14200000000000002, 0.97, 0.126, 192.0, 0.0, 0.0, 0.0, 0.0, 0.0, 0.0, 0.0, 0.0, 0.0, 1.7297114275803585E9, 0.0, 2024-10-24 00:53:47.580
112.0, -43799.56201309705, -46130.737201063304, -38343.83646772343, -50860.18751385064, -51004.266858609546, -42494.37659911831, 63439.011685730424, 78830.08764148803, 0.14200000000000002, 0.97, 0.126, 192.0, 0.0, 0.0, 0.0, 0.0, 0.0, 0.0, 0.0, 0.0, 0.0, 1.7297114275843682E9, 0.0, 2024-10-24 00:53:47.584
113.0, -43808.32389692353, -46129.127875462524, -38340.170781632754, -50849.41397302318, -50996.37669281682, -42481.43493907868, 63416.302313363834, 78815.91663550337, 0.14200000000000002, 0.97, 0.126, 192.0, 0.0, 0.0, 0.0, 0.0, 0.0, 0.0, 0.0, 0.0, 0.0, 1.7297114275904686E9, 0.0, 2024-10-24 00:53:47.590
114.0, -43790.934239737304, -46106.64202054048, -38319.58482498942, -50827.91159485717, -50972.0803465939, -42461.407776046726, 63268.75844821435, 78637.63912172784, 0.14200000000000002, 0.97, 0.126, 192.0, 0.0, 0.0, 0.0, 0.0, 0.0, 0.0, 0.0, 0.0, 0.0, 1.729711427593423E9, 0.0, 2024-10-24 00:53:47.593
115.0, -43779.04311168708, -46100.98702919329, -38311.78406617452, -50829.00683033548, -50966.51476222453, -42462.14538361375, 63189.78973505375, 78527.78029773002, 0.146, 0.972, 0.128, 192.0, 4.0, 144.0, 30.0, 96.0, 4.0, 0.0, 0.0, 0.0, 0.0, 1.72971142759744E9, 0.0, 2024-10-24 00:53:47.597
116.0, -43788.22967865821, -46121.61768932554, -38331.76652571756, -50860.0534033839, -50997.31546608394, -42494.398950862764, 63292.74187001489, 78635.78392693805, 0.146, 0.972, 0.128, 192.0, 0.0, 0.0, 0.0, 0.0, 0.0, 0.0, 0.0, 0.0, 0.0, 1.7297114276004484E9, 0.0, 2024-10-24 00:53:47.600
117.0, -43804.97113525523, -46143.85767505857, -38350.944322460215, -50885.53439206295, -51019.73426577262, -42519.47760814162, 63411.22846737248, 78778.7903879631, 0.146, 0.972, 0.128, 192.0, 0.0, 0.0, 0.0, 0.0, 0.0, 0.0, 0.0, 0.0, 0.0, 1.7297114276044888E9, 0.0, 2024-10-24 00:53:47.604
118.0, -43808.03332424561, -46145.779925081726, -38340.036671166024, -50876.97367393657, -51002.07638765292, -42504.971325990125, 63399.65026374463, 78775.37057106144, 0.146, 0.972, 0.128, 192.0, 0.0, 0.0, 0.0, 0.0, 0.0, 0.0, 0.0, 0.0, 0.0, 1.7297114276084116E9, 0.0, 2024-10-24 00:53:47.608
119.0, -43791.783606026605, -46128.34556440658, -38318.46723776666, -50855.67246147066, -50979.72464319762, -42479.19976463315, 63268.49022728088, 78611.3087667595, 0.146, 0.972, 0.128, 192.0, 0.0, 0.0, 0.0, 0.0, 0.0, 0.0, 0.0, 0.0, 0.0, 1.7297114276124651E9, 0.0, 2024-10-24 00:53:47.612
120.0, -43778.81959424253, -46118.62255556852, -38305.41381900475, -50846.93292938864, -50963.05024183396, -42468.4262238057, 63196.852886301625, 78506.59084398639, 0.146, 0.972, 0.128, 192.0, 0.0, 0.0, 0.0, 0.0, 0.0, 0.0, 0.0, 0.0, 0.0, 1.7297114276164668E9, 0.0, 2024-10-24 00:53:47.616
121.0, -43780.22775414321, -46129.28433767371, -38314.08629585341, -50860.4557347841, -50979.38936703079, -42483.49129956857, 63295.82641074973, 78612.71692666017, 0.146, 0.972, 0.128, 192.0, 0.0, 0.0, 0.0, 0.0, 0.0, 0.0, 0.0, 0.0, 0.0, 1.7297114276204748E9, 0.0, 2024-10-24 00:53:47.620
122.0, -43790.66601880384, -46140.90724479047, -38328.525522771546, -50869.68700524414, -51004.0880446539, -42491.604982805846, 63409.373272582685, 78753.17528881732, 0.146, 0.972, 0.128, 192.0, 0.0, 0.0, 0.0, 0.0, 0.0, 0.0, 0.0, 0.0, 0.0, 1.7297114276255012E9, 0.0, 2024-10-24 00:53:47.625
123.0, -43798.93616425231, -46141.37663142403, -38330.22425535015, -50862.53444701844, -51010.01125693456, -42482.88780246828, 63367.3072895178, 78718.46302967824, 0.146, 0.972, 0.128, 192.0, 0.0, 0.0, 0.0, 0.0, 0.0, 0.0, 0.0, 0.0, 0.0, 1.7297114276284404E9, 0.0, 2024-10-24 00:53:47.628
124.0, -43783.22288790022, -46123.1376079485, -38307.894862639296, -50841.568510719364, -50975.298997795464, -42458.27853182299, 63238.8294623887, 78559.02803647853, 0.146, 0.972, 0.128, 192.0, 0.0, 0.0, 0.0, 0.0, 0.0, 0.0, 0.0, 0.0, 0.0, 1.7297114276314397E9, 0.0, 2024-10-24 00:53:47.631
125.0, -43768.80601272655, -46110.59827930907, -38292.58391768741, -50830.90672861418, -50951.829666117395, -42450.58953173036, 63154.02694392526, 78439.40150015372, 0.146, 0.97, 0.126, 192.0, 4.0, 144.0, 30.0, 80.0, 3.0, 240.0, 0.0, 0.0, 0.0, 1.7297114276364524E9, 0.0, 2024-10-24 00:53:47.636
126.0, -43780.54067856559, -46128.99376499579, -38311.96288013016, -50854.39841203671, -50981.15515484276, -42477.59043903237, 63266.277404579814, 78557.01637947756, 0.146, 0.97, 0.126, 192.0, 0.0, 0.0, 0.0, 0.0, 0.0, 0.0, 0.0, 0.0, 0.0, 1.7297114276405008E9, 0.0, 2024-10-24 00:53:47.640
127.0, -43799.85258577497, -46148.32802394963, -38334.26992109656, -50874.26911285748, -51005.652666765774, -42499.47279685412, 63390.284882817854, 78709.6787941073, 0.146, 0.97, 0.126, 192.0, 0.0, 0.0, 0.0, 0.0, 0.0, 0.0, 0.0, 0.0, 0.0, 1.729711427644492E9, 0.0, 2024-10-24 00:53:47.644
128.0, -43805.686391077805, -46145.198779725884, -38329.82192394995, -50861.014528395484, -50996.17552711672, -42483.714817013126, 63351.68342014354, 78681.44854086025, 0.146, 0.97, 0.126, 192.0, 0.0, 0.0, 0.0, 0.0, 0.0, 0.0, 0.0, 0.0, 0.0, 1.7297114276484575E9, 0.0, 2024-10-24 00:53:47.648
129.0, -43792.677675804814, -46127.585605095104, -38312.90165339728, -50840.47327524106, -50984.396157788775, -42461.38542430227, 63228.592363428164, 78528.62966401932, 0.146, 0.97, 0.126, 192.0, 0.0, 0.0, 0.0, 0.0, 0.0, 0.0, 0.0, 0.0, 0.0, 1.7297114276535294E9, 0.0, 2024-10-24 00:53:47.653
130.0, -43775.60094304096, -46113.57106132163, -38297.52365321203, -50830.07971406934, -50965.79950640196, -42453.87523816529, 63155.63626952604, 78424.69405230213, 0.146, 0.97, 0.126, 192.0, 0.0, 0.0, 0.0, 0.0, 0.0, 0.0, 0.0, 0.0, 0.0, 1.7297114276565032E9, 0.0, 2024-10-24 00:53:47.656
131.0, -43783.111129177945, -46125.05985797165, -38311.40408651878, -50843.893092142716, -50980.50695425355, -42468.672092994704, 63253.559261984745, 78529.09905065288, 0.146, 0.97, 0.126, 192.0, 0.0, 0.0, 0.0, 0.0, 0.0, 0.0, 0.0, 0.0, 0.0, 1.729711427659548E9, 0.0, 2024-10-24 00:53:47.659
132.0, -43797.14802469588, -46142.762439580256, -38332.59354026241, -50862.48974352953, -51009.25129762308, -42496.991753219576, 63362.479312715455, 78665.37763659688, 0.146, 0.97, 0.126, 192.0, 0.0, 0.0, 0.0, 0.0, 0.0, 0.0, 0.0, 0.0, 0.0, 1.729711427664616E9, 0.0, 2024-10-24 00:53:47.664
133.0, -43805.060542233055, -46144.10354424758, -38331.05126989499, -50851.96207189108, -51000.7352829856, -42481.12201465631, 63320.9944750064, 78632.49822050313, 0.146, 0.97, 0.126, 192.0, 0.0, 0.0, 0.0, 0.0, 0.0, 0.0, 0.0, 0.0, 0.0, 1.7297114276684923E9, 0.0, 2024-10-24 00:53:47.668
134.0, -43792.00712347116, -46124.65752657146, -38315.293290054, -50828.40333323519, -50988.26300957955, -42449.13666834077, 63176.04341221374, 78458.55694515193, 0.146, 0.97, 0.126, 192.0, 0.0, 0.0, 0.0, 0.0, 0.0, 0.0, 0.0, 0.0, 0.0, 1.7297114276735039E9, 0.0, 2024-10-24 00:53:47.673
135.0, -43783.80403325606, -46114.97922122231, -38310.97940337413, -50826.21286227857, -50983.8820676663, -42449.36018578532, 63120.34286503111, 78370.87105165375, 0.14400000000000002, 0.974, 0.13, 192.0, 4.0, 128.0, 30.0, 112.0, 4.0, 16.0, 0.0, 0.0, 0.0, 1.7297114276775246E9, 0.0, 2024-10-24 00:53:47.677
136.0, -43785.703931534765, -46128.3902678955, -38319.78599068952, -50847.447019511106, -50986.31840781193, -42475.39996807575, 63251.01116311684, 78506.6802509642, 0.14400000000000002, 0.974, 0.13, 192.0, 0.0, 0.0, 0.0, 0.0, 0.0, 0.0, 0.0, 0.0, 0.0, 1.7297114276805751E9, 0.0, 2024-10-24 00:53:47.680
137.0, -43796.94685899578, -46146.15990473746, -38335.05223215249, -50866.40129880921, -51005.3397423434, -42495.449482852164, 63355.3044027453, 78636.43212752725, 0.14400000000000002, 0.974, 0.13, 192.0, 0.0, 0.0, 0.0, 0.0, 0.0, 0.0, 0.0, 0.0, 0.0, 1.7297114276845543E9, 0.0, 2024-10-24 00:53:47.684
138.0, -43804.90408002187, -46152.954835051874, -38330.045441394504, -50869.37408082176, -51002.07638765292, -42498.1316921868, 63315.0936144702, 78601.98808932163, 0.14400000000000002, 0.974, 0.13, 192.0, 0.0, 0.0, 0.0, 0.0, 0.0, 0.0, 0.0, 0.0, 0.0, 1.7297114276875153E9, 0.0, 2024-10-24 00:53:47.687
139.0, -43786.396835612875, -46134.24642494279, -38309.92887138473, -50851.425630024154, -50982.33979729889, -42469.67792149519, 63162.92293821847, 78418.70378478811, 0.14400000000000002, 0.974, 0.13, 192.0, 0.0, 0.0, 0.0, 0.0, 0.0, 0.0, 0.0, 0.0, 0.0, 1.7297114276925468E9, 0.0, 2024-10-24 00:53:47.692
140.0, -43778.32785586451, -46132.771209808736, -38305.95026087168, -50855.98538589304, -50977.10948909634, -42471.60017151835, 63090.659748394464, 78314.36584167073, 0.14400000000000002, 0.974, 0.13, 192.0, 0.0, 0.0, 0.0, 0.0, 0.0, 0.0, 0.0, 0.0, 0.0, 1.7297114276965485E9, 0.0, 2024-10-24 00:53:47.696
141.0, -43785.078082690015, -46148.57389313864, -38317.50611275508, -50879.320607104375, -50985.89372466728, -42499.428093365204, 63196.94229327945, 78425.58812208034, 0.14400000000000002, 0.974, 0.13, 192.0, 0.0, 0.0, 0.0, 0.0, 0.0, 0.0, 0.0, 0.0, 0.0, 1.729711427700528E9, 0.0, 2024-10-24 00:53:47.700
142.0, -43800.165510197345, -46168.17637302594, -38337.242703109114, -50899.325418391876, -51015.085102925914, -42518.7847040635, 63309.32686440073, 78562.64901908029, 0.14400000000000002, 0.974, 0.13, 192.0, 0.0, 0.0, 0.0, 0.0, 0.0, 0.0, 0.0, 0.0, 0.0, 1.7297114277045991E9, 0.0, 2024-10-24 00:53:47.704
143.0, -43806.736923067205, -46171.23856201632, -38334.26992109656, -50891.09997643232, -51008.0890069114, -42508.34643940287, 63280.00137567537, 78537.16803040124, 0.14400000000000002, 0.974, 0.13, 192.0, 0.0, 0.0, 0.0, 0.0, 0.0, 0.0, 0.0, 0.0, 0.0, 1.72971142770864E9, 0.0, 2024-10-24 00:53:47.708
144.0, -43792.409454871355, -46153.82655308564, -38314.01924062005, -50867.228313354055, -50982.04922462097, -42482.41841583472, 63168.15324642101, 78391.9040431862, 0.14400000000000002, 0.974, 0.13, 192.0, 0.0, 0.0, 0.0, 0.0, 0.0, 0.0, 0.0, 0.0, 0.0, 1.7297114277126951E9, 0.0, 2024-10-24 00:53:47.712
145.0, -43779.66896053183, -46143.43299191392, -38300.07175207994, -50855.65010972621, -50973.1308785833, -42471.53311628498, 63091.978501317324, 78282.22403314401, 0.14200000000000002, 0.964, 0.13, 192.0, 4.0, 112.0, 30.0, 32.0, 4.0, 16.0, 0.0, 0.0, 0.0, 1.729711427715606E9, 0.0, 2024-10-24 00:53:47.715
146.0, -43788.45319610277, -46155.413526941964, -38313.259281308565, -50868.36825232128, -50993.18039335971, -42482.59722979036, 63179.64204307104, 78375.16258658917, 0.14200000000000002, 0.964, 0.13, 192.0, 0.0, 0.0, 0.0, 0.0, 0.0, 0.0, 0.0, 0.0, 0.0, 1.7297114277196715E9, 0.0, 2024-10-24 00:53:47.719
147.0, -43802.400684642875, -46171.976169583344, -38327.07265938195, -50880.0582146714, -51004.33391384291, -42487.80518624845, 63311.56203884626, 78531.1330593983, 0.14200000000000002, 0.964, 0.13, 192.0, 0.0, 0.0, 0.0, 0.0, 0.0, 0.0, 0.0, 0.0, 0.0, 1.7297114277247136E9, 0.0, 2024-10-24 00:53:47.724
148.0, -43812.34721092549, -46178.480527219835, -38324.77042970305, -50872.83860121234, -50995.37086431633, -42479.35622684434, 63303.470707353445, 78525.88039945131, 0.14200000000000002, 0.964, 0.13, 192.0, 0.0, 0.0, 0.0, 0.0, 0.0, 0.0, 0.0, 0.0, 0.0, 1.7297114277289429E9, 0.0, 2024-10-24 00:53:47.728
149.0, -43795.359885139456, -46157.447535687395, -38306.129074827324, -50846.24002531052, -50965.03954709048, -42456.62450273329, 63190.25912168731, 78378.71651395757, 0.14200000000000002, 0.964, 0.13, 192.0, 0.0, 0.0, 0.0, 0.0, 0.0, 0.0, 0.0, 0.0, 0.0, 1.7297114277326093E9, 0.0, 2024-10-24 00:53:47.732
