%OpenBCI Raw EXG Data
%Number of channels = 8
%Sample Rate = 250 Hz
%Board = OpenBCI_GUI$BoardCytonSerial
Sample Index, EXG Channel 0, EXG Channel 1, EXG Channel 2, EXG Channel 3, EXG Channel 4, EXG Channel 5, EXG Channel 6, EXG Channel 7, Accel Channel 0, Accel Channel 1, Accel Channel 2, Other, Other, Other, Other, Other, Other, Other, Analog Channel 0, Analog Channel 1, Analog Channel 2, Timestamp, Other, Timestamp (Formatted)
0.0, 0.0, 0.0, 0.0, 0.0, 0.0, 0.0, 0.0, 0.0, 0.222, 0.9440000000000001, -0.194, 192.0, 6.0, 240.0, 29.0, 128.0, 249.0, 240.0, 0.0, 0.0, 0.0, 1.7296935466791363E9, 0.0, 2024-10-23 19:55:46.679
1.0, 17811.121679678166, 33288.43066554435, 40333.1193725013, 14742.405979920148, 23680.957994575263, 25602.96214854266, -187500.02235174447, -187500.02235174447, 0.222, 0.9440000000000001, -0.194, 192.0, 0.0, 0.0, 0.0, 0.0, 0.0, 0.0, 0.0, 0.0, 0.0, 1.7296935466960995E9, 0.0, 2024-10-23 19:55:46.696
2.0, 17698.960626001433, 36807.04227769879, 40236.895112621205, 15617.163850923045, 23626.263275893125, 26205.52047556883, -187500.02235174447, -187500.02235174447, 0.222, 0.9440000000000001, -0.194, 192.0, 0.0, 0.0, 0.0, 0.0, 0.0, 0.0, 0.0, 0.0, 0.0, 1.729693546699126E9, 0.0, 2024-10-23 19:55:46.699
3.0, 17495.291530524675, 37493.97844004374, 40145.78940222137, 14794.910227645663, 23513.074041971453, 25565.880604491307, -187500.02235174447, -187500.02235174447, 0.222, 0.9440000000000001, -0.194, 192.0, 0.0, 0.0, 0.0, 0.0, 0.0, 0.0, 0.0, 0.0, 0.0, 1.7296935467031164E9, 0.0, 2024-10-23 19:55:46.703
4.0, 17555.305964387175, 36019.478561816046, 40220.98067056903, 14191.636644796927, 23559.56567043849, 25144.058483130753, -187500.02235174447, -187500.02235174447, 0.222, 0.9440000000000001, -0.194, 192.0, 0.0, 0.0, 0.0, 0.0, 0.0, 0.0, 0.0, 0.0, 0.0, 1.729693546706135E9, 0.0, 2024-10-23 19:55:46.706
5.0, 17569.81224653867, 33246.945827835305, 40251.69196745062, 13751.441389494108, 23574.85426364592, 24770.0467431601, -187500.02235174447, -187500.02235174447, 0.222, 0.9440000000000001, -0.194, 192.0, 0.0, 0.0, 0.0, 0.0, 0.0, 0.0, 0.0, 0.0, 0.0, 1.7296935467102067E9, 0.0, 2024-10-23 19:55:46.710
6.0, 17813.870944246166, 33313.129343167464, 40348.251503497544, 14790.752803176976, 23694.816076137555, 25643.128233328847, -187500.02235174447, -187500.02235174447, 0.222, 0.9440000000000001, -0.194, 192.0, 0.0, 0.0, 0.0, 0.0, 0.0, 0.0, 0.0, 0.0, 0.0, 1.7296935467141972E9, 0.0, 2024-10-23 19:55:46.714
7.0, 17691.629253820094, 36845.15200199509, 40236.91746436566, 15655.318278708253, 23631.873563751407, 26224.362996144653, -187500.02235174447, -187500.02235174447, 0.222, 0.9440000000000001, -0.194, 192.0, 0.0, 0.0, 0.0, 0.0, 0.0, 0.0, 0.0, 0.0, 0.0, 1.7296935467182045E9, 0.0, 2024-10-23 19:55:46.718
8.0, 17488.071917065612, 37545.43215577986, 40140.961425419024, 14831.432978085635, 23518.974902507653, 25590.534578625513, -187500.02235174447, -187500.02235174447, 0.224, 0.9440000000000001, -0.17400000000000002, 192.0, 7.0, 0.0, 29.0, 128.0, 250.0, 144.0, 0.0, 0.0, 0.0, 1.729693546723187E9, 0.0, 2024-10-23 19:55:46.723
9.0, 17554.00956320877, 36075.3132194654, 40213.38107745422, 14227.600601625516, 23562.80667338451, 25175.17211141254, -187500.02235174447, -187500.02235174447, 0.224, 0.9440000000000001, -0.17400000000000002, 192.0, 0.0, 0.0, 0.0, 0.0, 0.0, 0.0, 0.0, 0.0, 0.0, 1.7296935467261488E9, 0.0, 2024-10-23 19:55:46.726
10.0, 17564.738400547314, 33284.340296309034, 40233.2964817639, 13774.910721172182, 23568.886347876352, 24783.927176466845, -187500.02235174447, -187500.02235174447, 0.224, 0.9440000000000001, -0.17400000000000002, 192.0, 0.0, 0.0, 0.0, 0.0, 0.0, 0.0, 0.0, 0.0, 0.0, 1.7296935467291949E9, 0.0, 2024-10-23 19:55:46.729
11.0, 17805.600798797703, 33340.73374756977, 40321.25059619553, 14795.26785555695, 23682.522616687136, 25634.16518380227, -187500.02235174447, -187500.02235174447, 0.224, 0.9440000000000001, -0.17400000000000002, 192.0, 0.0, 0.0, 0.0, 0.0, 0.0, 0.0, 0.0, 0.0, 0.0, 1.7296935467332287E9, 0.0, 2024-10-23 19:55:46.733
12.0, 17685.34841362815, 36873.762234897884, 40208.10606576277, 15641.862528546159, 23613.90276120934, 26204.04526043478, -187500.02235174447, -187500.02235174447, 0.224, 0.9440000000000001, -0.17400000000000002, 192.0, 0.0, 0.0, 0.0, 0.0, 0.0, 0.0, 0.0, 0.0, 0.0, 1.7296935467381945E9, 0.0, 2024-10-23 19:55:46.738
13.0, 17480.159399528435, 37556.47391754078, 40111.5688814603, 14801.906323660174, 23497.450172597193, 25550.435549072692, -187500.02235174447, -187500.02235174447, 0.224, 0.9440000000000001, -0.17400000000000002, 192.0, 0.0, 0.0, 0.0, 0.0, 0.0, 0.0, 0.0, 0.0, 0.0, 1.7296935467432199E9, 0.0, 2024-10-23 19:55:46.743
14.0, 17542.341952603096, 36062.59507687033, 40183.13916720619, 14186.361633105475, 23540.924315562763, 25127.07115734472, -187500.02235174447, -187500.02235174447, 0.224, 0.9440000000000001, -0.17400000000000002, 192.0, 0.0, 0.0, 0.0, 0.0, 0.0, 0.0, 0.0, 0.0, 0.0, 1.7296935467462175E9, 0.0, 2024-10-23 19:55:46.746
15.0, 17561.720915045848, 33274.99726712672, 40217.00206005598, 13733.962325330058, 23555.631763414356, 24758.71440872126, -187500.02235174447, -187500.02235174447, 0.224, 0.9440000000000001, -0.17400000000000002, 192.0, 0.0, 0.0, 0.0, 0.0, 0.0, 0.0, 0.0, 0.0, 0.0, 1.7296935467511945E9, 0.0, 2024-10-23 19:55:46.751
16.0, 17807.634807543138, 33335.41403238941, 40311.39347689074, 14754.006535292452, 23667.435189179803, 25606.225503233138, -187500.02235174447, -187500.02235174447, 0.224, 0.9440000000000001, -0.17400000000000002, 192.0, 0.0, 0.0, 0.0, 0.0, 0.0, 0.0, 0.0, 0.0, 0.0, 1.72969354675424E9, 0.0, 2024-10-23 19:55:46.754
17.0, 17687.918864240513, 36821.90618776157, 40203.1886819826, 15594.722699489916, 23609.410060573824, 26165.913184394027, -187500.02235174447, -187500.02235174447, 0.224, 0.9440000000000001, -0.17400000000000002, 192.0, 0.0, 0.0, 0.0, 0.0, 0.0, 0.0, 0.0, 0.0, 0.0, 1.7296935467582653E9, 0.0, 2024-10-23 19:55:46.758
18.0, 17485.970853086812, 37472.543117111105, 40115.90511988463, 14760.980279562507, 23499.5959400649, 25554.034179929993, -187500.02235174447, -187500.02235174447, 0.216, 0.9440000000000001, -0.162, 192.0, 6.0, 192.0, 29.0, 128.0, 250.0, 240.0, 0.0, 0.0, 0.0, 1.7296935467622776E9, 0.0, 2024-10-23 19:55:46.762
19.0, 17549.941545717902, 35993.259965569974, 40190.29172543189, 14152.141112344398, 23535.6046003824, 25137.55412549426, -187500.02235174447, -187500.02235174447, 0.216, 0.9440000000000001, -0.162, 192.0, 0.0, 0.0, 0.0, 0.0, 0.0, 0.0, 0.0, 0.0, 0.0, 1.7296935467652497E9, 0.0, 2024-10-23 19:55:46.765
20.0, 17562.95026099089, 33251.125604048444, 40219.46075194606, 13700.390005158188, 23543.6065248974, 24734.0380828426, -187500.02235174447, -187500.02235174447, 0.216, 0.9440000000000001, -0.162, 192.0, 0.0, 0.0, 0.0, 0.0, 0.0, 0.0, 0.0, 0.0, 0.0, 1.729693546769241E9, 0.0, 2024-10-23 19:55:46.769
21.0, 17806.04783368681, 33344.35473017153, 40319.820084550396, 14730.313686169826, 23666.407008934857, 25598.15652348477, -187500.02235174447, -187500.02235174447, 0.216, 0.9440000000000001, -0.162, 192.0, 0.0, 0.0, 0.0, 0.0, 0.0, 0.0, 0.0, 0.0, 0.0, 1.7296935467732415E9, 0.0, 2024-10-23 19:55:46.773
22.0, 17689.572893330205, 36774.11815811612, 40218.41021995666, 15584.217379595922, 23604.313862838015, 26174.876233920604, -187500.02235174447, -187500.02235174447, 0.216, 0.9440000000000001, -0.162, 192.0, 0.0, 0.0, 0.0, 0.0, 0.0, 0.0, 0.0, 0.0, 0.0, 1.7296935467782648E9, 0.0, 2024-10-23 19:55:46.778
23.0, 17488.965986843825, 37396.03309584059, 40132.66892822611, 14758.543939416879, 23496.019660952054, 25549.072092660917, -187500.02235174447, -187500.02235174447, 0.216, 0.9440000000000001, -0.162, 192.0, 0.0, 0.0, 0.0, 0.0, 0.0, 0.0, 0.0, 0.0, 0.0, 1.7296935467822807E9, 0.0, 2024-10-23 19:55:46.782
24.0, 17548.175757905934, 35934.676043352614, 40207.63667912921, 14158.734876958713, 23543.628876641855, 25143.767910452832, -187500.02235174447, -187500.02235174447, 0.216, 0.9440000000000001, -0.162, 192.0, 0.0, 0.0, 0.0, 0.0, 0.0, 0.0, 0.0, 0.0, 0.0, 1.7296935467865045E9, 0.0, 2024-10-23 19:55:46.786
25.0, 17565.230138925333, 33227.633920625914, 40240.046708589405, 13715.320970454333, 23561.04088557254, 24755.987495897713, -187500.02235174447, -187500.02235174447, 0.216, 0.9440000000000001, -0.162, 192.0, 0.0, 0.0, 0.0, 0.0, 0.0, 0.0, 0.0, 0.0, 0.0, 1.7296935467902713E9, 0.0, 2024-10-23 19:55:46.790
26.0, 17809.53470582184, 33344.801765060634, 40339.93665456017, 14757.49340742748, 23678.63341315191, 25618.317796983458, -187500.02235174447, -187500.02235174447, 0.216, 0.9440000000000001, -0.162, 192.0, 0.0, 0.0, 0.0, 0.0, 0.0, 0.0, 0.0, 0.0, 0.0, 1.7296935467945817E9, 0.0, 2024-10-23 19:55:46.794
27.0, 17692.657434065037, 36753.06281483923, 40239.37615625574, 15619.510784090851, 23626.01740670412, 26207.71094652545, -187500.02235174447, -187500.02235174447, 0.216, 0.9440000000000001, -0.162, 192.0, 0.0, 0.0, 0.0, 0.0, 0.0, 0.0, 0.0, 0.0, 0.0, 1.7296935467972867E9, 0.0, 2024-10-23 19:55:46.797
28.0, 17483.199236774355, 37352.13426973036, 40144.49300104297, 14793.233846811516, 23515.197457694707, 25569.92627023772, -187500.02235174447, -187500.02235174447, 0.21, 0.9400000000000001, -0.156, 192.0, 6.0, 144.0, 29.0, 96.0, 251.0, 32.0, 0.0, 0.0, 0.0, 1.7296935468013005E9, 0.0, 2024-10-23 19:55:46.801
29.0, 17540.352647346575, 35905.976403472, 40214.319850721346, 14191.211961652276, 23554.581231424956, 25148.21590759944, -187500.02235174447, -187500.02235174447, 0.21, 0.9400000000000001, -0.156, 192.0, 0.0, 0.0, 0.0, 0.0, 0.0, 0.0, 0.0, 0.0, 0.0, 1.7296935468066013E9, 0.0, 2024-10-23 19:55:46.806
30.0, 17554.925984731435, 33215.16164721986, 40244.159429569176, 13747.686296425618, 23571.18857755525, 24764.70467623528, -187500.02235174447, -187500.02235174447, 0.21, 0.9400000000000001, -0.156, 192.0, 0.0, 0.0, 0.0, 0.0, 0.0, 0.0, 0.0, 0.0, 0.0, 1.7296935468102968E9, 0.0, 2024-10-23 19:55:46.810
31.0, 17797.19654288251, 33352.446061664356, 40338.12616325929, 14788.83055315382, 23688.26701501215, 25621.134116784826, -187500.02235174447, -187500.02235174447, 0.21, 0.9400000000000001, -0.156, 192.0, 0.0, 0.0, 0.0, 0.0, 0.0, 0.0, 0.0, 0.0, 0.0, 1.7296935468143969E9, 0.0, 2024-10-23 19:55:46.814
32.0, 17675.24542513435, 36749.93357061548, 40228.87083636175, 15644.634144858617, 23626.285627637582, 26205.22990289091, -187500.02235174447, -187500.02235174447, 0.21, 0.9400000000000001, -0.156, 192.0, 0.0, 0.0, 0.0, 0.0, 0.0, 0.0, 0.0, 0.0, 0.0, 1.7296935468183017E9, 0.0, 2024-10-23 19:55:46.818
33.0, 17477.812466360625, 37358.05748201102, 40140.760259718925, 14824.570992537856, 23516.918542017764, 25588.478218135624, -187500.02235174447, -187500.02235174447, 0.21, 0.9400000000000001, -0.156, 192.0, 0.0, 0.0, 0.0, 0.0, 0.0, 0.0, 0.0, 0.0, 0.0, 1.7296935468213236E9, 0.0, 2024-10-23 19:55:46.821
34.0, 17541.112606658055, 35913.66540356462, 40214.1410367657, 14227.086511503043, 23565.466530974692, 25170.679410777022, -187500.02235174447, -187500.02235174447, 0.21, 0.9400000000000001, -0.156, 192.0, 0.0, 0.0, 0.0, 0.0, 0.0, 0.0, 0.0, 0.0, 0.0, 1.7296935468253205E9, 0.0, 2024-10-23 19:55:46.825
35.0, 17555.44007485391, 33205.59510059298, 40242.3489382683, 13782.085631142334, 23580.732772437666, 24794.38779287193, -187500.02235174447, -187500.02235174447, 0.21, 0.9400000000000001, -0.156, 192.0, 0.0, 0.0, 0.0, 0.0, 0.0, 0.0, 0.0, 0.0, 0.0, 1.7296935468293097E9, 0.0, 2024-10-23 19:55:46.829
36.0, 17798.515295805373, 33340.93491326987, 40333.432296923675, 14825.97915243854, 23696.090125571507, 25656.494576513123, -187500.02235174447, -187500.02235174447, 0.21, 0.9400000000000001, -0.156, 192.0, 0.0, 0.0, 0.0, 0.0, 0.0, 0.0, 0.0, 0.0, 0.0, 1.7296935468333323E9, 0.0, 2024-10-23 19:55:46.833
37.0, 17676.16184665702, 36754.158050317536, 40224.55694968187, 15679.882845864637, 23635.87452600891, 26239.51747888535, -187500.02235174447, -187500.02235174447, 0.21, 0.9400000000000001, -0.156, 192.0, 0.0, 0.0, 0.0, 0.0, 0.0, 0.0, 0.0, 0.0, 0.0, 1.729693546838436E9, 0.0, 2024-10-23 19:55:46.838
38.0, 17471.621033146504, 37358.99625527814, 40127.99741363495, 14844.41934161417, 23518.46081238518, 25601.196360730693, -187500.02235174447, -187500.02235174447, 0.22, 0.9420000000000001, -0.154, 192.0, 6.0, 224.0, 29.0, 112.0, 251.0, 48.0, 0.0, 0.0, 0.0, 1.7296935468433273E9, 0.0, 2024-10-23 19:55:46.843
39.0, 17535.14469088849, 35907.25045290595, 40195.074998745324, 14236.787168596646, 23556.57053668148, 25175.954422468476, -187500.02235174447, -187500.02235174447, 0.22, 0.9420000000000001, -0.154, 192.0, 0.0, 0.0, 0.0, 0.0, 0.0, 0.0, 0.0, 0.0, 0.0, 1.7296935468474112E9, 0.0, 2024-10-23 19:55:46.847
40.0, 17555.462426598362, 33192.85460625346, 40227.1944555276, 13783.940825932124, 23569.936879865752, 24776.774618241147, -187500.02235174447, -187500.02235174447, 0.22, 0.9420000000000001, -0.154, 192.0, 0.0, 0.0, 0.0, 0.0, 0.0, 0.0, 0.0, 0.0, 0.0, 1.7296935468503475E9, 0.0, 2024-10-23 19:55:46.850
41.0, 17805.37728135315, 33335.14581145594, 40326.525607886986, 14819.74301573551, 23688.378773734425, 25646.145718830314, -187500.02235174447, -187500.02235174447, 0.22, 0.9420000000000001, -0.154, 192.0, 0.0, 0.0, 0.0, 0.0, 0.0, 0.0, 0.0, 0.0, 0.0, 1.72969354685335E9, 0.0, 2024-10-23 19:55:46.853
42.0, 17684.54375082776, 36765.22216382291, 40217.96318506756, 15653.91011880757, 23622.128203168893, 26218.462135608454, -187500.02235174447, -187500.02235174447, 0.22, 0.9420000000000001, -0.154, 192.0, 0.0, 0.0, 0.0, 0.0, 0.0, 0.0, 0.0, 0.0, 0.0, 1.7296935468574564E9, 0.0, 2024-10-23 19:55:46.857
43.0, 17485.0767833086, 37370.77562460609, 40125.35990778922, 14800.945198648596, 23501.786411021523, 25556.67168577572, -187500.02235174447, -187500.02235174447, 0.22, 0.9420000000000001, -0.154, 192.0, 0.0, 0.0, 0.0, 0.0, 0.0, 0.0, 0.0, 0.0, 0.0, 1.729693546861379E9, 0.0, 2024-10-23 19:55:46.861
44.0, 17544.778292748724, 35898.801493501844, 40196.10317899027, 14183.9476447043, 23537.504498661103, 25143.633799986103, -187500.02235174447, -187500.02235174447, 0.22, 0.9420000000000001, -0.154, 192.0, 0.0, 0.0, 0.0, 0.0, 0.0, 0.0, 0.0, 0.0, 0.0, 1.7296935468663647E9, 0.0, 2024-10-23 19:55:46.866
45.0, 17560.648031311994, 33160.109300626435, 40226.881531105224, 13722.317066468844, 23548.590963910934, 24758.33442906552, -187500.02235174447, -187500.02235174447, 0.22, 0.9420000000000001, -0.154, 192.0, 0.0, 0.0, 0.0, 0.0, 0.0, 0.0, 0.0, 0.0, 0.0, 1.7296935468704464E9, 0.0, 2024-10-23 19:55:46.870
46.0, 17808.774746510357, 33292.99042141323, 40326.88323579827, 14754.185349248095, 23669.044514780584, 25610.338224212912, -187500.02235174447, -187500.02235174447, 0.22, 0.9420000000000001, -0.154, 192.0, 0.0, 0.0, 0.0, 0.0, 0.0, 0.0, 0.0, 0.0, 0.0, 1.729693546874424E9, 0.0, 2024-10-23 19:55:46.874
47.0, 17682.26387289332, 36712.3155846972, 40218.70079263458, 15581.624577239107, 23605.744374483154, 26169.46711176242, -187500.02235174447, -187500.02235174447, 0.22, 0.9420000000000001, -0.154, 192.0, 0.0, 0.0, 0.0, 0.0, 0.0, 0.0, 0.0, 0.0, 0.0, 1.7296935468774688E9, 0.0, 2024-10-23 19:55:46.877
48.0, 17478.862998350025, 37314.94096695673, 40131.08195436978, 14732.794729804365, 23494.678556284733, 25525.04396737146, -187500.02235174447, -187500.02235174447, 0.212, 0.9440000000000001, -0.156, 192.0, 6.0, 160.0, 29.0, 128.0, 251.0, 32.0, 0.0, 0.0, 0.0, 1.7296935468813896E9, 0.0, 2024-10-23 19:55:46.881
49.0, 17542.431359580918, 35855.08148134726, 40208.82132158534, 14126.771882387626, 23536.744539349624, 25107.692194901967, -187500.02235174447, -187500.02235174447, 0.212, 0.9440000000000001, -0.156, 192.0, 0.0, 0.0, 0.0, 0.0, 0.0, 0.0, 0.0, 0.0, 0.0, 1.7296935468854086E9, 0.0, 2024-10-23 19:55:46.885
50.0, 17563.173778435445, 33136.23763754817, 40245.79110691442, 13683.067403205325, 23555.34119073644, 24739.04487360059, -187500.02235174447, -187500.02235174447, 0.212, 0.9440000000000001, -0.156, 192.0, 0.0, 0.0, 0.0, 0.0, 0.0, 0.0, 0.0, 0.0, 0.0, 1.7296935468894107E9, 0.0, 2024-10-23 19:55:46.889
51.0, 17808.461822087982, 33287.96127891079, 40348.273855242, 14732.504157126446, 23684.891901599396, 25610.606445146375, -187500.02235174447, -187500.02235174447, 0.212, 0.9440000000000001, -0.156, 192.0, 0.0, 0.0, 0.0, 0.0, 0.0, 0.0, 0.0, 0.0, 0.0, 1.729693546894418E9, 0.0, 2024-10-23 19:55:46.894
52.0, 17683.761439771824, 36715.40012543203, 40239.08558357783, 15570.024021866802, 23614.260389120627, 26161.733408180884, -187500.02235174447, -187500.02235174447, 0.212, 0.9440000000000001, -0.156, 192.0, 0.0, 0.0, 0.0, 0.0, 0.0, 0.0, 0.0, 0.0, 0.0, 1.7296935468985145E9, 0.0, 2024-10-23 19:55:46.898
53.0, 17480.628786161993, 37322.11587692689, 40148.605722022745, 14738.337962429281, 23504.960358734173, 25536.309246576937, -187500.02235174447, -187500.02235174447, 0.212, 0.9440000000000001, -0.156, 192.0, 0.0, 0.0, 0.0, 0.0, 0.0, 0.0, 0.0, 0.0, 0.0, 1.729693546902477E9, 0.0, 2024-10-23 19:55:46.902
54.0, 17544.08538867061, 35865.5644494968, 40224.84752235979, 14145.837920408001, 23553.66480990229, 25135.58717198219, -187500.02235174447, -187500.02235174447, 0.212, 0.9440000000000001, -0.156, 192.0, 0.0, 0.0, 0.0, 0.0, 0.0, 0.0, 0.0, 0.0, 0.0, 1.7296935469054463E9, 0.0, 2024-10-23 19:55:46.905
55.0, 17556.80353126568, 33136.03647184807, 40253.21188607358, 13706.335569183299, 23569.28867927655, 24754.601687741484, -187500.02235174447, -187500.02235174447, 0.212, 0.9440000000000001, -0.156, 192.0, 0.0, 0.0, 0.0, 0.0, 0.0, 0.0, 0.0, 0.0, 0.0, 1.7296935469105594E9, 0.0, 2024-10-23 19:55:46.910
56.0, 17802.76212725188, 33297.32665983756, 40352.81125936643, 14773.899587857675, 23693.229102281228, 25637.87557338185, -187500.02235174447, -187500.02235174447, 0.212, 0.9440000000000001, -0.156, 192.0, 0.0, 0.0, 0.0, 0.0, 0.0, 0.0, 0.0, 0.0, 0.0, 1.729693546914548E9, 0.0, 2024-10-23 19:55:46.914
57.0, 17674.26194837832, 36733.952073329936, 40238.19151379961, 15620.695426546983, 23627.67143579381, 26202.413583089543, -187500.02235174447, -187500.02235174447, 0.212, 0.9440000000000001, -0.156, 192.0, 0.0, 0.0, 0.0, 0.0, 0.0, 0.0, 0.0, 0.0, 0.0, 1.729693546917565E9, 0.0, 2024-10-23 19:55:46.917
58.0, 17466.971870299803, 37339.61729283539, 40138.949768418046, 14784.650776940678, 23512.55995184898, 25559.82328174392, -187500.02235174447, -187500.02235174447, 0.20600000000000002, 0.9400000000000001, -0.154, 192.0, 6.0, 112.0, 29.0, 96.0, 251.0, 48.0, 0.0, 0.0, 0.0, 1.7296935469214504E9, 0.0, 2024-10-23 19:55:46.921
59.0, 17527.07571114012, 35878.86373744771, 40207.27905121792, 14186.316929616563, 23552.949554079718, 25141.55508775176, -187500.02235174447, -187500.02235174447, 0.20600000000000002, 0.9400000000000001, -0.154, 192.0, 0.0, 0.0, 0.0, 0.0, 0.0, 0.0, 0.0, 0.0, 0.0, 1.729693546926468E9, 0.0, 2024-10-23 19:55:46.926
60.0, 17546.47702532733, 33150.7215679552, 40241.2984062789, 13745.451121980086, 23572.440275244746, 24774.00300192869, -187500.02235174447, -187500.02235174447, 0.20600000000000002, 0.9400000000000001, -0.154, 192.0, 0.0, 0.0, 0.0, 0.0, 0.0, 0.0, 0.0, 0.0, 0.0, 1.7296935469306657E9, 0.0, 2024-10-23 19:55:46.930
61.0, 17792.122696891154, 33309.95539545482, 40338.7743638485, 14798.97824513653, 23690.36807899095, 25637.74146291512, -187500.02235174447, -187500.02235174447, 0.20600000000000002, 0.9400000000000001, -0.154, 192.0, 0.0, 0.0, 0.0, 0.0, 0.0, 0.0, 0.0, 0.0, 0.0, 1.7296935469335487E9, 0.0, 2024-10-23 19:55:46.933
62.0, 17667.221148874898, 36762.36114053263, 40226.121571793745, 15637.481586632919, 23622.821107247008, 26195.350431841664, -187500.02235174447, -187500.02235174447, 0.20600000000000002, 0.9400000000000001, -0.154, 192.0, 0.0, 0.0, 0.0, 0.0, 0.0, 0.0, 0.0, 0.0, 0.0, 1.7296935469374678E9, 0.0, 2024-10-23 19:55:46.937
63.0, 17466.88246332198, 37376.98940956467, 40133.6747567266, 14800.92284690414, 23509.363652391872, 25563.5336713235, -187500.02235174447, -187500.02235174447, 0.20600000000000002, 0.9400000000000001, -0.154, 192.0, 0.0, 0.0, 0.0, 0.0, 0.0, 0.0, 0.0, 0.0, 0.0, 1.729693546941531E9, 0.0, 2024-10-23 19:55:46.941
64.0, 17529.690865241395, 35908.658612806634, 40204.82035932784, 14203.304255402596, 23555.072969802975, 25161.001105427877, -187500.02235174447, -187500.02235174447, 0.20600000000000002, 0.9400000000000001, -0.154, 192.0, 0.0, 0.0, 0.0, 0.0, 0.0, 0.0, 0.0, 0.0, 0.0, 1.7296935469455023E9, 0.0, 2024-10-23 19:55:46.945
65.0, 17545.627659038026, 33165.429015806796, 40229.96607184006, 13755.91173838517, 23566.338249008448, 24778.696868264302, -187500.02235174447, -187500.02235174447, 0.20600000000000002, 0.9400000000000001, -0.154, 192.0, 0.0, 0.0, 0.0, 0.0, 0.0, 0.0, 0.0, 0.0, 0.0, 1.7296935469495707E9, 0.0, 2024-10-23 19:55:46.949
66.0, 17787.182961366532, 33313.2634536342, 40320.222415950586, 14798.68767245861, 23680.39920096388, 25626.40912847628, -187500.02235174447, -187500.02235174447, 0.20600000000000002, 0.9400000000000001, -0.154, 192.0, 0.0, 0.0, 0.0, 0.0, 0.0, 0.0, 0.0, 0.0, 0.0, 1.7296935469545584E9, 0.0, 2024-10-23 19:55:46.954
67.0, 17658.34750632614, 36729.749945372336, 40203.43455117161, 15623.33293239271, 23607.71132799522, 26178.51956826682, -187500.02235174447, -187500.02235174447, 0.20600000000000002, 0.9400000000000001, -0.154, 192.0, 0.0, 0.0, 0.0, 0.0, 0.0, 0.0, 0.0, 0.0, 0.0, 1.7296935469585228E9, 0.0, 2024-10-23 19:55:46.958
68.0, 17463.3732394425, 37322.182932160256, 40116.441561751555, 14790.663396199156, 23502.054631954987, 25569.948621982174, -187500.02235174447, -187500.02235174447, 0.214, 0.9400000000000001, -0.15, 192.0, 6.0, 176.0, 29.0, 96.0, 251.0, 80.0, 0.0, 0.0, 0.0, 1.7296935469627204E9, 0.0, 2024-10-23 19:55:46.962
69.0, 17527.634504751506, 35850.4099667561, 40186.983667252505, 14185.936949960822, 23539.829080084455, 25150.16050936705, -187500.02235174447, -187500.02235174447, 0.214, 0.9400000000000001, -0.15, 192.0, 0.0, 0.0, 0.0, 0.0, 0.0, 0.0, 0.0, 0.0, 0.0, 1.7296935469655895E9, 0.0, 2024-10-23 19:55:46.965
70.0, 17544.95710670437, 33123.13951529736, 40216.73383912252, 13730.229584006023, 23549.395626711324, 24757.105083120478, -187500.02235174447, -187500.02235174447, 0.214, 0.9400000000000001, -0.15, 192.0, 0.0, 0.0, 0.0, 0.0, 0.0, 0.0, 0.0, 0.0, 0.0, 1.729693546969568E9, 0.0, 2024-10-23 19:55:46.969
71.0, 17788.99345266741, 33281.88160441895, 40312.9133955137, 14770.233901767006, 23662.62956412191, 25611.813439346963, -187500.02235174447, -187500.02235174447, 0.214, 0.9400000000000001, -0.15, 192.0, 0.0, 0.0, 0.0, 0.0, 0.0, 0.0, 0.0, 0.0, 0.0, 1.729693546973603E9, 0.0, 2024-10-23 19:55:46.973
72.0, 17665.54476804075, 36655.989188669824, 40205.40150468368, 15589.648853498562, 23598.48005753518, 26159.051198846246, -187500.02235174447, -187500.02235174447, 0.214, 0.9400000000000001, -0.15, 192.0, 0.0, 0.0, 0.0, 0.0, 0.0, 0.0, 0.0, 0.0, 0.0, 1.729693546977664E9, 0.0, 2024-10-23 19:55:46.977
73.0, 17465.340192954565, 37209.41838138323, 40117.60385246323, 14742.830663064799, 23488.353012603882, 25526.832106927886, -187500.02235174447, -187500.02235174447, 0.214, 0.9400000000000001, -0.15, 192.0, 0.0, 0.0, 0.0, 0.0, 0.0, 0.0, 0.0, 0.0, 0.0, 1.7296935469825785E9, 0.0, 2024-10-23 19:55:46.982
74.0, 17533.580068776617, 35747.34607307268, 40200.01473426995, 14142.37340001743, 23540.723149862668, 25124.679520688, -187500.02235174447, -187500.02235174447, 0.214, 0.9400000000000001, -0.15, 192.0, 0.0, 0.0, 0.0, 0.0, 0.0, 0.0, 0.0, 0.0, 0.0, 1.7296935469867227E9, 0.0, 2024-10-23 19:55:46.986
75.0, 17549.13688291751, 33046.40597658229, 40232.49181896351, 13689.482353863998, 23549.865013344886, 24737.256734044164, -187500.02235174447, -187500.02235174447, 0.214, 0.9400000000000001, -0.15, 192.0, 0.0, 0.0, 0.0, 0.0, 0.0, 0.0, 0.0, 0.0, 0.0, 1.7296935469897213E9, 0.0, 2024-10-23 19:55:46.989
76.0, 17794.51433354787, 33232.28308347262, 40333.856980068325, 14739.164976974127, 23671.749075859676, 25610.807610846474, -187500.02235174447, -187500.02235174447, 0.214, 0.9400000000000001, -0.15, 192.0, 0.0, 0.0, 0.0, 0.0, 0.0, 0.0, 0.0, 0.0, 0.0, 1.7296935469937115E9, 0.0, 2024-10-23 19:55:46.993
77.0, 17676.184198401475, 36577.64632435398, 40234.77169689795, 15571.767457934317, 23613.00869143113, 26165.957887882938, -187500.02235174447, -187500.02235174447, 0.214, 0.9400000000000001, -0.15, 192.0, 0.0, 0.0, 0.0, 0.0, 0.0, 0.0, 0.0, 0.0, 0.0, 1.7296935469976115E9, 0.0, 2024-10-23 19:55:46.997
78.0, 17478.59477741656, 37118.89381633924, 40148.65042551165, 14735.856918794743, 23503.954530233685, 25529.80488894044, -187500.02235174447, -187500.02235174447, 0.214, 0.9380000000000001, -0.158, 192.0, 6.0, 176.0, 29.0, 80.0, 251.0, 16.0, 0.0, 0.0, 0.0, 1.7296935470015836E9, 0.0, 2024-10-23 19:55:47.001
79.0, 17538.586859534607, 35674.21116521492, 40219.46075194606, 14144.362705273952, 23543.76298710859, 25136.682407460503, -187500.02235174447, -187500.02235174447, 0.214, 0.9380000000000001, -0.158, 192.0, 0.0, 0.0, 0.0, 0.0, 0.0, 0.0, 0.0, 0.0, 0.0, 1.7296935470055847E9, 0.0, 2024-10-23 19:55:47.005
80.0, 17550.52269107374, 33009.14561857529, 40243.82415340235, 13703.273380192923, 23562.069065817486, 24756.881565675925, -187500.02235174447, -187500.02235174447, 0.214, 0.9380000000000001, -0.158, 192.0, 0.0, 0.0, 0.0, 0.0, 0.0, 0.0, 0.0, 0.0, 0.0, 1.72969354701073E9, 0.0, 2024-10-23 19:55:47.010
81.0, 17792.793249224815, 33226.15870549187, 40336.94152080316, 14759.63917489519, 23680.175683519326, 25621.78231737403, -187500.02235174447, -187500.02235174447, 0.214, 0.9380000000000001, -0.158, 192.0, 0.0, 0.0, 0.0, 0.0, 0.0, 0.0, 0.0, 0.0, 0.0, 1.7296935470146253E9, 0.0, 2024-10-23 19:55:47.014
82.0, 17668.69636400895, 36582.608411623056, 40226.21097877157, 15591.504048288352, 23614.70742400973, 26174.049219375756, -187500.02235174447, -187500.02235174447, 0.214, 0.9380000000000001, -0.158, 192.0, 0.0, 0.0, 0.0, 0.0, 0.0, 0.0, 0.0, 0.0, 0.0, 1.7296935470176008E9, 0.0, 2024-10-23 19:55:47.017
83.0, 17469.341155212063, 37143.39132826225, 40133.205370093034, 14755.414695193136, 23503.619254066856, 25545.920496692717, -187500.02235174447, -187500.02235174447, 0.214, 0.9380000000000001, -0.158, 192.0, 0.0, 0.0, 0.0, 0.0, 0.0, 0.0, 0.0, 0.0, 0.0, 1.7296935470215929E9, 0.0, 2024-10-23 19:55:47.021
84.0, 17528.103891385068, 35712.92438661151, 40196.416103412645, 14158.354897302974, 23541.170184751772, 25133.843735914677, -187500.02235174447, -187500.02235174447, 0.214, 0.9380000000000001, -0.158, 192.0, 0.0, 0.0, 0.0, 0.0, 0.0, 0.0, 0.0, 0.0, 0.0, 1.7296935470255938E9, 0.0, 2024-10-23 19:55:47.025
85.0, 17538.340990345598, 33037.130002633334, 40217.806722856374, 13711.074139007824, 23550.267344745083, 24747.04679811559, -187500.02235174447, -187500.02235174447, 0.214, 0.9380000000000001, -0.158, 192.0, 0.0, 0.0, 0.0, 0.0, 0.0, 0.0, 0.0, 0.0, 0.0, 1.7296935470295691E9, 0.0, 2024-10-23 19:55:47.029
86.0, 17782.95848166448, 33247.974008080244, 40313.47218912509, 14769.272776755426, 23673.716029371742, 25613.959206814674, -187500.02235174447, -187500.02235174447, 0.214, 0.9380000000000001, -0.158, 192.0, 0.0, 0.0, 0.0, 0.0, 0.0, 0.0, 0.0, 0.0, 0.0, 1.7296935470336E9, 0.0, 2024-10-23 19:55:47.033
87.0, 17661.230881360876, 36628.34008077861, 40207.10023726228, 15604.289246116788, 23613.075746664497, 26190.969489928426, -187500.02235174447, -187500.02235174447, 0.214, 0.9380000000000001, -0.158, 192.0, 0.0, 0.0, 0.0, 0.0, 0.0, 0.0, 0.0, 0.0, 0.0, 1.7296935470376391E9, 0.0, 2024-10-23 19:55:47.037
88.0, 17458.746428340248, 37189.86060498484, 40113.93816637256, 14765.741201131488, 23499.41712610926, 25567.735799281098, -187500.02235174447, -187500.02235174447, 0.212, 0.936, -0.156, 192.0, 6.0, 160.0, 29.0, 64.0, 251.0, 32.0, 0.0, 0.0, 0.0, 1.7296935470427496E9, 0.0, 2024-10-23 19:55:47.042
89.0, 17518.380882547008, 35744.32858757122, 40179.85346077126, 14164.054592139077, 23538.66678937278, 25146.248954087372, -187500.02235174447, -187500.02235174447, 0.212, 0.936, -0.156, 192.0, 0.0, 0.0, 0.0, 0.0, 0.0, 0.0, 0.0, 0.0, 0.0, 1.7296935470456507E9, 0.0, 2024-10-23 19:55:47.045
90.0, 17534.51884204374, 33053.849107485905, 40207.34610645129, 13718.584325144808, 23556.61524017039, 24766.693981491804, -187500.02235174447, -187500.02235174447, 0.212, 0.936, -0.156, 192.0, 0.0, 0.0, 0.0, 0.0, 0.0, 0.0, 0.0, 0.0, 0.0, 1.729693547049631E9, 0.0, 2024-10-23 19:55:47.049
91.0, 17777.19173159501, 33258.546383207606, 40300.75404653002, 14775.73243090301, 23675.370058461438, 25639.641361193822, -187500.02235174447, -187500.02235174447, 0.212, 0.936, -0.156, 192.0, 0.0, 0.0, 0.0, 0.0, 0.0, 0.0, 0.0, 0.0, 0.0, 1.7296935470536222E9, 0.0, 2024-10-23 19:55:47.053
92.0, 17652.603108001127, 36620.04758358569, 40190.895222532185, 15600.71296700394, 23610.23707511867, 26180.79944620126, -187500.02235174447, -187500.02235174447, 0.212, 0.936, -0.156, 192.0, 0.0, 0.0, 0.0, 0.0, 0.0, 0.0, 0.0, 0.0, 0.0, 1.7296935470577683E9, 0.0, 2024-10-23 19:55:47.057
93.0, 17456.824178317092, 37163.97728490559, 40103.991640089946, 14757.783980105398, 23500.6464720543, 25536.488060532578, -187500.02235174447, -187500.02235174447, 0.212, 0.936, -0.156, 192.0, 0.0, 0.0, 0.0, 0.0, 0.0, 0.0, 0.0, 0.0, 0.0, 1.729693547061674E9, 0.0, 2024-10-23 19:55:47.061
94.0, 17516.436280779395, 35706.01769757482, 40173.840841512785, 14162.691135727304, 23536.94570504972, 25134.626046970614, -187500.02235174447, -187500.02235174447, 0.212, 0.936, -0.156, 192.0, 0.0, 0.0, 0.0, 0.0, 0.0, 0.0, 0.0, 0.0, 0.0, 1.729693547065661E9, 0.0, 2024-10-23 19:55:47.065
95.0, 17534.02710366572, 33019.06979311345, 40207.07788551782, 13712.974037286525, 23554.357713980404, 24749.32667605003, -187500.02235174447, -187500.02235174447, 0.212, 0.936, -0.156, 192.0, 0.0, 0.0, 0.0, 0.0, 0.0, 0.0, 0.0, 0.0, 0.0, 1.7296935470707088E9, 0.0, 2024-10-23 19:55:47.070
96.0, 17785.439525299018, 33237.6922056308, 40312.466360624596, 14771.664413412145, 23679.88511084141, 25611.724032369144, -187500.02235174447, -187500.02235174447, 0.212, 0.936, -0.156, 192.0, 0.0, 0.0, 0.0, 0.0, 0.0, 0.0, 0.0, 0.0, 0.0, 1.7296935470737145E9, 0.0, 2024-10-23 19:55:47.073
97.0, 17661.29793659424, 36575.99229526428, 40213.04580128739, 15600.265932114833, 23631.605342817944, 26191.79650447327, -187500.02235174447, -187500.02235174447, 0.212, 0.936, -0.156, 192.0, 0.0, 0.0, 0.0, 0.0, 0.0, 0.0, 0.0, 0.0, 0.0, 1.7296935470777159E9, 0.0, 2024-10-23 19:55:47.077
98.0, 17459.707553351825, 37101.0571242639, 40122.70005019904, 14754.051238781363, 23516.60561759539, 25563.66778179023, -187500.02235174447, -187500.02235174447, 0.214, 0.9440000000000001, -0.154, 192.0, 6.0, 176.0, 29.0, 128.0, 251.0, 48.0, 0.0, 0.0, 0.0, 1.729693547081676E9, 0.0, 2024-10-23 19:55:47.081
99.0, 17521.51012677075, 35649.646598058534, 40192.705713833064, 14149.950641387779, 23553.32953373546, 25139.811651684246, -187500.02235174447, -187500.02235174447, 0.214, 0.9440000000000001, -0.154, 192.0, 0.0, 0.0, 0.0, 0.0, 0.0, 0.0, 0.0, 0.0, 0.0, 1.7296935470856843E9, 0.0, 2024-10-23 19:55:47.085
100.0, 17539.36917059054, 32974.925097814215, 40226.16627528266, 13701.529944125408, 23564.23718502965, 24754.08759761901, -187500.02235174447, -187500.02235174447, 0.214, 0.9440000000000001, -0.154, 192.0, 0.0, 0.0, 0.0, 0.0, 0.0, 0.0, 0.0, 0.0, 0.0, 1.7296935470927536E9, 0.0, 2024-10-23 19:55:47.092
101.0, 17787.182961366532, 33199.94010924579, 40328.44785791014, 14765.182407520106, 23685.003660321672, 25620.46356445117, -187500.02235174447, -187500.02235174447, 0.214, 0.9440000000000001, -0.154, 192.0, 0.0, 0.0, 0.0, 0.0, 0.0, 0.0, 0.0, 0.0, 0.0, 1.729693547095766E9, 0.0, 2024-10-23 19:55:47.095
102.0, 17663.15313138403, 36531.93700694287, 40221.47240894704, 15580.596396994162, 23618.730738011687, 26159.453530246443, -187500.02235174447, -187500.02235174447, 0.214, 0.9440000000000001, -0.154, 192.0, 0.0, 0.0, 0.0, 0.0, 0.0, 0.0, 0.0, 0.0, 0.0, 1.7296935470997164E9, 0.0, 2024-10-23 19:55:47.099
103.0, 17463.417942931406, 37061.00279819999, 40134.345309060256, 14742.87536655371, 23509.27424541405, 25539.48319428959, -187500.02235174447, -187500.02235174447, 0.214, 0.9440000000000001, -0.154, 192.0, 0.0, 0.0, 0.0, 0.0, 0.0, 0.0, 0.0, 0.0, 0.0, 1.7296935471027617E9, 0.0, 2024-10-23 19:55:47.102
104.0, 17530.56258327515, 35630.714670504894, 40211.63764138671, 14160.746533959691, 23556.27996400356, 25134.715453948433, -187500.02235174447, -187500.02235174447, 0.214, 0.9440000000000001, -0.154, 192.0, 0.0, 0.0, 0.0, 0.0, 0.0, 0.0, 0.0, 0.0, 0.0, 1.7296935471067133E9, 0.0, 2024-10-23 19:55:47.106
105.0, 17550.90267072948, 32971.59468789038, 40248.54037148242, 13728.91083108316, 23577.983507869663, 24760.591955255506, -187500.02235174447, -187500.02235174447, 0.214, 0.9440000000000001, -0.154, 192.0, 0.0, 0.0, 0.0, 0.0, 0.0, 0.0, 0.0, 0.0, 0.0, 1.729693547109734E9, 0.0, 2024-10-23 19:55:47.109
106.0, 17792.949711436, 33215.78749606461, 40344.40700345123, 14801.973378893541, 23694.771372648644, 25641.049521094505, -187500.02235174447, -187500.02235174447, 0.214, 0.9440000000000001, -0.154, 192.0, 0.0, 0.0, 0.0, 0.0, 0.0, 0.0, 0.0, 0.0, 0.0, 1.7296935471137388E9, 0.0, 2024-10-23 19:55:47.113
107.0, 17659.912128438013, 36552.00887346374, 40229.07200206185, 15621.164813180545, 23630.644217806366, 26184.107504380645, -187500.02235174447, -187500.02235174447, 0.214, 0.9440000000000001, -0.154, 192.0, 0.0, 0.0, 0.0, 0.0, 0.0, 0.0, 0.0, 0.0, 0.0, 1.7296935471177824E9, 0.0, 2024-10-23 19:55:47.117
108.0, 17458.187634728867, 37082.19225194362, 40137.58631200628, 14783.510837973457, 23522.685292087233, 25553.609496785342, -187500.02235174447, -187500.02235174447, 0.22, 0.9400000000000001, -0.152, 192.0, 6.0, 224.0, 29.0, 96.0, 251.0, 64.0, 0.0, 0.0, 0.0, 1.7296935471217332E9, 0.0, 2024-10-23 19:55:47.121
109.0, 17518.85026918057, 35648.28314164676, 40206.49674016199, 14198.118650688964, 23561.823196628477, 25153.155643124064, -187500.02235174447, -187500.02235174447, 0.22, 0.9400000000000001, -0.152, 192.0, 0.0, 0.0, 0.0, 0.0, 0.0, 0.0, 0.0, 0.0, 0.0, 1.7296935471268024E9, 0.0, 2024-10-23 19:55:47.126
110.0, 17536.552850789172, 32981.76473161754, 40234.77169689795, 13754.727095929038, 23571.926185122276, 24766.783388469627, -187500.02235174447, -187500.02235174447, 0.22, 0.9400000000000001, -0.152, 192.0, 0.0, 0.0, 0.0, 0.0, 0.0, 0.0, 0.0, 0.0, 0.0, 1.72969354712974E9, 0.0, 2024-10-23 19:55:47.129
111.0, 17782.019708397354, 33230.47259217174, 40329.02900326598, 14822.872259959253, 23692.78206739212, 25637.69675942621, -187500.02235174447, -187500.02235174447, 0.22, 0.9400000000000001, -0.152, 192.0, 0.0, 0.0, 0.0, 0.0, 0.0, 0.0, 0.0, 0.0, 0.0, 1.7296935471337245E9, 0.0, 2024-10-23 19:55:47.133
112.0, 17653.228956845876, 36582.49665290078, 40216.2421007445, 15643.896537291592, 23631.046549206563, 26190.298937594765, -187500.02235174447, -187500.02235174447, 0.22, 0.9400000000000001, -0.152, 192.0, 0.0, 0.0, 0.0, 0.0, 0.0, 0.0, 0.0, 0.0, 0.0, 1.7296935471377676E9, 0.0, 2024-10-23 19:55:47.137
113.0, 17452.242070703756, 37122.87242685228, 40121.13542808717, 14800.676977715133, 23516.560914106478, 25554.61532528583, -187500.02235174447, -187500.02235174447, 0.22, 0.9400000000000001, -0.152, 192.0, 0.0, 0.0, 0.0, 0.0, 0.0, 0.0, 0.0, 0.0, 0.0, 1.729693547141782E9, 0.0, 2024-10-23 19:55:47.141
114.0, 17514.75989994525, 35686.43756943197, 40191.029332998914, 14207.305217660096, 23558.246917515626, 25156.55310828127, -187500.02235174447, -187500.02235174447, 0.22, 0.9400000000000001, -0.152, 192.0, 0.0, 0.0, 0.0, 0.0, 0.0, 0.0, 0.0, 0.0, 0.0, 1.7296935471460507E9, 0.0, 2024-10-23 19:55:47.146
115.0, 17530.786100719703, 33010.06204009796, 40216.063286788856, 13752.33545927232, 23566.651173430822, 24774.315926351064, -187500.02235174447, -187500.02235174447, 0.22, 0.9400000000000001, -0.152, 192.0, 0.0, 0.0, 0.0, 0.0, 0.0, 0.0, 0.0, 0.0, 0.0, 1.7296935471518102E9, 0.0, 2024-10-23 19:55:47.151
116.0, 17775.18007459403, 33259.48515647473, 40309.33711640086, 14809.12593711924, 23684.73543938821, 25641.205983305692, -187500.02235174447, -187500.02235174447, 0.22, 0.9400000000000001, -0.152, 192.0, 0.0, 0.0, 0.0, 0.0, 0.0, 0.0, 0.0, 0.0, 0.0, 1.7296935471548722E9, 0.0, 2024-10-23 19:55:47.154
117.0, 17646.54578525374, 36612.179769537426, 40196.79608306838, 15612.872315987626, 23620.49652582366, 26183.906338680546, -187500.02235174447, -187500.02235174447, 0.22, 0.9400000000000001, -0.152, 192.0, 0.0, 0.0, 0.0, 0.0, 0.0, 0.0, 0.0, 0.0, 0.0, 1.729693547157833E9, 0.0, 2024-10-23 19:55:47.157
118.0, 17448.531681124172, 37142.18433406166, 40106.27151802439, 14757.426352194114, 23506.12264944585, 25540.734891979086, -187500.02235174447, -187500.02235174447, 0.22, 0.9400000000000001, -0.152, 192.0, 0.0, 0.0, 0.0, 0.0, 0.0, 0.0, 0.0, 0.0, 0.0, 1.7296935471617885E9, 0.0, 2024-10-23 19:55:47.161
119.0, 17511.071862110122, 35691.89139507907, 40173.95260023506, 14152.431685022317, 23539.784376595544, 25115.492953716872, -187500.02235174447, -187500.02235174447, 0.222, 0.934, -0.15, 192.0, 6.0, 240.0, 29.0, 48.0, 251.0, 80.0, 0.0, 0.0, 0.0, 1.7296935471659708E9, 0.0, 2024-10-23 19:55:47.165
120.0, 17531.166080375442, 33001.702487671675, 40206.74260935099, 13697.976016757015, 23552.167243023785, 24733.90397237587, -187500.02235174447, -187500.02235174447, 0.222, 0.934, -0.15, 192.0, 0.0, 0.0, 0.0, 0.0, 0.0, 0.0, 0.0, 0.0, 0.0, 1.7296935471698372E9, 0.0, 2024-10-23 19:55:47.169
121.0, 17777.057621128275, 33240.12854577643, 40307.146645444234, 14751.570195146824, 23673.11253227145, 25614.048613792493, -187500.02235174447, -187500.02235174447, 0.222, 0.934, -0.15, 192.0, 0.0, 0.0, 0.0, 0.0, 0.0, 0.0, 0.0, 0.0, 0.0, 1.7296935471738243E9, 0.0, 2024-10-23 19:55:47.173
122.0, 17649.138587610556, 36587.59285063659, 40199.29947844738, 15556.255347282333, 23605.587912271967, 26153.84324238816, -187500.02235174447, -187500.02235174447, 0.222, 0.934, -0.15, 192.0, 0.0, 0.0, 0.0, 0.0, 0.0, 0.0, 0.0, 0.0, 0.0, 1.7296935471778042E9, 0.0, 2024-10-23 19:55:47.177
123.0, 17446.810596801115, 37107.04739177792, 40109.870148881695, 14709.817136504309, 23492.130457416828, 25508.23545554107, -187500.02235174447, -187500.02235174447, 0.222, 0.934, -0.15, 192.0, 0.0, 0.0, 0.0, 0.0, 0.0, 0.0, 0.0, 0.0, 0.0, 1.7296935471817892E9, 0.0, 2024-10-23 19:55:47.181
124.0, 17515.296341812176, 35656.91091500651, 40192.079864988315, 14127.934173099302, 23544.79116735353, 25119.985654352386, -187500.02235174447, -187500.02235174447, 0.222, 0.934, -0.15, 192.0, 0.0, 0.0, 0.0, 0.0, 0.0, 0.0, 0.0, 0.0, 0.0, 1.7296935471867762E9, 0.0, 2024-10-23 19:55:47.186
125.0, 17533.334199587607, 32952.64040859228, 40224.48989444851, 13685.70490905105, 23557.911641348797, 24734.619228198437, -187500.02235174447, -187500.02235174447, 0.222, 0.934, -0.15, 192.0, 0.0, 0.0, 0.0, 0.0, 0.0, 0.0, 0.0, 0.0, 0.0, 1.7296935471898248E9, 0.0, 2024-10-23 19:55:47.189
126.0, 17778.309318817774, 33190.6864870413, 40325.385668919764, 14758.990974305985, 23675.951203817272, 25617.759003372077, -187500.02235174447, -187500.02235174447, 0.222, 0.934, -0.15, 192.0, 0.0, 0.0, 0.0, 0.0, 0.0, 0.0, 0.0, 0.0, 0.0, 1.7296935471938472E9, 0.0, 2024-10-23 19:55:47.193
127.0, 17652.9160324235, 36542.5764373036, 40222.545292680894, 15576.550731247751, 23620.988264201675, 26170.539995496274, -187500.02235174447, -187500.02235174447, 0.222, 0.934, -0.15, 192.0, 0.0, 0.0, 0.0, 0.0, 0.0, 0.0, 0.0, 0.0, 0.0, 1.729693547197848E9, 0.0, 2024-10-23 19:55:47.197
128.0, 17454.231375960277, 37058.58880979881, 40137.049870139344, 14737.756817073443, 23515.778603050545, 25537.24801984406, -187500.02235174447, -187500.02235174447, 0.222, 0.934, -0.15, 192.0, 0.0, 0.0, 0.0, 0.0, 0.0, 0.0, 0.0, 0.0, 0.0, 1.7296935472018657E9, 0.0, 2024-10-23 19:55:47.201
129.0, 17513.441147022386, 35592.98492586433, 40207.92725180712, 14149.727123943225, 23553.016609313087, 25122.60080845366, -187500.02235174447, -187500.02235174447, 0.216, 0.9400000000000001, -0.148, 192.0, 6.0, 192.0, 29.0, 96.0, 251.0, 96.0, 0.0, 0.0, 0.0, 1.7296935472058177E9, 0.0, 2024-10-23 19:55:47.205
130.0, 17535.368208333042, 32902.304280078926, 40245.0982028363, 13718.181993744613, 23573.289641534047, 24754.400522041386, -187500.02235174447, -187500.02235174447, 0.216, 0.9400000000000001, -0.148, 192.0, 0.0, 0.0, 0.0, 0.0, 0.0, 0.0, 0.0, 0.0, 0.0, 1.7296935472098515E9, 0.0, 2024-10-23 19:55:47.209
131.0, 17784.925435176545, 33157.96353315873, 40347.64800639725, 14800.878143415232, 23699.241721539704, 25648.693817698222, -187500.02235174447, -187500.02235174447, 0.216, 0.9400000000000001, -0.148, 192.0, 0.0, 0.0, 0.0, 0.0, 0.0, 0.0, 0.0, 0.0, 0.0, 1.7296935472148893E9, 0.0, 2024-10-23 19:55:47.214
132.0, 17655.06179989121, 36498.52114898219, 40238.66090043318, 15614.794566010782, 23637.68501730979, 26185.538016025785, -187500.02235174447, -187500.02235174447, 0.216, 0.9400000000000001, -0.148, 192.0, 0.0, 0.0, 0.0, 0.0, 0.0, 0.0, 0.0, 0.0, 0.0, 1.729693547217852E9, 0.0, 2024-10-23 19:55:47.217
133.0, 17456.39949517244, 37013.438285999095, 40146.7281754885, 14774.92776810262, 23523.13232697634, 25541.651313501756, -187500.02235174447, -187500.02235174447, 0.216, 0.9400000000000001, -0.148, 192.0, 0.0, 0.0, 0.0, 0.0, 0.0, 0.0, 0.0, 0.0, 0.0, 1.7296935472219012E9, 0.0, 2024-10-23 19:55:47.221
134.0, 17519.833745936605, 35560.46313768186, 40216.130342022225, 14183.098278414998, 23560.079760560962, 25122.913732876033, -187500.02235174447, -187500.02235174447, 0.216, 0.9400000000000001, -0.148, 192.0, 0.0, 0.0, 0.0, 0.0, 0.0, 0.0, 0.0, 0.0, 0.0, 1.7296935472258804E9, 0.0, 2024-10-23 19:55:47.225
135.0, 17529.020312907734, 32857.39962546821, 40235.7998771429, 13736.018685819947, 23570.04863858803, 24747.85146091598, -187500.02235174447, -187500.02235174447, 0.216, 0.9400000000000001, -0.148, 192.0, 0.0, 0.0, 0.0, 0.0, 0.0, 0.0, 0.0, 0.0, 0.0, 1.729693547229928E9, 0.0, 2024-10-23 19:55:47.229
136.0, 17773.056658870777, 33113.86354134841, 40325.475075897586, 14809.394158052703, 23686.92591034483, 25624.17395403075, -187500.02235174447, -187500.02235174447, 0.216, 0.9400000000000001, -0.148, 192.0, 0.0, 0.0, 0.0, 0.0, 0.0, 0.0, 0.0, 0.0, 0.0, 1.7296935472339375E9, 0.0, 2024-10-23 19:55:47.233
137.0, 17640.39905552853, 36463.22774448726, 40207.50256866247, 15615.107490433156, 23613.880409464888, 26176.485559521385, -187500.02235174447, -187500.02235174447, 0.216, 0.9400000000000001, -0.148, 192.0, 0.0, 0.0, 0.0, 0.0, 0.0, 0.0, 0.0, 0.0, 0.0, 1.7296935472380013E9, 0.0, 2024-10-23 19:55:47.238
138.0, 17446.408265400918, 36996.65212591316, 40120.37546877569, 14774.659547169156, 23507.731975046634, 25545.4287583147, -187500.02235174447, -187500.02235174447, 0.216, 0.9400000000000001, -0.148, 192.0, 0.0, 0.0, 0.0, 0.0, 0.0, 0.0, 0.0, 0.0, 0.0, 1.7296935472429175E9, 0.0, 2024-10-23 19:55:47.242
139.0, 17506.422699263418, 35550.740128843805, 40188.168309708635, 14181.935987703322, 23543.8076905975, 25130.848602157665, -187500.02235174447, -187500.02235174447, 0.218, 0.9440000000000001, -0.154, 192.0, 6.0, 208.0, 29.0, 128.0, 251.0, 48.0, 0.0, 0.0, 0.0, 1.7296935472458875E9, 0.0, 2024-10-23 19:55:47.245
140.0, 17518.80556569166, 32852.862221343785, 40213.761057109965, 13731.749502628983, 23554.737693636143, 24742.442338757795, -187500.02235174447, -187500.02235174447, 0.218, 0.9440000000000001, -0.154, 192.0, 0.0, 0.0, 0.0, 0.0, 0.0, 0.0, 0.0, 0.0, 0.0, 1.7296935472499497E9, 0.0, 2024-10-23 19:55:47.249
141.0, 17766.08291460072, 33124.48061996468, 40308.912433256206, 14797.033643368917, 23679.281613741114, 25613.936855070217, -187500.02235174447, -187500.02235174447, 0.218, 0.9440000000000001, -0.154, 192.0, 0.0, 0.0, 0.0, 0.0, 0.0, 0.0, 0.0, 0.0, 0.0, 1.7296935472539756E9, 0.0, 2024-10-23 19:55:47.253
142.0, 17637.1133490936, 36510.07700086558, 40197.176062724124, 15598.164868136033, 23611.175848385796, 26165.399094271554, -187500.02235174447, -187500.02235174447, 0.218, 0.9440000000000001, -0.154, 192.0, 0.0, 0.0, 0.0, 0.0, 0.0, 0.0, 0.0, 0.0, 0.0, 1.7296935472581265E9, 0.0, 2024-10-23 19:55:47.258
143.0, 17438.719265308293, 37053.492612063004, 40108.14906455864, 14747.502177655957, 23499.685347042723, 25540.06433964543, -187500.02235174447, -187500.02235174447, 0.218, 0.9440000000000001, -0.154, 192.0, 0.0, 0.0, 0.0, 0.0, 0.0, 0.0, 0.0, 0.0, 0.0, 1.7296935472649076E9, 0.0, 2024-10-23 19:55:47.264
144.0, 17504.768670173726, 35600.69627770141, 40181.2839724164, 14151.023525121633, 23539.47145217317, 25112.92250310451, -187500.02235174447, -187500.02235174447, 0.218, 0.9440000000000001, -0.154, 192.0, 0.0, 0.0, 0.0, 0.0, 0.0, 0.0, 0.0, 0.0, 0.0, 1.72969354726794E9, 0.0, 2024-10-23 19:55:47.267
145.0, 17522.292437826687, 32877.65030594472, 40209.357763452266, 13696.970188256526, 23548.23333599965, 24728.003111839666, -187500.02235174447, -187500.02235174447, 0.218, 0.9440000000000001, -0.154, 192.0, 0.0, 0.0, 0.0, 0.0, 0.0, 0.0, 0.0, 0.0, 0.0, 1.7296935472719622E9, 0.0, 2024-10-23 19:55:47.271
146.0, 17774.464818771463, 33135.03064334758, 40314.99210774805, 14772.87140761273, 23678.231081751717, 25629.35955874438, -187500.02235174447, -187500.02235174447, 0.218, 0.9440000000000001, -0.154, 192.0, 0.0, 0.0, 0.0, 0.0, 0.0, 0.0, 0.0, 0.0, 0.0, 1.729693547275006E9, 0.0, 2024-10-23 19:55:47.275
147.0, 17652.24548008984, 36529.85829470853, 40214.09633327679, 15580.46228652743, 23616.51791531061, 26170.27177456281, -187500.02235174447, -187500.02235174447, 0.218, 0.9440000000000001, -0.154, 192.0, 0.0, 0.0, 0.0, 0.0, 0.0, 0.0, 0.0, 0.0, 0.0, 1.7296935472779257E9, 0.0, 2024-10-23 19:55:47.277
148.0, 17456.198329472343, 37059.1476034102, 40127.32686130129, 14727.810290790832, 23502.50166684409, 25520.28304580248, -187500.02235174447, -187500.02235174447, 0.218, 0.9440000000000001, -0.154, 192.0, 0.0, 0.0, 0.0, 0.0, 0.0, 0.0, 0.0, 0.0, 0.0, 1.729693547281912E9, 0.0, 2024-10-23 19:55:47.281
149.0, 17516.480984268306, 35576.77991113423, 40196.66197260165, 14135.51141446965, 23535.17991723775, 25104.339433233672, -187500.02235174447, -187500.02235174447, 0.212, 0.9400000000000001, -0.158, 192.0, 6.0, 160.0, 29.0, 96.0, 251.0, 16.0, 0.0, 0.0, 0.0, 1.729693547285971E9, 0.0, 2024-10-23 19:55:47.285
150.0, 17531.076673397623, 32837.03718626943, 40224.84752235979, 13689.638816075185, 23548.32274297747, 24724.359777493453, -187500.02235174447, -187500.02235174447, 0.212, 0.9400000000000001, -0.158, 192.0, 0.0, 0.0, 0.0, 0.0, 0.0, 0.0, 0.0, 0.0, 0.0, 1.7296935472900617E9, 0.0, 2024-10-23 19:55:47.290
151.0, 17779.024574640345, 33087.44377940223, 40324.96098577511, 14773.385497735204, 23676.286479984105, 25621.02235806255, -187500.02235174447, -187500.02235174447, 0.212, 0.9400000000000001, -0.158, 192.0, 0.0, 0.0, 0.0, 0.0, 0.0, 0.0, 0.0, 0.0, 0.0, 1.7296935472939858E9, 0.0, 2024-10-23 19:55:47.293
152.0, 17646.411674787007, 36445.32399717856, 40214.990403055, 15574.069687613213, 23610.01355767412, 26153.12798656559, -187500.02235174447, -187500.02235174447, 0.212, 0.9400000000000001, -0.158, 192.0, 0.0, 0.0, 0.0, 0.0, 0.0, 0.0, 0.0, 0.0, 0.0, 1.7296935472979932E9, 0.0, 2024-10-23 19:55:47.297
153.0, 17450.476282891785, 36956.24017193796, 40132.95950090403, 14734.493462382969, 23507.97784423564, 25523.85932491533, -187500.02235174447, -187500.02235174447, 0.212, 0.9400000000000001, -0.158, 192.0, 0.0, 0.0, 0.0, 0.0, 0.0, 0.0, 0.0, 0.0, 0.0, 1.7296935473009646E9, 0.0, 2024-10-23 19:55:47.300
154.0, 17518.693806969382, 35486.74708446826, 40212.710525120565, 14160.791237448602, 23558.068103559985, 25138.60465748366, -187500.02235174447, -187500.02235174447, 0.212, 0.9400000000000001, -0.158, 192.0, 0.0, 0.0, 0.0, 0.0, 0.0, 0.0, 0.0, 0.0, 0.0, 1.7296935473049853E9, 0.0, 2024-10-23 19:55:47.304
155.0, 17541.269068869242, 32774.139377372194, 40247.378080770744, 13725.2898484814, 23572.172054311282, 24759.094388376998, -187500.02235174447, -187500.02235174447, 0.212, 0.9400000000000001, -0.158, 192.0, 0.0, 0.0, 0.0, 0.0, 0.0, 0.0, 0.0, 0.0, 0.0, 1.729693547309996E9, 0.0, 2024-10-23 19:55:47.309
156.0, 17789.038156156323, 33039.365177078864, 40347.8715238418, 14811.182297609128, 23694.771372648644, 25649.36437003188, -187500.02235174447, -187500.02235174447, 0.212, 0.9400000000000001, -0.158, 192.0, 0.0, 0.0, 0.0, 0.0, 0.0, 0.0, 0.0, 0.0, 0.0, 1.7296935473140173E9, 0.0, 2024-10-23 19:55:47.314
157.0, 17652.714866723403, 36371.83146140951, 40232.78239164143, 15610.525382819818, 23623.134031669382, 26181.492350279375, -187500.02235174447, -187500.02235174447, 0.212, 0.9400000000000001, -0.158, 192.0, 0.0, 0.0, 0.0, 0.0, 0.0, 0.0, 0.0, 0.0, 0.0, 1.7296935473180149E9, 0.0, 2024-10-23 19:55:47.318
158.0, 17457.539434139664, 36877.87495587766, 40140.961425419024, 14763.975413319518, 23505.74266979011, 25527.43560402818, -187500.02235174447, -187500.02235174447, 0.212, 0.9400000000000001, -0.158, 192.0, 0.0, 0.0, 0.0, 0.0, 0.0, 0.0, 0.0, 0.0, 0.0, 1.7296935473219807E9, 0.0, 2024-10-23 19:55:47.321
159.0, 17520.70546397036, 35420.54121739164, 40210.72121986404, 14174.872836455446, 23545.99816155412, 25109.033299569288, -187500.02235174447, -187500.02235174447, 0.216, 0.9420000000000001, -0.158, 192.0, 6.0, 192.0, 29.0, 112.0, 251.0, 16.0, 0.0, 0.0, 0.0, 1.7296935473270333E9, 0.0, 2024-10-23 19:55:47.327
160.0, 17539.480929312816, 32727.871266349706, 40242.125420823744, 13736.264555008955, 23562.113769306394, 24755.071074375042, -187500.02235174447, -187500.02235174447, 0.216, 0.9420000000000001, -0.158, 192.0, 0.0, 0.0, 0.0, 0.0, 0.0, 0.0, 0.0, 0.0, 0.0, 1.7296935473300445E9, 0.0, 2024-10-23 19:55:47.330
161.0, 17783.450220042494, 33014.17476107774, 40334.72869810208, 14815.451480800091, 23674.945375316787, 25642.055349594993, -187500.02235174447, -187500.02235174447, 0.216, 0.9420000000000001, -0.158, 192.0, 0.0, 0.0, 0.0, 0.0, 0.0, 0.0, 0.0, 0.0, 0.0, 1.7296935473330457E9, 0.0, 2024-10-23 19:55:47.333
162.0, 17653.1171981236, 36376.212403322745, 40222.25472000298, 15615.889801489093, 23610.52764779659, 26177.02200138831, -187500.02235174447, -187500.02235174447, 0.216, 0.9420000000000001, -0.158, 192.0, 0.0, 0.0, 0.0, 0.0, 0.0, 0.0, 0.0, 0.0, 0.0, 1.7296935473380358E9, 0.0, 2024-10-23 19:55:47.338
163.0, 17448.79990205764, 36891.44246476203, 40123.929396144085, 14758.946270817074, 23489.582358548923, 25526.6756447167, -187500.02235174447, -187500.02235174447, 0.216, 0.9420000000000001, -0.158, 192.0, 0.0, 0.0, 0.0, 0.0, 0.0, 0.0, 0.0, 0.0, 0.0, 1.7296935473420167E9, 0.0, 2024-10-23 19:55:47.342
164.0, 17509.194315575878, 35434.9133890764, 40190.73876032099, 14162.825246194036, 23533.056501514497, 25111.31317750373, -187500.02235174447, -187500.02235174447, 0.216, 0.9420000000000001, -0.158, 192.0, 0.0, 0.0, 0.0, 0.0, 0.0, 0.0, 0.0, 0.0, 0.0, 1.7296935473463824E9, 0.0, 2024-10-23 19:55:47.346
165.0, 17530.406121063963, 32730.352309984246, 40226.21097877157, 13716.550316399374, 23553.46364420219, 24733.591047953494, -187500.02235174447, -187500.02235174447, 0.216, 0.9420000000000001, -0.158, 192.0, 0.0, 0.0, 0.0, 0.0, 0.0, 0.0, 0.0, 0.0, 0.0, 1.7296935473500364E9, 0.0, 2024-10-23 19:55:47.350
166.0, 17777.37054555065, 33014.48768550011, 40325.76564857551, 14799.671149214644, 23676.062962539552, 25641.02716935005, -187500.02235174447, -187500.02235174447, 0.216, 0.9420000000000001, -0.158, 192.0, 0.0, 0.0, 0.0, 0.0, 0.0, 0.0, 0.0, 0.0, 0.0, 1.729693547357077E9, 0.0, 2024-10-23 19:55:47.357
167.0, 17636.420445015483, 36371.69735094278, 40204.48508316101, 15581.423411539008, 23598.23418834617, 26154.26792553281, -187500.02235174447, -187500.02235174447, 0.216, 0.9420000000000001, -0.158, 192.0, 0.0, 0.0, 0.0, 0.0, 0.0, 0.0, 0.0, 0.0, 0.0, 1.729693547361127E9, 0.0, 2024-10-23 19:55:47.361
168.0, 17440.462701375807, 36895.845758419724, 40116.866244896206, 14727.63147683519, 23490.811704493964, 25516.550304478445, -187500.02235174447, -187500.02235174447, 0.216, 0.9420000000000001, -0.158, 192.0, 0.0, 0.0, 0.0, 0.0, 0.0, 0.0, 0.0, 0.0, 0.0, 1.7296935473640935E9, 0.0, 2024-10-23 19:55:47.364
169.0, 17505.908609140948, 35440.344862979044, 40191.588126610295, 14143.111007584455, 23531.558934635992, 25112.050785070755, -187500.02235174447, -187500.02235174447, 0.212, 0.9380000000000001, -0.158, 192.0, 6.0, 160.0, 29.0, 80.0, 251.0, 16.0, 0.0, 0.0, 0.0, 1.7296935473680773E9, 0.0, 2024-10-23 19:55:47.368
170.0, 17520.66076048145, 32719.690527879065, 40218.67844089013, 13696.813726045339, 23541.32664696296, 24721.69991990327, -187500.02235174447, -187500.02235174447, 0.212, 0.9380000000000001, -0.158, 192.0, 0.0, 0.0, 0.0, 0.0, 0.0, 0.0, 0.0, 0.0, 0.0, 1.7296935473710773E9, 0.0, 2024-10-23 19:55:47.371
171.0, 17763.84774015519, 33006.038726096005, 40313.78511354746, 14777.945253604086, 23665.11060775645, 25609.377099201334, -187500.02235174447, -187500.02235174447, 0.212, 0.9380000000000001, -0.158, 192.0, 0.0, 0.0, 0.0, 0.0, 0.0, 0.0, 0.0, 0.0, 0.0, 1.729693547374074E9, 0.0, 2024-10-23 19:55:47.374
172.0, 17630.698398434924, 36396.88776694391, 40198.00307726897, 15576.818952181215, 23598.390650557358, 26155.139643566567, -187500.02235174447, -187500.02235174447, 0.212, 0.9380000000000001, -0.158, 192.0, 0.0, 0.0, 0.0, 0.0, 0.0, 0.0, 0.0, 0.0, 0.0, 1.7296935473781912E9, 0.0, 2024-10-23 19:55:47.378
173.0, 17428.951552981325, 36922.95842444401, 40102.40466623362, 14722.982313988485, 23488.196550392695, 25511.454106742636, -187500.02235174447, -187500.02235174447, 0.212, 0.9380000000000001, -0.158, 192.0, 0.0, 0.0, 0.0, 0.0, 0.0, 0.0, 0.0, 0.0, 0.0, 1.7296935473831165E9, 0.0, 2024-10-23 19:55:47.383
174.0, 17495.090364824577, 35455.365235253004, 40177.327713647814, 14136.27137378113, 23537.817423083477, 25111.11201180363, -187500.02235174447, -187500.02235174447, 0.212, 0.9380000000000001, -0.158, 192.0, 0.0, 0.0, 0.0, 0.0, 0.0, 0.0, 0.0, 0.0, 0.0, 1.7296935473861067E9, 0.0, 2024-10-23 19:55:47.386
175.0, 17512.882353411, 32712.493266164456, 40207.50256866247, 13695.629083589207, 23550.312048233995, 24737.212030555253, -187500.02235174447, -187500.02235174447, 0.212, 0.9380000000000001, -0.158, 192.0, 0.0, 0.0, 0.0, 0.0, 0.0, 0.0, 0.0, 0.0, 0.0, 1.729693547389737E9, 0.0, 2024-10-23 19:55:47.389
176.0, 17759.042115097298, 32991.845368366885, 40305.38085763226, 14785.857771141264, 23670.340915958994, 25632.22058203466, -187500.02235174447, -187500.02235174447, 0.212, 0.9380000000000001, -0.158, 192.0, 0.0, 0.0, 0.0, 0.0, 0.0, 0.0, 0.0, 0.0, 0.0, 1.729693547394092E9, 0.0, 2024-10-23 19:55:47.394
177.0, 17626.988008855344, 36382.225022581224, 40196.058475501355, 15580.216417338423, 23601.09521163645, 26150.065797575215, -187500.02235174447, -187500.02235174447, 0.212, 0.9380000000000001, -0.158, 192.0, 0.0, 0.0, 0.0, 0.0, 0.0, 0.0, 0.0, 0.0, 0.0, 1.7296935473981087E9, 0.0, 2024-10-23 19:55:47.398
178.0, 17433.98069548377, 36904.942918413035, 40111.30066052683, 14730.872479781208, 23486.676631769733, 25506.424964240192, -187500.02235174447, -187500.02235174447, 0.212, 0.9380000000000001, -0.158, 192.0, 0.0, 0.0, 0.0, 0.0, 0.0, 0.0, 0.0, 0.0, 0.0, 1.7296935474020908E9, 0.0, 2024-10-23 19:55:47.402
179.0, 17501.482963738796, 35424.18455173785, 40188.95062076457, 14149.883586154412, 23536.61042888289, 25106.194628023462, -187500.02235174447, -187500.02235174447, 0.216, 0.9460000000000001, -0.158, 192.0, 6.0, 192.0, 29.0, 144.0, 251.0, 16.0, 0.0, 0.0, 0.0, 1.7296935474061375E9, 0.0, 2024-10-23 19:55:47.406
180.0, 17519.342007558585, 32672.170719167083, 40222.36647872526, 13703.787470315394, 23555.162376780794, 24733.546344464583, -187500.02235174447, -187500.02235174447, 0.216, 0.9460000000000001, -0.158, 192.0, 0.0, 0.0, 0.0, 0.0, 0.0, 0.0, 0.0, 0.0, 0.0, 1.7296935474101903E9, 0.0, 2024-10-23 19:55:47.410
181.0, 17767.826350668234, 32956.462556894134, 40325.02804100848, 14790.395175265692, 23678.275785240625, 25632.242933779115, -187500.02235174447, -187500.02235174447, 0.216, 0.9460000000000001, -0.158, 192.0, 0.0, 0.0, 0.0, 0.0, 0.0, 0.0, 0.0, 0.0, 0.0, 1.7296935474141471E9, 0.0, 2024-10-23 19:55:47.414
182.0, 17639.750854939324, 36342.77419361761, 40216.30915597787, 15583.435068539986, 23610.10296465194, 26153.731483665884, -187500.02235174447, -187500.02235174447, 0.216, 0.9460000000000001, -0.158, 192.0, 0.0, 0.0, 0.0, 0.0, 0.0, 0.0, 0.0, 0.0, 0.0, 1.7296935474171743E9, 0.0, 2024-10-23 19:55:47.417
183.0, 17445.35773341152, 36850.851696831196, 40127.3715647902, 14734.046427493862, 23497.405469108282, 25509.397746252747, -187500.02235174447, -187500.02235174447, 0.216, 0.9460000000000001, -0.158, 192.0, 0.0, 0.0, 0.0, 0.0, 0.0, 0.0, 0.0, 0.0, 0.0, 1.7296935474221497E9, 0.0, 2024-10-23 19:55:47.422
184.0, 17506.199181818865, 35368.70752199978, 40193.197452211076, 14141.971068617233, 23530.41899566877, 25084.53578764627, -187500.02235174447, -187500.02235174447, 0.216, 0.9460000000000001, -0.158, 192.0, 0.0, 0.0, 0.0, 0.0, 0.0, 0.0, 0.0, 0.0, 0.0, 1.7296935474264612E9, 0.0, 2024-10-23 19:55:47.426
185.0, 17526.628676251017, 32639.537172262335, 40224.735763637516, 13700.904095280659, 23545.059388286994, 24715.486134944695, -187500.02235174447, -187500.02235174447, 0.216, 0.9460000000000001, -0.158, 192.0, 0.0, 0.0, 0.0, 0.0, 0.0, 0.0, 0.0, 0.0, 0.0, 1.7296935474301715E9, 0.0, 2024-10-23 19:55:47.430
186.0, 17775.582405994228, 32940.726928797594, 40326.994994520544, 14796.854829413276, 23675.481817183714, 25629.761890144575, -187500.02235174447, -187500.02235174447, 0.216, 0.9460000000000001, -0.158, 192.0, 0.0, 0.0, 0.0, 0.0, 0.0, 0.0, 0.0, 0.0, 0.0, 1.7296935474341445E9, 0.0, 2024-10-23 19:55:47.434
187.0, 17639.68379970596, 36307.81606528951, 40212.084676275816, 15585.849056941159, 23606.794906472554, 26161.24166980287, -187500.02235174447, -187500.02235174447, 0.216, 0.9460000000000001, -0.158, 192.0, 0.0, 0.0, 0.0, 0.0, 0.0, 0.0, 0.0, 0.0, 0.0, 1.7296935474381456E9, 0.0, 2024-10-23 19:55:47.438
188.0, 17440.082721720068, 36812.89843474608, 40119.570805975294, 14732.951192015553, 23488.353012603882, 25522.540571992467, -187500.02235174447, -187500.02235174447, 0.216, 0.9460000000000001, -0.158, 192.0, 0.0, 0.0, 0.0, 0.0, 0.0, 0.0, 0.0, 0.0, 0.0, 1.7296935474421537E9, 0.0, 2024-10-23 19:55:47.442
189.0, 17506.08742309659, 35350.75907120217, 40191.85634754376, 14153.549272245084, 23539.180879495252, 25123.226657298408, -187500.02235174447, -187500.02235174447, 0.21, 0.9440000000000001, -0.156, 192.0, 6.0, 144.0, 29.0, 128.0, 251.0, 32.0, 0.0, 0.0, 0.0, 1.729693547445243E9, 0.0, 2024-10-23 19:55:47.445
190.0, 17526.09223438409, 32637.637273983633, 40221.69592639159, 13712.527002397419, 23548.590963910934, 24742.12941433542, -187500.02235174447, -187500.02235174447, 0.21, 0.9440000000000001, -0.156, 192.0, 0.0, 0.0, 0.0, 0.0, 0.0, 0.0, 0.0, 0.0, 0.0, 1.729693547449201E9, 0.0, 2024-10-23 19:55:47.449
191.0, 17773.391935037605, 32952.14867021426, 40318.3672211608, 14804.40971903917, 23666.25054672367, 25628.420785477258, -187500.02235174447, -187500.02235174447, 0.21, 0.9440000000000001, -0.156, 192.0, 0.0, 0.0, 0.0, 0.0, 0.0, 0.0, 0.0, 0.0, 0.0, 1.7296935474541843E9, 0.0, 2024-10-23 19:55:47.454
192.0, 17641.807215429213, 36333.69938536875, 40208.19547274059, 15597.986054180392, 23596.267234834104, 26154.290277277265, -187500.02235174447, -187500.02235174447, 0.21, 0.9440000000000001, -0.156, 192.0, 0.0, 0.0, 0.0, 0.0, 0.0, 0.0, 0.0, 0.0, 0.0, 1.729693547458212E9, 0.0, 2024-10-23 19:55:47.458
193.0, 17447.68231483487, 36858.451289945995, 40122.34242228776, 14751.145512002173, 23490.5434835605, 25519.836010913376, -187500.02235174447, -187500.02235174447, 0.21, 0.9440000000000001, -0.156, 192.0, 0.0, 0.0, 0.0, 0.0, 0.0, 0.0, 0.0, 0.0, 0.0, 1.7296935474621947E9, 0.0, 2024-10-23 19:55:47.462
194.0, 17509.484888253795, 35399.08354271454, 40193.01863825544, 14162.288804327109, 23533.212963725684, 25109.949721091954, -187500.02235174447, -187500.02235174447, 0.21, 0.9440000000000001, -0.156, 192.0, 0.0, 0.0, 0.0, 0.0, 0.0, 0.0, 0.0, 0.0, 0.0, 1.729693547466169E9, 0.0, 2024-10-23 19:55:47.466
195.0, 17523.857059938557, 32672.32718137827, 40219.5948624128, 13712.795223330882, 23547.47337668817, 24733.054606086567, -187500.02235174447, -187500.02235174447, 0.21, 0.9440000000000001, -0.156, 192.0, 0.0, 0.0, 0.0, 0.0, 0.0, 0.0, 0.0, 0.0, 0.0, 1.7296935474701943E9, 0.0, 2024-10-23 19:55:47.470
196.0, 17765.680583200527, 32985.16219677475, 40315.46149438161, 14803.873277172243, 23666.094084512482, 25636.802689647997, -187500.02235174447, -187500.02235174447, 0.21, 0.9440000000000001, -0.156, 192.0, 0.0, 0.0, 0.0, 0.0, 0.0, 0.0, 0.0, 0.0, 0.0, 1.729693547473198E9, 0.0, 2024-10-23 19:55:47.473
197.0, 17631.748930424324, 36386.20363309427, 40205.17798723913, 15589.626501754106, 23597.585987756967, 26148.098844063144, -187500.02235174447, -187500.02235174447, 0.21, 0.9440000000000001, -0.156, 192.0, 0.0, 0.0, 0.0, 0.0, 0.0, 0.0, 0.0, 0.0, 0.0, 1.7296935474792104E9, 0.0, 2024-10-23 19:55:47.479
198.0, 17438.585154841563, 36916.23054936297, 40123.52706474389, 14740.036695007884, 23495.013832451565, 25511.632920698277, -187500.02235174447, -187500.02235174447, 0.21, 0.9440000000000001, -0.156, 192.0, 0.0, 0.0, 0.0, 0.0, 0.0, 0.0, 0.0, 0.0, 0.0, 1.7296935474822123E9, 0.0, 2024-10-23 19:55:47.482
199.0, 17497.929036370402, 35443.25058975823, 40195.67849584562, 14156.432647279818, 23539.13617600634, 25114.330663005196, -187500.02235174447, -187500.02235174447, 0.21, 0.9420000000000001, -0.16, 192.0, 6.0, 144.0, 29.0, 112.0, 251.0, 0.0, 0.0, 0.0, 0.0, 1.729693547486231E9, 0.0, 2024-10-23 19:55:47.486
200.0, 17516.458632523852, 32703.351402682234, 40229.899016606694, 13716.14798499918, 23560.593850683435, 24752.835899929512, -187500.02235174447, -187500.02235174447, 0.21, 0.9420000000000001, -0.16, 192.0, 0.0, 0.0, 0.0, 0.0, 0.0, 0.0, 0.0, 0.0, 0.0, 1.729693547490235E9, 0.0, 2024-10-23 19:55:47.490
201.0, 17758.550376719282, 33004.92113887324, 40322.83757005186, 14802.465117271557, 23678.00756430716, 25637.02620709255, -187500.02235174447, -187500.02235174447, 0.21, 0.9420000000000001, -0.16, 192.0, 0.0, 0.0, 0.0, 0.0, 0.0, 0.0, 0.0, 0.0, 0.0, 1.7296935474942496E9, 0.0, 2024-10-23 19:55:47.494
202.0, 17625.311628021198, 36413.74098226321, 40213.00109779848, 15587.525437775308, 23611.332310596983, 26154.312629021722, -187500.02235174447, -187500.02235174447, 0.21, 0.9420000000000001, -0.16, 192.0, 0.0, 0.0, 0.0, 0.0, 0.0, 0.0, 0.0, 0.0, 0.0, 1.729693547498248E9, 0.0, 2024-10-23 19:55:47.498
203.0, 17428.39275936994, 36933.17317166009, 40124.957576389024, 14736.125139728207, 23506.077945956942, 25511.29764453145, -187500.02235174447, -187500.02235174447, 0.21, 0.9420000000000001, -0.16, 192.0, 0.0, 0.0, 0.0, 0.0, 0.0, 0.0, 0.0, 0.0, 0.0, 1.729693547501214E9, 0.0, 2024-10-23 19:55:47.501
204.0, 17491.536437456183, 35442.31181649111, 40196.50551039047, 14152.52109200014, 23545.84169934293, 25116.83405838419, -187500.02235174447, -187500.02235174447, 0.21, 0.9420000000000001, -0.16, 192.0, 0.0, 0.0, 0.0, 0.0, 0.0, 0.0, 0.0, 0.0, 0.0, 1.7296935475052173E9, 0.0, 2024-10-23 19:55:47.505
205.0, 17508.255542308754, 32674.964687223994, 40224.46754270406, 13711.364711685743, 23557.41990297078, 24747.203260326776, -187500.02235174447, -187500.02235174447, 0.21, 0.9420000000000001, -0.16, 192.0, 0.0, 0.0, 0.0, 0.0, 0.0, 0.0, 0.0, 0.0, 0.0, 1.7296935475102537E9, 0.0, 2024-10-23 19:55:47.510
206.0, 17749.386161492606, 32966.744359343575, 40315.34973565933, 14802.308655060371, 23671.413799692848, 25628.912523855273, -187500.02235174447, -187500.02235174447, 0.21, 0.9420000000000001, -0.16, 192.0, 0.0, 0.0, 0.0, 0.0, 0.0, 0.0, 0.0, 0.0, 0.0, 1.72969354751425E9, 0.0, 2024-10-23 19:55:47.514
207.0, 17619.746043651827, 36354.620618178924, 40206.78731283991, 15584.440897040475, 23611.175848385796, 26145.528393450786, -187500.02235174447, -187500.02235174447, 0.21, 0.9420000000000001, -0.16, 192.0, 0.0, 0.0, 0.0, 0.0, 0.0, 0.0, 0.0, 0.0, 0.0, 1.729693547518248E9, 0.0, 2024-10-23 19:55:47.518
208.0, 17429.555050081617, 36847.85656307418, 40123.05767811032, 14729.084340224785, 23504.446268611704, 25498.557150191922, -187500.02235174447, -187500.02235174447, 0.21, 0.9420000000000001, -0.16, 192.0, 0.0, 0.0, 0.0, 0.0, 0.0, 0.0, 0.0, 0.0, 0.0, 1.7296935475222316E9, 0.0, 2024-10-23 19:55:47.522
209.0, 17488.921283354914, 35341.483097253215, 40183.72031256203, 14138.104216826465, 23532.587114880935, 25085.608671380123, -187500.02235174447, -187500.02235174447, 0.212, 0.9440000000000001, -0.16, 192.0, 6.0, 160.0, 29.0, 128.0, 251.0, 0.0, 0.0, 0.0, 0.0, 1.7296935475262897E9, 0.0, 2024-10-23 19:55:47.526
210.0, 17512.07769061061, 32598.789942120307, 40215.3927344552, 13698.244237690478, 23545.9087545763, 24738.486079989205, -187500.02235174447, -187500.02235174447, 0.212, 0.9440000000000001, -0.16, 192.0, 0.0, 0.0, 0.0, 0.0, 0.0, 0.0, 0.0, 0.0, 0.0, 1.7296935475292797E9, 0.0, 2024-10-23 19:55:47.529
211.0, 17758.88565288611, 32909.70270749363, 40310.298241412434, 14791.26689329945, 23658.896822797877, 25630.03011107804, -187500.02235174447, -187500.02235174447, 0.212, 0.9440000000000001, -0.16, 192.0, 0.0, 0.0, 0.0, 0.0, 0.0, 0.0, 0.0, 0.0, 0.0, 1.7296935475334055E9, 0.0, 2024-10-23 19:55:47.533
212.0, 17627.2115262999, 36244.515924992076, 40199.67945810312, 15569.062896855225, 23589.986394642165, 26126.55176240823, -187500.02235174447, -187500.02235174447, 0.212, 0.9440000000000001, -0.16, 192.0, 0.0, 0.0, 0.0, 0.0, 0.0, 0.0, 0.0, 0.0, 0.0, 1.7296935475382817E9, 0.0, 2024-10-23 19:55:47.538
213.0, 17438.004009485725, 36713.03084051977, 40121.15777983162, 14723.451700622047, 23493.628024295336, 25518.114926590315, -187500.02235174447, -187500.02235174447, 0.212, 0.9440000000000001, -0.16, 192.0, 0.0, 0.0, 0.0, 0.0, 0.0, 0.0, 0.0, 0.0, 0.0, 1.7296935475422823E9, 0.0, 2024-10-23 19:55:47.542
214.0, 17504.679263195903, 35239.33562509246, 40195.56673712334, 14144.072132596033, 23528.630856112344, 25123.226657298408, -187500.02235174447, -187500.02235174447, 0.212, 0.9440000000000001, -0.16, 192.0, 0.0, 0.0, 0.0, 0.0, 0.0, 0.0, 0.0, 0.0, 0.0, 1.7296935475463798E9, 0.0, 2024-10-23 19:55:47.546
215.0, 17519.766690703236, 32537.38970010158, 40223.72993513703, 13703.228676704011, 23536.27515271606, 24742.50939399116, -187500.02235174447, -187500.02235174447, 0.212, 0.9440000000000001, -0.16, 192.0, 0.0, 0.0, 0.0, 0.0, 0.0, 0.0, 0.0, 0.0, 0.0, 1.729693547550326E9, 0.0, 2024-10-23 19:55:47.550
216.0, 17766.686411701015, 32879.48314899005, 40323.91045378571, 14801.861620171265, 23658.382732675404, 25626.74440464311, -187500.02235174447, -187500.02235174447, 0.212, 0.9440000000000001, -0.16, 192.0, 0.0, 0.0, 0.0, 0.0, 0.0, 0.0, 0.0, 0.0, 0.0, 1.7296935475533369E9, 0.0, 2024-10-23 19:55:47.553
217.0, 17634.878174648067, 36184.389732407304, 40214.72218212154, 15582.384536550588, 23589.405249286327, 26128.764585109304, -187500.02235174447, -187500.02235174447, 0.212, 0.9440000000000001, -0.16, 192.0, 0.0, 0.0, 0.0, 0.0, 0.0, 0.0, 0.0, 0.0, 0.0, 1.7296935475573084E9, 0.0, 2024-10-23 19:55:47.557
218.0, 17444.93305026687, 36645.148592609, 40134.70293697154, 14734.314648427326, 23484.55321604648, 25502.356946749325, -187500.02235174447, -187500.02235174447, 0.212, 0.9440000000000001, -0.16, 192.0, 0.0, 0.0, 0.0, 0.0, 0.0, 0.0, 0.0, 0.0, 0.0, 1.7296935475613089E9, 0.0, 2024-10-23 19:55:47.561
219.0, 17505.618036463027, 35184.79736862151, 40206.38498143971, 14156.007964135166, 23524.764004321576, 25106.216979767916, -187500.02235174447, -187500.02235174447, 0.212, 0.9440000000000001, -0.156, 192.0, 6.0, 160.0, 29.0, 128.0, 251.0, 32.0, 0.0, 0.0, 0.0, 1.7296935475653288E9, 0.0, 2024-10-23 19:55:47.565
220.0, 17525.578144261617, 32509.53942651027, 40241.20899930108, 13719.076063522823, 23545.148795264817, 24738.41902475584, -187500.02235174447, -187500.02235174447, 0.212, 0.9440000000000001, -0.156, 192.0, 0.0, 0.0, 0.0, 0.0, 0.0, 0.0, 0.0, 0.0, 0.0, 1.7296935475703375E9, 0.0, 2024-10-23 19:55:47.570
221.0, 17766.46289425646, 32865.53566044995, 40336.092154513855, 14816.077329644839, 23670.96676480374, 25633.15935530178, -187500.02235174447, -187500.02235174447, 0.212, 0.9440000000000001, -0.156, 192.0, 0.0, 0.0, 0.0, 0.0, 0.0, 0.0, 0.0, 0.0, 0.0, 1.7296935475743158E9, 0.0, 2024-10-23 19:55:47.574
222.0, 17628.932610622956, 36173.32561890192, 40223.95345258158, 15594.275664600811, 23605.25263610514, 26144.36610273911, -187500.02235174447, -187500.02235174447, 0.212, 0.9440000000000001, -0.156, 192.0, 0.0, 0.0, 0.0, 0.0, 0.0, 0.0, 0.0, 0.0, 0.0, 1.7296935475783253E9, 0.0, 2024-10-23 19:55:47.578
223.0, 17438.67456181938, 36646.266179831764, 40142.74956497545, 14751.436084680092, 23500.713527287666, 25521.95942663663, -187500.02235174447, -187500.02235174447, 0.212, 0.9440000000000001, -0.156, 192.0, 0.0, 0.0, 0.0, 0.0, 0.0, 0.0, 0.0, 0.0, 0.0, 1.7296935475813792E9, 0.0, 2024-10-23 19:55:47.581
224.0, 17495.98443460279, 35190.005325079605, 40208.57545239633, 14172.883531198924, 23537.817423083477, 25127.004102111354, -187500.02235174447, -187500.02235174447, 0.212, 0.9440000000000001, -0.156, 192.0, 0.0, 0.0, 0.0, 0.0, 0.0, 0.0, 0.0, 0.0, 0.0, 1.7296935475853317E9, 0.0, 2024-10-23 19:55:47.585
225.0, 17512.70353945536, 32499.347031038647, 40238.10210682179, 13732.643572407196, 23555.788225625543, 24760.43549304432, -187500.02235174447, -187500.02235174447, 0.212, 0.9440000000000001, -0.156, 192.0, 0.0, 0.0, 0.0, 0.0, 0.0, 0.0, 0.0, 0.0, 0.0, 1.7296935475893333E9, 0.0, 2024-10-23 19:55:47.589
226.0, 17759.489149986406, 32865.379198238756, 40334.10284925733, 14831.678847274645, 23673.894843327387, 25641.675369939254, -187500.02235174447, -187500.02235174447, 0.212, 0.9440000000000001, -0.156, 192.0, 0.0, 0.0, 0.0, 0.0, 0.0, 0.0, 0.0, 0.0, 0.0, 1.729693547593434E9, 0.0, 2024-10-23 19:55:47.593
227.0, 17619.790747140738, 36222.566511936966, 40217.13617052271, 15601.204705381955, 23602.168095370307, 26131.335035721666, -187500.02235174447, -187500.02235174447, 0.212, 0.9440000000000001, -0.156, 192.0, 0.0, 0.0, 0.0, 0.0, 0.0, 0.0, 0.0, 0.0, 0.0, 1.7296935475983477E9, 0.0, 2024-10-23 19:55:47.598
228.0, 17423.229506400767, 36718.909349311514, 40127.215102579015, 14742.942421787075, 23496.287881885517, 25505.32972876188, -187500.02235174447, -187500.02235174447, 0.212, 0.9440000000000001, -0.156, 192.0, 0.0, 0.0, 0.0, 0.0, 0.0, 0.0, 0.0, 0.0, 0.0, 1.729693547602374E9, 0.0, 2024-10-23 19:55:47.602
229.0, 17480.539379184174, 35258.66988404631, 40187.72127481953, 14154.219824578742, 23531.17895498025, 25104.182971022485, -187500.02235174447, -187500.02235174447, 0.214, 0.9440000000000001, -0.156, 192.0, 6.0, 176.0, 29.0, 128.0, 251.0, 32.0, 0.0, 0.0, 0.0, 1.7296935476087725E9, 0.0, 2024-10-23 19:55:47.608
230.0, 17497.571408459116, 32543.737595526887, 40212.33054546482, 13712.795223330882, 23548.61331565539, 24748.387902782906, -187500.02235174447, -187500.02235174447, 0.214, 0.9440000000000001, -0.156, 192.0, 0.0, 0.0, 0.0, 0.0, 0.0, 0.0, 0.0, 0.0, 0.0, 1.7296935476114092E9, 0.0, 2024-10-23 19:55:47.611
231.0, 17745.60871667966, 32911.13321913877, 40308.15247394473, 14817.329027334337, 23674.11836077194, 25635.372178002857, -187500.02235174447, -187500.02235174447, 0.214, 0.9440000000000001, -0.156, 192.0, 0.0, 0.0, 0.0, 0.0, 0.0, 0.0, 0.0, 0.0, 0.0, 1.72969354761445E9, 0.0, 2024-10-23 19:55:47.614
232.0, 17608.369005724075, 36293.42154186029, 40190.42583589862, 15579.724678960405, 23601.408136058824, 26108.44684939943, -187500.02235174447, -187500.02235174447, 0.214, 0.9440000000000001, -0.156, 192.0, 0.0, 0.0, 0.0, 0.0, 0.0, 0.0, 0.0, 0.0, 0.0, 1.7296935476183999E9, 0.0, 2024-10-23 19:55:47.618
233.0, 17419.40735809891, 36791.15018739107, 40102.62818367818, 14723.876383766697, 23490.5434835605, 25482.821522095386, -187500.02235174447, -187500.02235174447, 0.214, 0.9440000000000001, -0.156, 192.0, 0.0, 0.0, 0.0, 0.0, 0.0, 0.0, 0.0, 0.0, 0.0, 1.7296935476214068E9, 0.0, 2024-10-23 19:55:47.621
234.0, 17486.574350187107, 35312.87286435042, 40174.44433861307, 14148.676591953827, 23535.694007360224, 25106.686366401478, -187500.02235174447, -187500.02235174447, 0.214, 0.9440000000000001, -0.156, 192.0, 0.0, 0.0, 0.0, 0.0, 0.0, 0.0, 0.0, 0.0, 0.0, 1.7296935476264164E9, 0.0, 2024-10-23 19:55:47.626
235.0, 17513.12822260001, 32573.420712163537, 40209.71539136355, 13711.968208786036, 23550.155586022807, 24755.808681942068, -187500.02235174447, -187500.02235174447, 0.214, 0.9440000000000001, -0.156, 192.0, 0.0, 0.0, 0.0, 0.0, 0.0, 0.0, 0.0, 0.0, 0.0, 1.7296935476304235E9, 0.0, 2024-10-23 19:55:47.630
236.0, 17761.344344776197, 32924.99130070106, 40307.37016288879, 14812.232829598526, 23664.104779255962, 25637.987332104127, -187500.02235174447, -187500.02235174447, 0.214, 0.9440000000000001, -0.156, 192.0, 0.0, 0.0, 0.0, 0.0, 0.0, 0.0, 0.0, 0.0, 0.0, 1.7296935476344314E9, 0.0, 2024-10-23 19:55:47.634
237.0, 17627.613857700093, 36316.68970783827, 40194.449149900574, 15572.192141078967, 23585.314880051003, 26117.141677992546, -187500.02235174447, -187500.02235174447, 0.214, 0.9440000000000001, -0.156, 192.0, 0.0, 0.0, 0.0, 0.0, 0.0, 0.0, 0.0, 0.0, 0.0, 1.7296935476374063E9, 0.0, 2024-10-23 19:55:47.637
238.0, 17434.53948909515, 36801.92372821853, 40107.210291291514, 14712.05231094984, 23475.50075954208, 25475.691315614145, -187500.02235174447, -187500.02235174447, 0.214, 0.9440000000000001, -0.156, 192.0, 0.0, 0.0, 0.0, 0.0, 0.0, 0.0, 0.0, 0.0, 0.0, 1.7296935476415236E9, 0.0, 2024-10-23 19:55:47.641
239.0, 17502.444088750373, 35312.91756783934, 40182.915649761635, 14135.779635403114, 23522.394719409316, 25087.508569658825, -187500.02235174447, -187500.02235174447, 0.20800000000000002, 0.9440000000000001, -0.15, 192.0, 6.0, 128.0, 29.0, 128.0, 251.0, 80.0, 0.0, 0.0, 0.0, 1.7296935476454144E9, 0.0, 2024-10-23 19:55:47.645
240.0, 17529.89203094149, 32567.341037671693, 40225.38396422672, 13703.47454589302, 23545.573478409467, 24742.911725391357, -187500.02235174447, -187500.02235174447, 0.20800000000000002, 0.9440000000000001, -0.15, 192.0, 0.0, 0.0, 0.0, 0.0, 0.0, 0.0, 0.0, 0.0, 0.0, 1.7296935476494396E9, 0.0, 2024-10-23 19:55:47.649
241.0, 17777.37054555065, 32912.340213339354, 40330.05718351092, 14811.450518542591, 23670.050343281073, 25637.607352448387, -187500.02235174447, -187500.02235174447, 0.20800000000000002, 0.9440000000000001, -0.15, 192.0, 0.0, 0.0, 0.0, 0.0, 0.0, 0.0, 0.0, 0.0, 0.0, 1.7296935476545231E9, 0.0, 2024-10-23 19:55:47.654
242.0, 17641.740160195848, 36262.754948467606, 40220.6453944022, 15574.539074246773, 23597.362470312415, 26121.12028850559, -187500.02235174447, -187500.02235174447, 0.20800000000000002, 0.9440000000000001, -0.15, 192.0, 0.0, 0.0, 0.0, 0.0, 0.0, 0.0, 0.0, 0.0, 0.0, 1.7296935476586564E9, 0.0, 2024-10-23 19:55:47.658
243.0, 17450.252765447232, 36719.08816326716, 40139.97794866299, 14718.556668586334, 23490.36466960486, 25489.72821113208, -187500.02235174447, -187500.02235174447, 0.20800000000000002, 0.9440000000000001, -0.15, 192.0, 0.0, 0.0, 0.0, 0.0, 0.0, 0.0, 0.0, 0.0, 0.0, 1.7296935476634896E9, 0.0, 2024-10-23 19:55:47.663
244.0, 17508.2331905643, 35216.7603631926, 40210.63181288622, 14140.808777905559, 23531.93891429173, 25106.239331512374, -187500.02235174447, -187500.02235174447, 0.20800000000000002, 0.9440000000000001, -0.15, 192.0, 0.0, 0.0, 0.0, 0.0, 0.0, 0.0, 0.0, 0.0, 0.0, 1.7296935476674676E9, 0.0, 2024-10-23 19:55:47.667
245.0, 17522.94063841589, 32476.79412088324, 40239.420859744656, 13698.445403390575, 23542.913620819287, 24736.295609032586, -187500.02235174447, -187500.02235174447, 0.20800000000000002, 0.9440000000000001, -0.15, 192.0, 0.0, 0.0, 0.0, 0.0, 0.0, 0.0, 0.0, 0.0, 0.0, 1.7296935476704907E9, 0.0, 2024-10-23 19:55:47.670
246.0, 17769.9944698804, 32839.94291304862, 40341.72479411659, 14809.684730730622, 23669.133921758406, 25632.22058203466, -187500.02235174447, -187500.02235174447, 0.20800000000000002, 0.9440000000000001, -0.15, 192.0, 0.0, 0.0, 0.0, 0.0, 0.0, 0.0, 0.0, 0.0, 0.0, 1.7296935476734805E9, 0.0, 2024-10-23 19:55:47.673
247.0, 17636.174575826477, 36173.79500553549, 40235.26343527597, 15582.496295272864, 23608.046604162053, 26123.444869928942, -187500.02235174447, -187500.02235174447, 0.20800000000000002, 0.9440000000000001, -0.15, 192.0, 0.0, 0.0, 0.0, 0.0, 0.0, 0.0, 0.0, 0.0, 0.0, 1.7296935476777318E9, 0.0, 2024-10-23 19:55:47.677
248.0, 17443.659000832915, 36633.59274072561, 40151.265579612926, 14740.975468275008, 23501.629948810336, 25503.876865372287, -187500.02235174447, -187500.02235174447, 0.20800000000000002, 0.9440000000000001, -0.15, 192.0, 0.0, 0.0, 0.0, 0.0, 0.0, 0.0, 0.0, 0.0, 0.0, 1.7296935476814797E9, 0.0, 2024-10-23 19:55:47.681
249.0, 17506.31094054114, 35168.1006155134, 40219.706621135076, 14176.124534144943, 23544.075911530963, 25128.30050328976, -187500.02235174447, -187500.02235174447, 0.20800000000000002, 0.9440000000000001, -0.15, 192.0, 0.0, 0.0, 0.0, 0.0, 0.0, 0.0, 0.0, 0.0, 0.0, 1.729693547689504E9, 0.0, 2024-10-23 19:55:47.689
250.0, 17522.962990160348, 32467.115815534096, 40249.188572071624, 13744.802921390883, 23562.158472795305, 24776.327583352042, -187500.02235174447, -187500.02235174447, 0.218, 0.9420000000000001, -0.156, 192.0, 6.0, 208.0, 29.0, 112.0, 251.0, 32.0, 0.0, 0.0, 0.0, 1.7296935476925328E9, 0.0, 2024-10-23 19:55:47.692
251.0, 17763.66892619955, 32843.273322972454, 40339.377860948785, 14850.007277727997, 23675.839445094996, 25646.32453278596, -187500.02235174447, -187500.02235174447, 0.218, 0.9420000000000001, -0.156, 192.0, 0.0, 0.0, 0.0, 0.0, 0.0, 0.0, 0.0, 0.0, 0.0, 1.7296935476955805E9, 0.0, 2024-10-23 19:55:47.695
252.0, 17622.07062507518, 36169.61522932234, 40221.651222902685, 15609.586609552696, 23606.258464605628, 26119.30979720471, -187500.02235174447, -187500.02235174447, 0.218, 0.9420000000000001, -0.156, 192.0, 0.0, 0.0, 0.0, 0.0, 0.0, 0.0, 0.0, 0.0, 0.0, 1.729693547698533E9, 0.0, 2024-10-23 19:55:47.698
253.0, 17427.945724480836, 36639.33713905062, 40133.18301834858, 14761.7849423629, 23499.327719131437, 25515.38801376677, -187500.02235174447, -187500.02235174447, 0.218, 0.9420000000000001, -0.156, 192.0, 0.0, 0.0, 0.0, 0.0, 0.0, 0.0, 0.0, 0.0, 0.0, 1.7296935477026258E9, 0.0, 2024-10-23 19:55:47.702
254.0, 17492.18463804539, 35176.504871428595, 40204.06040001636, 14188.887380228924, 23550.33439997845, 25143.633799986103, -187500.02235174447, -187500.02235174447, 0.218, 0.9420000000000001, -0.156, 192.0, 0.0, 0.0, 0.0, 0.0, 0.0, 0.0, 0.0, 0.0, 0.0, 1.7296935477056284E9, 0.0, 2024-10-23 19:55:47.705
255.0, 17507.31676904163, 32465.88646958905, 40225.920406093646, 13747.753351658983, 23557.978696582162, 24771.365496082963, -187500.02235174447, -187500.02235174447, 0.218, 0.9420000000000001, -0.156, 192.0, 0.0, 0.0, 0.0, 0.0, 0.0, 0.0, 0.0, 0.0, 0.0, 1.7296935477096393E9, 0.0, 2024-10-23 19:55:47.709
0.0, 17753.677696428025, 32856.93023883465, 40320.17771246168, 14847.548585837912, 23676.21942475074, 25642.010646106082, -187500.02235174447, -187500.02235174447, 0.218, 0.9420000000000001, -0.156, 192.0, 0.0, 0.0, 0.0, 0.0, 0.0, 0.0, 0.0, 0.0, 0.0, 1.729693547714605E9, 0.0, 2024-10-23 19:55:47.714
1.0, 17617.265000017287, 36204.19337799471, 40203.5910133828, 15594.65564425655, 23596.82602844549, 26107.865704043594, -187500.02235174447, -187500.02235174447, 0.218, 0.9420000000000001, -0.156, 192.0, 0.0, 0.0, 0.0, 0.0, 0.0, 0.0, 0.0, 0.0, 0.0, 1.7296935477186103E9, 0.0, 2024-10-23 19:55:47.718
2.0, 17425.53173607966, 36683.07950294966, 40115.815712906806, 14740.282564196894, 23492.868064983853, 25497.66308041371, -187500.02235174447, -187500.02235174447, 0.218, 0.9420000000000001, -0.156, 192.0, 0.0, 0.0, 0.0, 0.0, 0.0, 0.0, 0.0, 0.0, 0.0, 1.729693547721594E9, 0.0, 2024-10-23 19:55:47.721
3.0, 17487.691937409872, 35213.45230501322, 40182.66978057263, 14159.22661533673, 23530.307236946494, 25110.30734900324, -187500.02235174447, -187500.02235174447, 0.218, 0.9420000000000001, -0.156, 192.0, 0.0, 0.0, 0.0, 0.0, 0.0, 0.0, 0.0, 0.0, 0.0, 1.7296935477256155E9, 0.0, 2024-10-23 19:55:47.725
4.0, 17510.021330120722, 32495.033144358775, 40212.15173150918, 13720.595982145785, 23542.354827207902, 24766.649278002893, -187500.02235174447, -187500.02235174447, 0.218, 0.9440000000000001, -0.162, 192.0, 6.0, 208.0, 29.0, 128.0, 250.0, 240.0, 0.0, 0.0, 0.0, 1.7296935477296011E9, 0.0, 2024-10-23 19:55:47.729
5.0, 17756.13638831811, 32887.21685257159, 40306.74431404404, 14818.178393623639, 23660.372037931924, 25635.528640214045, -187500.02235174447, -187500.02235174447, 0.218, 0.9440000000000001, -0.162, 192.0, 0.0, 0.0, 0.0, 0.0, 0.0, 0.0, 0.0, 0.0, 0.0, 1.7296935477336125E9, 0.0, 2024-10-23 19:55:47.733
6.0, 17616.68385466145, 36249.76858493908, 40190.98462951001, 15559.161074061523, 23587.23713007416, 26102.03189874076, -187500.02235174447, -187500.02235174447, 0.218, 0.9440000000000001, -0.162, 192.0, 0.0, 0.0, 0.0, 0.0, 0.0, 0.0, 0.0, 0.0, 0.0, 1.7296935477376053E9, 0.0, 2024-10-23 19:55:47.737
7.0, 17428.795090770138, 36732.25334075133, 40106.584442446765, 14701.792860244854, 23482.675669512235, 25483.46972268459, -187500.02235174447, -187500.02235174447, 0.218, 0.9440000000000001, -0.162, 192.0, 0.0, 0.0, 0.0, 0.0, 0.0, 0.0, 0.0, 0.0, 0.0, 1.729693547742591E9, 0.0, 2024-10-23 19:55:47.742
8.0, 17489.41302173293, 35241.28022686008, 40171.27039090042, 14119.954600328756, 23516.136230961827, 25092.135380761076, -187500.02235174447, -187500.02235174447, 0.218, 0.9440000000000001, -0.162, 192.0, 0.0, 0.0, 0.0, 0.0, 0.0, 0.0, 0.0, 0.0, 0.0, 1.729693547746586E9, 0.0, 2024-10-23 19:55:47.746
9.0, 17511.22832432131, 32483.298478519737, 40201.512301148454, 13671.46684783302, 23530.933085791243, 24721.61051292545, -187500.02235174447, -187500.02235174447, 0.218, 0.9440000000000001, -0.162, 192.0, 0.0, 0.0, 0.0, 0.0, 0.0, 0.0, 0.0, 0.0, 0.0, 1.729693547749632E9, 0.0, 2024-10-23 19:55:47.749
10.0, 17759.489149986406, 32863.18872728213, 40302.341020386346, 14772.133800045705, 23652.794796561575, 25587.606500101865, -187500.02235174447, -187500.02235174447, 0.218, 0.9440000000000001, -0.162, 192.0, 0.0, 0.0, 0.0, 0.0, 0.0, 0.0, 0.0, 0.0, 0.0, 1.729693547753564E9, 0.0, 2024-10-23 19:55:47.753
11.0, 17626.228049543864, 36249.52271575007, 40198.092484246794, 15529.612067891607, 23585.33723179546, 26092.666517813985, -187500.02235174447, -187500.02235174447, 0.218, 0.9440000000000001, -0.162, 192.0, 0.0, 0.0, 0.0, 0.0, 0.0, 0.0, 0.0, 0.0, 0.0, 1.7296935477575877E9, 0.0, 2024-10-23 19:55:47.757
12.0, 17439.635686830963, 36723.20088424694, 40119.21317806401, 14682.927987924575, 23478.920576443743, 25481.078086027872, -187500.02235174447, -187500.02235174447, 0.218, 0.9440000000000001, -0.162, 192.0, 0.0, 0.0, 0.0, 0.0, 0.0, 0.0, 0.0, 0.0, 0.0, 1.7296935477616084E9, 0.0, 2024-10-23 19:55:47.761
13.0, 17499.69482418237, 35211.619461967886, 40186.60368759676, 14109.315169968031, 23517.45498388469, 25100.0255465538, -187500.02235174447, -187500.02235174447, 0.218, 0.9440000000000001, -0.162, 192.0, 0.0, 0.0, 0.0, 0.0, 0.0, 0.0, 0.0, 0.0, 0.0, 1.72969354776565E9, 0.0, 2024-10-23 19:55:47.765
14.0, 17517.062129624144, 32439.84668729862, 40217.449094945085, 13671.645661788663, 23533.5035364036, 24750.399559783884, -187500.02235174447, -187500.02235174447, 0.212, 0.9460000000000001, -0.158, 192.0, 6.0, 160.0, 29.0, 144.0, 251.0, 16.0, 0.0, 0.0, 0.0, 1.7296935477696228E9, 0.0, 2024-10-23 19:55:47.769
15.0, 17767.960461134968, 32830.26460769947, 40323.26225319651, 14791.244541554994, 23664.82003507853, 25637.137965814825, -187500.02235174447, -187500.02235174447, 0.212, 0.9460000000000001, -0.158, 192.0, 0.0, 0.0, 0.0, 0.0, 0.0, 0.0, 0.0, 0.0, 0.0, 1.7296935477746708E9, 0.0, 2024-10-23 19:55:47.774
16.0, 17626.093939077135, 36218.431439212734, 40207.167292495644, 15547.851091367138, 23592.266272576606, 26103.484762130352, -187500.02235174447, -187500.02235174447, 0.212, 0.9460000000000001, -0.158, 192.0, 0.0, 0.0, 0.0, 0.0, 0.0, 0.0, 0.0, 0.0, 0.0, 1.7296935477777152E9, 0.0, 2024-10-23 19:55:47.777
17.0, 17430.180898926366, 36691.17083444248, 40120.39782052014, 14695.176743886084, 23486.20724513617, 25474.4619696691, -187500.02235174447, -187500.02235174447, 0.212, 0.9460000000000001, -0.158, 192.0, 0.0, 0.0, 0.0, 0.0, 0.0, 0.0, 0.0, 0.0, 0.0, 1.7296935477816255E9, 0.0, 2024-10-23 19:55:47.781
18.0, 17489.189504288377, 35193.38043849235, 40194.04681850038, 14127.867117865935, 23535.35873119339, 25106.686366401478, -187500.02235174447, -187500.02235174447, 0.212, 0.9460000000000001, -0.158, 192.0, 0.0, 0.0, 0.0, 0.0, 0.0, 0.0, 0.0, 0.0, 0.0, 1.729693547785656E9, 0.0, 2024-10-23 19:55:47.785
19.0, 17513.26233306674, 32436.851553541608, 40235.50930446498, 13703.653359848662, 23563.34311525144, 24766.20224311379, -187500.02235174447, -187500.02235174447, 0.212, 0.9460000000000001, -0.158, 192.0, 0.0, 0.0, 0.0, 0.0, 0.0, 0.0, 0.0, 0.0, 0.0, 1.7296935477896612E9, 0.0, 2024-10-23 19:55:47.789
20.0, 17755.287022028806, 32828.40941290968, 40334.68399461317, 14823.65457101519, 23682.634375409412, 25650.057274109993, -187500.02235174447, -187500.02235174447, 0.212, 0.9460000000000001, -0.158, 192.0, 0.0, 0.0, 0.0, 0.0, 0.0, 0.0, 0.0, 0.0, 0.0, 1.7296935477936463E9, 0.0, 2024-10-23 19:55:47.793
21.0, 17614.359273238097, 36225.89692186081, 40225.11574329326, 15580.171713849511, 23616.71908101071, 26125.992968796847, -187500.02235174447, -187500.02235174447, 0.212, 0.9460000000000001, -0.158, 192.0, 0.0, 0.0, 0.0, 0.0, 0.0, 0.0, 0.0, 0.0, 0.0, 1.7296935477976632E9, 0.0, 2024-10-23 19:55:47.797
22.0, 17426.761082024703, 36713.7684480868, 40145.096498143255, 14734.493462382969, 23513.454021627193, 25503.85451362783, -187500.02235174447, -187500.02235174447, 0.212, 0.9460000000000001, -0.158, 192.0, 0.0, 0.0, 0.0, 0.0, 0.0, 0.0, 0.0, 0.0, 0.0, 1.729693547802664E9, 0.0, 2024-10-23 19:55:47.802
23.0, 17486.619053676015, 35214.52518874707, 40211.05649603087, 14167.027374151634, 23556.481129703658, 25125.797107910766, -187500.02235174447, -187500.02235174447, 0.212, 0.9460000000000001, -0.158, 192.0, 0.0, 0.0, 0.0, 0.0, 0.0, 0.0, 0.0, 0.0, 0.0, 1.7296935478056507E9, 0.0, 2024-10-23 19:55:47.805
24.0, 17504.634559706996, 32439.62316985407, 40234.57053119785, 13732.867089851748, 23567.075856575473, 24771.611365271972, -187500.02235174447, -187500.02235174447, 0.21, 0.9440000000000001, -0.158, 192.0, 6.0, 144.0, 29.0, 128.0, 251.0, 16.0, 0.0, 0.0, 0.0, 1.7296935478096836E9, 0.0, 2024-10-23 19:55:47.809
25.0, 17750.168472548543, 32836.701910102594, 40326.54795963144, 14853.292984162927, 23687.50705570067, 25654.54997474551, -187500.02235174447, -187500.02235174447, 0.21, 0.9440000000000001, -0.158, 192.0, 0.0, 0.0, 0.0, 0.0, 0.0, 0.0, 0.0, 0.0, 0.0, 1.7296935478136609E9, 0.0, 2024-10-23 19:55:47.813
26.0, 17609.44188945793, 36241.2525703016, 40204.99917328348, 15604.736281005895, 23611.175848385796, 26115.2641314583, -187500.02235174447, -187500.02235174447, 0.21, 0.9440000000000001, -0.158, 192.0, 0.0, 0.0, 0.0, 0.0, 0.0, 0.0, 0.0, 0.0, 0.0, 1.7296935478176692E9, 0.0, 2024-10-23 19:55:47.817
27.0, 17411.316026606088, 36718.909349311514, 40110.85362563773, 14747.077494511306, 23500.26649239856, 25501.328766504383, -187500.02235174447, -187500.02235174447, 0.21, 0.9440000000000001, -0.158, 192.0, 0.0, 0.0, 0.0, 0.0, 0.0, 0.0, 0.0, 0.0, 0.0, 1.7296935478216789E9, 0.0, 2024-10-23 19:55:47.821
28.0, 17470.74931511275, 35216.80506668152, 40172.90206824566, 14174.537560288616, 23537.951533550207, 25130.133346335097, -187500.02235174447, -187500.02235174447, 0.21, 0.9440000000000001, -0.158, 192.0, 0.0, 0.0, 0.0, 0.0, 0.0, 0.0, 0.0, 0.0, 0.0, 1.729693547825692E9, 0.0, 2024-10-23 19:55:47.825
29.0, 17491.60349268955, 32433.744661062323, 40198.3383534358, 13730.296639239388, 23547.65219064381, 24767.81156871457, -187500.02235174447, -187500.02235174447, 0.21, 0.9440000000000001, -0.158, 192.0, 0.0, 0.0, 0.0, 0.0, 0.0, 0.0, 0.0, 0.0, 0.0, 1.729693547830749E9, 0.0, 2024-10-23 19:55:47.830
30.0, 17734.74576887438, 32827.87297104275, 40287.097130667826, 14828.303733861892, 23657.846290808477, 25618.4966109391, -187500.02235174447, -187500.02235174447, 0.21, 0.9440000000000001, -0.158, 192.0, 0.0, 0.0, 0.0, 0.0, 0.0, 0.0, 0.0, 0.0, 0.0, 1.7296935478337207E9, 0.0, 2024-10-23 19:55:47.833
31.0, 17597.1037265186, 36242.54897148001, 40173.080882201306, 15567.945309632458, 23585.828970173476, 26094.678174814962, -187500.02235174447, -187500.02235174447, 0.21, 0.9440000000000001, -0.158, 192.0, 0.0, 0.0, 0.0, 0.0, 0.0, 0.0, 0.0, 0.0, 0.0, 1.7296935478376997E9, 0.0, 2024-10-23 19:55:47.837
32.0, 17410.3101981056, 36717.12120975509, 40092.12286378418, 14704.944456213052, 23483.41327707926, 25483.80499885142, -187500.02235174447, -187500.02235174447, 0.21, 0.9440000000000001, -0.158, 192.0, 0.0, 0.0, 0.0, 0.0, 0.0, 0.0, 0.0, 0.0, 0.0, 1.7296935478416977E9, 0.0, 2024-10-23 19:55:47.841
33.0, 17477.45483844934, 35199.63892693984, 40164.94484721957, 14127.777710888115, 23526.641550855824, 25107.222808268405, -187500.02235174447, -187500.02235174447, 0.21, 0.9440000000000001, -0.158, 192.0, 0.0, 0.0, 0.0, 0.0, 0.0, 0.0, 0.0, 0.0, 0.0, 1.729693547845722E9, 0.0, 2024-10-23 19:55:47.845
34.0, 17499.828934649104, 32402.049887424695, 40194.873833045225, 13683.693252050072, 23537.348036449916, 24751.22657432873, -187500.02235174447, -187500.02235174447, 0.212, 0.9460000000000001, -0.156, 192.0, 6.0, 160.0, 29.0, 144.0, 251.0, 32.0, 0.0, 0.0, 0.0, 1.7296935478527787E9, 0.0, 2024-10-23 19:55:47.852
35.0, 17745.340495746197, 32793.69715377058, 40291.79099700344, 14795.871352657243, 23657.756883830654, 25618.429555705734, -187500.02235174447, -187500.02235174447, 0.212, 0.9460000000000001, -0.156, 192.0, 0.0, 0.0, 0.0, 0.0, 0.0, 0.0, 0.0, 0.0, 0.0, 1.7296935478557532E9, 0.0, 2024-10-23 19:55:47.855
36.0, 17608.369005724075, 36192.436360411215, 40180.412254382645, 15537.949268573437, 23586.365412040403, 26068.68309601344, -187500.02235174447, -187500.02235174447, 0.212, 0.9460000000000001, -0.156, 192.0, 0.0, 0.0, 0.0, 0.0, 0.0, 0.0, 0.0, 0.0, 0.0, 1.7296935478597543E9, 0.0, 2024-10-23 19:55:47.859
37.0, 17416.63574178645, 36647.897857177006, 40097.71079989801, 14679.977557656475, 23479.92640494423, 25448.064559467384, -187500.02235174447, -187500.02235174447, 0.212, 0.9460000000000001, -0.156, 192.0, 0.0, 0.0, 0.0, 0.0, 0.0, 0.0, 0.0, 0.0, 0.0, 1.7296935478728046E9, 0.0, 2024-10-23 19:55:47.872
38.0, 17477.9242250829, 35131.197885417685, 40170.48807984449, 14113.226725247709, 23522.70764383169, 25092.58241565018, -187500.02235174447, -187500.02235174447, 0.212, 0.9460000000000001, -0.156, 192.0, 0.0, 0.0, 0.0, 0.0, 0.0, 0.0, 0.0, 0.0, 0.0, 1.729693547876812E9, 0.0, 2024-10-23 19:55:47.876
39.0, 17493.726908412806, 32343.555372185157, 40201.75817033746, 13679.75934502594, 23536.23044922715, 24751.159519095367, -187500.02235174447, -187500.02235174447, 0.212, 0.9460000000000001, -0.156, 192.0, 0.0, 0.0, 0.0, 0.0, 0.0, 0.0, 0.0, 0.0, 0.0, 1.7296935478797436E9, 0.0, 2024-10-23 19:55:47.879
40.0, 17744.357018990162, 32747.67491193711, 40306.61020357731, 14802.465117271557, 23661.288459454594, 25624.710395897677, -187500.02235174447, -187500.02235174447, 0.212, 0.9460000000000001, -0.156, 192.0, 0.0, 0.0, 0.0, 0.0, 0.0, 0.0, 0.0, 0.0, 0.0, 1.7296935478838458E9, 0.0, 2024-10-23 19:55:47.883
41.0, 17601.261150987288, 36129.27033058051, 40191.029332998914, 15544.833605865671, 23587.32653705198, 26076.68502052844, -187500.02235174447, -187500.02235174447, 0.212, 0.9460000000000001, -0.156, 192.0, 0.0, 0.0, 0.0, 0.0, 0.0, 0.0, 0.0, 0.0, 0.0, 1.7296935478868742E9, 0.0, 2024-10-23 19:55:47.886
42.0, 17409.72905274976, 36584.32949594611, 40110.004259348425, 14692.650996762633, 23489.962338204663, 25471.17626323417, -187500.02235174447, -187500.02235174447, 0.212, 0.9460000000000001, -0.156, 192.0, 0.0, 0.0, 0.0, 0.0, 0.0, 0.0, 0.0, 0.0, 0.0, 1.7296935478899329E9, 0.0, 2024-10-23 19:55:47.889
43.0, 17473.945614569857, 35081.82288191591, 40182.938001506096, 14132.359818501453, 23534.88934455983, 25098.706793630936, -187500.02235174447, -187500.02235174447, 0.212, 0.9460000000000001, -0.156, 192.0, 0.0, 0.0, 0.0, 0.0, 0.0, 0.0, 0.0, 0.0, 0.0, 1.7296935478928115E9, 0.0, 2024-10-23 19:55:47.892
44.0, 17490.41885023342, 32304.506874621737, 40215.28097573292, 13698.244237690478, 23549.976772067163, 24740.09540558999, -187500.02235174447, -187500.02235174447, 0.216, 0.9440000000000001, -0.152, 192.0, 6.0, 192.0, 29.0, 128.0, 251.0, 64.0, 0.0, 0.0, 0.0, 1.7296935478969502E9, 0.0, 2024-10-23 19:55:47.896
45.0, 17735.863356097147, 32724.071469792307, 40316.243805437545, 14823.83338497083, 23674.431285194314, 25622.899904596798, -187500.02235174447, -187500.02235174447, 0.216, 0.9440000000000001, -0.152, 192.0, 0.0, 0.0, 0.0, 0.0, 0.0, 0.0, 0.0, 0.0, 0.0, 1.7296935479000409E9, 0.0, 2024-10-23 19:55:47.900
46.0, 17591.448735171405, 36128.5774265024, 40201.869929059736, 15570.135780589078, 23602.95040642624, 26094.991099237337, -187500.02235174447, -187500.02235174447, 0.216, 0.9440000000000001, -0.152, 192.0, 0.0, 0.0, 0.0, 0.0, 0.0, 0.0, 0.0, 0.0, 0.0, 1.7296935479030683E9, 0.0, 2024-10-23 19:55:47.903
47.0, 17403.694081746828, 36608.111752046556, 40122.63299496567, 14721.238877920972, 23501.65230055479, 25490.488170443557, -187500.02235174447, -187500.02235174447, 0.216, 0.9440000000000001, -0.152, 192.0, 0.0, 0.0, 0.0, 0.0, 0.0, 0.0, 0.0, 0.0, 0.0, 1.7296935479070768E9, 0.0, 2024-10-23 19:55:47.907
48.0, 17465.40724818793, 35113.49530380908, 40190.403484154165, 14155.42681877933, 23543.51711791958, 25109.949721091954, -187500.02235174447, -187500.02235174447, 0.216, 0.9440000000000001, -0.152, 192.0, 0.0, 0.0, 0.0, 0.0, 0.0, 0.0, 0.0, 0.0, 0.0, 1.7296935479100528E9, 0.0, 2024-10-23 19:55:47.910
49.0, 17485.389707730974, 32329.741994111777, 40217.96318506756, 13718.852546078271, 23555.408245969804, 24764.414103557363, -187500.02235174447, -187500.02235174447, 0.216, 0.9440000000000001, -0.152, 192.0, 0.0, 0.0, 0.0, 0.0, 0.0, 0.0, 0.0, 0.0, 0.0, 1.7296935479129925E9, 0.0, 2024-10-23 19:55:47.912
50.0, 17735.952763074965, 32750.15595557165, 40314.58977634785, 14846.475702104057, 23681.941471331298, 25648.291486298025, -187500.02235174447, -187500.02235174447, 0.216, 0.9440000000000001, -0.152, 192.0, 0.0, 0.0, 0.0, 0.0, 0.0, 0.0, 0.0, 0.0, 0.0, 1.7296935479168916E9, 0.0, 2024-10-23 19:55:47.916
51.0, 17594.28740671723, 36196.280860457526, 40195.27616444542, 15584.507952273842, 23606.52668553909, 26095.08050621516, -187500.02235174447, -187500.02235174447, 0.216, 0.9440000000000001, -0.152, 192.0, 0.0, 0.0, 0.0, 0.0, 0.0, 0.0, 0.0, 0.0, 0.0, 1.7296935479199278E9, 0.0, 2024-10-23 19:55:47.919
52.0, 17407.20330562631, 36693.65187807702, 40110.630108193174, 14724.77045354491, 23500.89234124331, 25481.838045339355, -187500.02235174447, -187500.02235174447, 0.216, 0.9440000000000001, -0.152, 192.0, 0.0, 0.0, 0.0, 0.0, 0.0, 0.0, 0.0, 0.0, 0.0, 1.729693547922928E9, 0.0, 2024-10-23 19:55:47.922
53.0, 17472.962137813825, 35175.27552548356, 40177.90885900365, 14156.94673740229, 23539.829080084455, 25112.631930426593, -187500.02235174447, -187500.02235174447, 0.216, 0.9440000000000001, -0.152, 192.0, 0.0, 0.0, 0.0, 0.0, 0.0, 0.0, 0.0, 0.0, 0.0, 1.7296935479269333E9, 0.0, 2024-10-23 19:55:47.926
54.0, 17494.106888068545, 32322.20945623034, 40204.70860060556, 13717.109110010757, 23550.669676145277, 24760.27903083313, -187500.02235174447, -187500.02235174447, 0.212, 0.9400000000000001, -0.16, 192.0, 6.0, 160.0, 29.0, 96.0, 251.0, 0.0, 0.0, 0.0, 0.0, 1.7296935479298384E9, 0.0, 2024-10-23 19:55:47.929
55.0, 17732.018856050832, 32716.29306272186, 40289.466415580086, 14827.186146639127, 23659.25445070916, 25626.11855579836, -187500.02235174447, -187500.02235174447, 0.212, 0.9400000000000001, -0.16, 192.0, 0.0, 0.0, 0.0, 0.0, 0.0, 0.0, 0.0, 0.0, 0.0, 1.729693547932866E9, 0.0, 2024-10-23 19:55:47.932
56.0, 17589.884113059536, 36259.7598147106, 40170.51043158894, 15554.489559470363, 23585.426638773282, 26074.516901316274, -187500.02235174447, -187500.02235174447, 0.212, 0.9400000000000001, -0.16, 192.0, 0.0, 0.0, 0.0, 0.0, 0.0, 0.0, 0.0, 0.0, 0.0, 1.72969354793705E9, 0.0, 2024-10-23 19:55:47.937
57.0, 17401.615369512485, 36798.34744910568, 40090.222965505476, 14694.483839807968, 23482.98859393461, 25462.168510218682, -187500.02235174447, -187500.02235174447, 0.212, 0.9400000000000001, -0.16, 192.0, 0.0, 0.0, 0.0, 0.0, 0.0, 0.0, 0.0, 0.0, 0.0, 1.7296935479418595E9, 0.0, 2024-10-23 19:55:47.941
58.0, 17466.726001110794, 35235.245255857146, 40161.457975084544, 14132.628039434916, 23526.216867711173, 25093.364726706117, -187500.02235174447, -187500.02235174447, 0.212, 0.9400000000000001, -0.16, 192.0, 0.0, 0.0, 0.0, 0.0, 0.0, 0.0, 0.0, 0.0, 0.0, 1.7296935479458635E9, 0.0, 2024-10-23 19:55:47.945
59.0, 17489.32361475511, 32293.755685538734, 40196.058475501355, 13694.936179511093, 23541.61721964088, 24742.487042246707, -187500.02235174447, -187500.02235174447, 0.212, 0.9400000000000001, -0.16, 192.0, 0.0, 0.0, 0.0, 0.0, 0.0, 0.0, 0.0, 0.0, 0.0, 1.729693547949908E9, 0.0, 2024-10-23 19:55:47.949
60.0, 17734.8351758522, 32656.435091070547, 40293.95911621561, 14814.535059277423, 23661.02023852113, 25619.010701061572, -187500.02235174447, -187500.02235174447, 0.212, 0.9400000000000001, -0.16, 192.0, 0.0, 0.0, 0.0, 0.0, 0.0, 0.0, 0.0, 0.0, 0.0, 1.729693547953986E9, 0.0, 2024-10-23 19:55:47.953
61.0, 17591.068755515666, 36281.59746904343, 40177.97591423702, 15542.151396531035, 23585.203121328726, 26063.318677344167, -187500.02235174447, -187500.02235174447, 0.212, 0.9400000000000001, -0.16, 192.0, 0.0, 0.0, 0.0, 0.0, 0.0, 0.0, 0.0, 0.0, 0.0, 1.7296935479580307E9, 0.0, 2024-10-23 19:55:47.958
62.0, 17403.559971280094, 36825.750687807886, 40100.214195277, 14686.19134261505, 23484.016774179552, 25452.579611847355, -187500.02235174447, -187500.02235174447, 0.212, 0.9400000000000001, -0.16, 192.0, 0.0, 0.0, 0.0, 0.0, 0.0, 0.0, 0.0, 0.0, 0.0, 1.729693547960878E9, 0.0, 2024-10-23 19:55:47.960
63.0, 17466.41307668842, 35210.2113020672, 40171.873888000715, 14126.660123665348, 23524.071100243462, 25085.496912657847, -187500.02235174447, -187500.02235174447, 0.212, 0.9400000000000001, -0.16, 192.0, 0.0, 0.0, 0.0, 0.0, 0.0, 0.0, 0.0, 0.0, 0.0, 1.7296935479648843E9, 0.0, 2024-10-23 19:55:47.964
64.0, 17485.009728075234, 32238.658635456402, 40202.786350582406, 13693.75153705496, 23538.443271928227, 24736.407367754862, -187500.02235174447, -187500.02235174447, 0.21, 0.9440000000000001, -0.162, 192.0, 6.0, 144.0, 29.0, 128.0, 250.0, 240.0, 0.0, 0.0, 0.0, 1.7296935479698935E9, 0.0, 2024-10-23 19:55:47.969
65.0, 17727.235582737398, 32605.65192766809, 40297.89302323974, 14815.585591266823, 23654.649991351365, 25611.88049458033, -187500.02235174447, -187500.02235174447, 0.21, 0.9440000000000001, -0.162, 192.0, 0.0, 0.0, 0.0, 0.0, 0.0, 0.0, 0.0, 0.0, 0.0, 1.7296935479739497E9, 0.0, 2024-10-23 19:55:47.973
66.0, 17583.2009414674, 36185.6414300968, 40181.37337939422, 15547.046428566746, 23581.7162491937, 26066.783197734738, -187500.02235174447, -187500.02235174447, 0.21, 0.9440000000000001, -0.162, 192.0, 0.0, 0.0, 0.0, 0.0, 0.0, 0.0, 0.0, 0.0, 0.0, 1.7296935479780493E9, 0.0, 2024-10-23 19:55:47.978
67.0, 17399.11197413349, 36688.443921618935, 40102.181148789066, 14696.361386342214, 23483.16740789025, 25456.401760149212, -187500.02235174447, -187500.02235174447, 0.21, 0.9440000000000001, -0.162, 192.0, 0.0, 0.0, 0.0, 0.0, 0.0, 0.0, 0.0, 0.0, 0.0, 1.7296935479820848E9, 0.0, 2024-10-23 19:55:47.982
68.0, 17461.9203760529, 35085.53327149549, 40173.93024849061, 14138.618306948938, 23525.412204910783, 25091.464828427415, -187500.02235174447, -187500.02235174447, 0.21, 0.9440000000000001, -0.162, 192.0, 0.0, 0.0, 0.0, 0.0, 0.0, 0.0, 0.0, 0.0, 0.0, 1.7296935479859817E9, 0.0, 2024-10-23 19:55:47.985
69.0, 17483.64627166346, 32182.28753594012, 40206.63085062872, 13707.743729083984, 23541.460757429693, 24738.41902475584, -187500.02235174447, -187500.02235174447, 0.21, 0.9440000000000001, -0.162, 192.0, 0.0, 0.0, 0.0, 0.0, 0.0, 0.0, 0.0, 0.0, 0.0, 1.7296935479889538E9, 0.0, 2024-10-23 19:55:47.988
70.0, 17728.576687404715, 32568.391569661093, 40306.43138962166, 14834.763388009476, 23670.25150898117, 25625.15743078678, -187500.02235174447, -187500.02235174447, 0.21, 0.9440000000000001, -0.162, 192.0, 0.0, 0.0, 0.0, 0.0, 0.0, 0.0, 0.0, 0.0, 0.0, 1.729693547993006E9, 0.0, 2024-10-23 19:55:47.993
71.0, 17589.973520037358, 36042.4561551161, 40200.417065670146, 15571.007498622836, 23603.79977271554, 26088.933776489946, -187500.02235174447, -187500.02235174447, 0.21, 0.9440000000000001, -0.162, 192.0, 0.0, 0.0, 0.0, 0.0, 0.0, 0.0, 0.0, 0.0, 0.0, 1.7296935479980793E9, 0.0, 2024-10-23 19:55:47.998
72.0, 17400.564837523085, 36510.21111133231, 40121.42600076509, 14717.81906101931, 23497.94191097521, 25474.84194932484, -187500.02235174447, -187500.02235174447, 0.21, 0.9440000000000001, -0.162, 192.0, 0.0, 0.0, 0.0, 0.0, 0.0, 0.0, 0.0, 0.0, 0.0, 1.729693548002019E9, 0.0, 2024-10-23 19:55:48.002
73.0, 17459.819312074105, 34951.48985999702, 40188.302420175365, 14151.068228610544, 23537.169222494274, 25089.944909804453, -187500.02235174447, -187500.02235174447, 0.21, 0.9440000000000001, -0.162, 192.0, 0.0, 0.0, 0.0, 0.0, 0.0, 0.0, 0.0, 0.0, 0.0, 1.729693548006104E9, 0.0, 2024-10-23 19:55:48.006
74.0, 17480.36056522853, 32104.995203613664, 40218.00788855647, 13714.404548931665, 23554.29065874704, 24757.596821498493, -187500.02235174447, -187500.02235174447, 0.21, 0.9400000000000001, -0.158, 192.0, 6.0, 144.0, 29.0, 96.0, 251.0, 16.0, 0.0, 0.0, 0.0, 1.7296935480100894E9, 0.0, 2024-10-23 19:55:48.010
75.0, 17728.576687404715, 32519.418897559513, 40312.71222981361, 14836.417417099168, 23669.133921758406, 25638.859050137886, -187500.02235174447, -187500.02235174447, 0.21, 0.9400000000000001, -0.158, 192.0, 0.0, 0.0, 0.0, 0.0, 0.0, 0.0, 0.0, 0.0, 0.0, 1.7296935480130668E9, 0.0, 2024-10-23 19:55:48.013
76.0, 17579.557607121184, 35973.9927618495, 40186.51428061894, 15549.952155345936, 23583.303223050025, 26059.69769474241, -187500.02235174447, -187500.02235174447, 0.21, 0.9400000000000001, -0.158, 192.0, 0.0, 0.0, 0.0, 0.0, 0.0, 0.0, 0.0, 0.0, 0.0, 1.7296935480170083E9, 0.0, 2024-10-23 19:55:48.017
77.0, 17391.422974040863, 36469.9556195683, 40100.16949178809, 14688.694737994045, 23479.680535755222, 25459.03926599494, -187500.02235174447, -187500.02235174447, 0.21, 0.9400000000000001, -0.158, 192.0, 0.0, 0.0, 0.0, 0.0, 0.0, 0.0, 0.0, 0.0, 0.0, 1.7296935480210223E9, 0.0, 2024-10-23 19:55:48.021
78.0, 17456.73477133927, 34942.88443838173, 40167.76116702094, 14127.665952165837, 23519.868972285865, 25101.277244243294, -187500.02235174447, -187500.02235174447, 0.21, 0.9400000000000001, -0.158, 192.0, 0.0, 0.0, 0.0, 0.0, 0.0, 0.0, 0.0, 0.0, 0.0, 1.7296935480260072E9, 0.0, 2024-10-23 19:55:48.026
79.0, 17472.2245302468, 32081.078837046487, 40190.694056832086, 13689.057670719347, 23526.641550855824, 24745.951562637278, -187500.02235174447, -187500.02235174447, 0.21, 0.9400000000000001, -0.158, 192.0, 0.0, 0.0, 0.0, 0.0, 0.0, 0.0, 0.0, 0.0, 0.0, 1.7296935480300028E9, 0.0, 2024-10-23 19:55:48.030
80.0, 17717.93725704399, 32496.843635659654, 40286.58304054535, 14813.037492398918, 23650.850194793966, 25611.03112829103, -187500.02235174447, -187500.02235174447, 0.21, 0.9400000000000001, -0.158, 192.0, 0.0, 0.0, 0.0, 0.0, 0.0, 0.0, 0.0, 0.0, 0.0, 1.7296935480340188E9, 0.0, 2024-10-23 19:55:48.034
81.0, 17579.177627465444, 36029.84977124331, 40171.53861183389, 15535.915259828003, 23577.938804380752, 26043.649142223498, -187500.02235174447, -187500.02235174447, 0.21, 0.9400000000000001, -0.158, 192.0, 0.0, 0.0, 0.0, 0.0, 0.0, 0.0, 0.0, 0.0, 0.0, 1.7296935480380075E9, 0.0, 2024-10-23 19:55:48.038
82.0, 17395.088660131536, 36559.943742745374, 40092.8604713512, 14684.179685614072, 23477.914747943254, 25452.758425803, -187500.02235174447, -187500.02235174447, 0.21, 0.9400000000000001, -0.158, 192.0, 0.0, 0.0, 0.0, 0.0, 0.0, 0.0, 0.0, 0.0, 0.0, 1.7296935480410478E9, 0.0, 2024-10-23 19:55:48.041
83.0, 17458.277041706686, 35002.921223988684, 40163.983722207995, 14125.296667253575, 23518.46081238518, 25098.125648275098, -187500.02235174447, -187500.02235174447, 0.21, 0.9400000000000001, -0.158, 192.0, 0.0, 0.0, 0.0, 0.0, 0.0, 0.0, 0.0, 0.0, 0.0, 1.7296935480451193E9, 0.0, 2024-10-23 19:55:48.045
84.0, 17477.343079727063, 32079.69302889026, 40194.00211501147, 13694.37738589971, 23529.79314682402, 24748.454958016275, -187500.02235174447, -187500.02235174447, 0.214, 0.9420000000000001, -0.156, 192.0, 6.0, 176.0, 29.0, 112.0, 251.0, 32.0, 0.0, 0.0, 0.0, 1.7296935480492449E9, 0.0, 2024-10-23 19:55:48.049
85.0, 17728.30846647125, 32495.413124014514, 40298.87649999577, 14827.722588506054, 23657.19809021927, 25625.53741044252, -187500.02235174447, -187500.02235174447, 0.214, 0.9420000000000001, -0.156, 192.0, 0.0, 0.0, 0.0, 0.0, 0.0, 0.0, 0.0, 0.0, 0.0, 1.7296935480531297E9, 0.0, 2024-10-23 19:55:48.053
86.0, 17587.11249674708, 36081.95168756863, 40188.034199241905, 15551.248556524344, 23583.23616781666, 26062.044627910214, -187500.02235174447, -187500.02235174447, 0.214, 0.9420000000000001, -0.156, 192.0, 0.0, 0.0, 0.0, 0.0, 0.0, 0.0, 0.0, 0.0, 0.0, 1.7296935480582476E9, 0.0, 2024-10-23 19:55:48.058
87.0, 17400.274264845164, 36607.77647587973, 40110.428942493076, 14698.596560787746, 23480.93223344472, 25454.524213614968, -187500.02235174447, -187500.02235174447, 0.214, 0.9420000000000001, -0.156, 192.0, 0.0, 0.0, 0.0, 0.0, 0.0, 0.0, 0.0, 0.0, 0.0, 1.7296935480620394E9, 0.0, 2024-10-23 19:55:48.062
88.0, 17464.714344109816, 35011.83957002635, 40183.49679511748, 14144.809740163058, 23521.388890908827, 25101.21018900993, -187500.02235174447, -187500.02235174447, 0.214, 0.9420000000000001, -0.156, 192.0, 0.0, 0.0, 0.0, 0.0, 0.0, 0.0, 0.0, 0.0, 0.0, 1.7296935480661583E9, 0.0, 2024-10-23 19:55:48.066
89.0, 17490.374146744507, 32064.069159516, 40219.61721415725, 13717.019703032936, 23537.482146916645, 24747.42677777133, -187500.02235174447, -187500.02235174447, 0.214, 0.9420000000000001, -0.156, 192.0, 0.0, 0.0, 0.0, 0.0, 0.0, 0.0, 0.0, 0.0, 0.0, 1.729693548069148E9, 0.0, 2024-10-23 19:55:48.069
90.0, 17735.773949119324, 32466.445263200436, 40317.137875215754, 14846.386295126236, 23658.87447105342, 25610.53938991301, -187500.02235174447, -187500.02235174447, 0.214, 0.9420000000000001, -0.156, 192.0, 0.0, 0.0, 0.0, 0.0, 0.0, 0.0, 0.0, 0.0, 0.0, 1.729693548073045E9, 0.0, 2024-10-23 19:55:48.073
91.0, 17593.348633450107, 36023.948910707106, 40206.47438841753, 15572.572120734707, 23594.076763877485, 26074.896880972014, -187500.02235174447, -187500.02235174447, 0.214, 0.9420000000000001, -0.156, 192.0, 0.0, 0.0, 0.0, 0.0, 0.0, 0.0, 0.0, 0.0, 0.0, 1.7296935480770411E9, 0.0, 2024-10-23 19:55:48.077
92.0, 17409.68434926085, 36519.263567836715, 40131.64074798116, 14727.430311135091, 23497.56193131947, 25487.202464008627, -187500.02235174447, -187500.02235174447, 0.214, 0.9420000000000001, -0.156, 192.0, 0.0, 0.0, 0.0, 0.0, 0.0, 0.0, 0.0, 0.0, 0.0, 1.7296935480810263E9, 0.0, 2024-10-23 19:55:48.081
93.0, 17471.643384890962, 34926.32179574035, 40201.646411615184, 14175.766906233659, 23538.487975417134, 25127.585247467192, -187500.02235174447, -187500.02235174447, 0.214, 0.9420000000000001, -0.156, 192.0, 0.0, 0.0, 0.0, 0.0, 0.0, 0.0, 0.0, 0.0, 0.0, 1.729693548086096E9, 0.0, 2024-10-23 19:55:48.086
94.0, 17490.977643844803, 32009.061516411486, 40231.083659062824, 13745.272308024445, 23552.167243023785, 24777.154597896886, -187500.02235174447, -187500.02235174447, 0.214, 0.9400000000000001, -0.16, 192.0, 6.0, 176.0, 29.0, 96.0, 251.0, 0.0, 0.0, 0.0, 0.0, 1.7296935480900605E9, 0.0, 2024-10-23 19:55:48.090
95.0, 17736.377446219616, 32427.64263482602, 40326.659718353716, 14878.952786797618, 23672.6878491268, 25643.97759961815, -187500.02235174447, -187500.02235174447, 0.214, 0.9400000000000001, -0.16, 192.0, 0.0, 0.0, 0.0, 0.0, 0.0, 0.0, 0.0, 0.0, 0.0, 1.7296935480941212E9, 0.0, 2024-10-23 19:55:48.094
96.0, 17594.399165439507, 35934.45252590806, 40214.945699566095, 15596.264969857333, 23600.737583725167, 26075.455674583398, -187500.02235174447, -187500.02235174447, 0.214, 0.9400000000000001, -0.16, 192.0, 0.0, 0.0, 0.0, 0.0, 0.0, 0.0, 0.0, 0.0, 0.0, 1.7296935480970838E9, 0.0, 2024-10-23 19:55:48.097
97.0, 17407.24800911522, 36407.72836300473, 40133.96532940451, 14735.566346116824, 23496.22082665215, 25469.052847510917, -187500.02235174447, -187500.02235174447, 0.214, 0.9400000000000001, -0.16, 192.0, 0.0, 0.0, 0.0, 0.0, 0.0, 0.0, 0.0, 0.0, 0.0, 1.7296935481010766E9, 0.0, 2024-10-23 19:55:48.101
98.0, 17463.55205339814, 34836.35602430773, 40196.080827245816, 14168.56964451905, 23531.916562547274, 25106.664014657024, -187500.02235174447, -187500.02235174447, 0.214, 0.9400000000000001, -0.16, 192.0, 0.0, 0.0, 0.0, 0.0, 0.0, 0.0, 0.0, 0.0, 0.0, 1.7296935481050806E9, 0.0, 2024-10-23 19:55:48.105
99.0, 17489.301263010653, 31944.129698768822, 40230.92719685164, 13736.063389308858, 23554.692990147232, 24773.913594950867, -187500.02235174447, -187500.02235174447, 0.214, 0.9400000000000001, -0.16, 192.0, 0.0, 0.0, 0.0, 0.0, 0.0, 0.0, 0.0, 0.0, 0.0, 1.7296935481091256E9, 0.0, 2024-10-23 19:55:48.109
100.0, 17734.611658407648, 32365.728302684824, 40322.74816307404, 14858.925623765663, 23675.6382793949, 25632.444099479213, -187500.02235174447, -187500.02235174447, 0.214, 0.9400000000000001, -0.16, 192.0, 0.0, 0.0, 0.0, 0.0, 0.0, 0.0, 0.0, 0.0, 0.0, 1.7296935481141207E9, 0.0, 2024-10-23 19:55:48.114
101.0, 17585.212598468377, 35905.104685438244, 40196.058475501355, 15555.249518781844, 23591.70747896522, 26039.022331121247, -187500.02235174447, -187500.02235174447, 0.214, 0.9400000000000001, -0.16, 192.0, 0.0, 0.0, 0.0, 0.0, 0.0, 0.0, 0.0, 0.0, 0.0, 1.729693548119226E9, 0.0, 2024-10-23 19:55:48.119
102.0, 17403.35880558, 36426.347366136004, 40114.206387306025, 14687.688909493556, 23489.6941172712, 25450.947934502117, -187500.02235174447, -187500.02235174447, 0.214, 0.9400000000000001, -0.16, 192.0, 0.0, 0.0, 0.0, 0.0, 0.0, 0.0, 0.0, 0.0, 0.0, 1.7296935481221292E9, 0.0, 2024-10-23 19:55:48.122
103.0, 17460.51221615222, 34851.68932100407, 40172.45503335656, 14119.686379395293, 23519.578399607944, 25092.358898205628, -187500.02235174447, -187500.02235174447, 0.214, 0.9400000000000001, -0.16, 192.0, 0.0, 0.0, 0.0, 0.0, 0.0, 0.0, 0.0, 0.0, 0.0, 1.729693548126132E9, 0.0, 2024-10-23 19:55:48.126
104.0, 17479.35473672804, 31898.867416246823, 40195.074998745324, 13674.394926356665, 23530.776623580055, 24745.571582981538, -187500.02235174447, -187500.02235174447, 0.212, 0.9460000000000001, -0.16, 192.0, 6.0, 160.0, 29.0, 144.0, 251.0, 0.0, 0.0, 0.0, 0.0, 1.7296935481303637E9, 0.0, 2024-10-23 19:55:48.130
105.0, 17724.866297825134, 32332.670072635425, 40286.40422658971, 14796.899532902185, 23647.8327092925, 25601.531636897522, -187500.02235174447, -187500.02235174447, 0.212, 0.9460000000000001, -0.16, 192.0, 0.0, 0.0, 0.0, 0.0, 0.0, 0.0, 0.0, 0.0, 0.0, 1.7296935481341207E9, 0.0, 2024-10-23 19:55:48.134
106.0, 17581.34574667761, 36005.17344536465, 40168.99051296598, 15498.2078669319, 23569.780417654565, 26019.57631344513, -187500.02235174447, -187500.02235174447, 0.212, 0.9460000000000001, -0.16, 192.0, 0.0, 0.0, 0.0, 0.0, 0.0, 0.0, 0.0, 0.0, 0.0, 1.7296935481383064E9, 0.0, 2024-10-23 19:55:48.138
107.0, 17391.06534612958, 36563.028283480206, 40079.78470084485, 14630.043760543318, 23458.088750611398, 25401.952910656084, -187500.02235174447, -187500.02235174447, 0.212, 0.9460000000000001, -0.16, 192.0, 0.0, 0.0, 0.0, 0.0, 0.0, 0.0, 0.0, 0.0, 0.0, 1.7296935481412072E9, 0.0, 2024-10-23 19:55:48.141
108.0, 17452.666753848407, 34940.090470324816, 40145.99056792147, 14070.065506704512, 23498.7465737756, 25047.856574995112, -187500.02235174447, -187500.02235174447, 0.212, 0.9460000000000001, -0.16, 192.0, 0.0, 0.0, 0.0, 0.0, 0.0, 0.0, 0.0, 0.0, 0.0, 1.7296935481451752E9, 0.0, 2024-10-23 19:55:48.145
109.0, 17479.041812305666, 31892.988907455077, 40185.03906548489, 13647.259908587923, 23523.557010120992, 24739.626018956427, -187500.02235174447, -187500.02235174447, 0.212, 0.9460000000000001, -0.16, 192.0, 0.0, 0.0, 0.0, 0.0, 0.0, 0.0, 0.0, 0.0, 0.0, 1.7296935481493971E9, 0.0, 2024-10-23 19:55:48.149
110.0, 17730.096606027677, 32302.15994145393, 40288.30412486841, 14793.703233445078, 23646.15632845835, 25601.10695375287, -187500.02235174447, -187500.02235174447, 0.212, 0.9460000000000001, -0.16, 192.0, 0.0, 0.0, 0.0, 0.0, 0.0, 0.0, 0.0, 0.0, 0.0, 1.7296935481533444E9, 0.0, 2024-10-23 19:55:48.153
111.0, 17589.32531944815, 36086.176167270685, 40180.52401310492, 15515.239896206844, 23575.010725857108, 26033.09911884059, -187500.02235174447, -187500.02235174447, 0.212, 0.9460000000000001, -0.16, 192.0, 0.0, 0.0, 0.0, 0.0, 0.0, 0.0, 0.0, 0.0, 0.0, 1.7296935481583488E9, 0.0, 2024-10-23 19:55:48.158
112.0, 17406.488049803742, 36669.19906964291, 40109.445465737044, 14668.824037173277, 23477.713582243156, 25446.634047822245, -187500.02235174447, -187500.02235174447, 0.212, 0.9460000000000001, -0.16, 192.0, 0.0, 0.0, 0.0, 0.0, 0.0, 0.0, 0.0, 0.0, 0.0, 1.7296935481623611E9, 0.0, 2024-10-23 19:55:48.162
113.0, 17470.861073835025, 34987.02913368096, 40184.90495501816, 14124.469652708729, 23521.388890908827, 25097.74566861936, -187500.02235174447, -187500.02235174447, 0.212, 0.9460000000000001, -0.16, 192.0, 0.0, 0.0, 0.0, 0.0, 0.0, 0.0, 0.0, 0.0, 0.0, 1.7296935481664112E9, 0.0, 2024-10-23 19:55:48.166
114.0, 17496.207952047345, 31868.714912976615, 40223.03703105891, 13705.597961616275, 23539.449100428716, 24755.026370886135, -187500.02235174447, -187500.02235174447, 0.212, 0.9460000000000001, -0.16, 192.0, 0.0, 0.0, 0.0, 0.0, 0.0, 0.0, 0.0, 0.0, 0.0, 1.7296935481694417E9, 0.0, 2024-10-23 19:55:48.169
115.0, 17738.009123564854, 32268.43115907087, 40320.33417467287, 14855.774027797464, 23659.321505942527, 25623.12342204135, -187500.02235174447, -187500.02235174447, 0.212, 0.9440000000000001, -0.158, 192.0, 6.0, 160.0, 29.0, 128.0, 251.0, 16.0, 0.0, 0.0, 0.0, 1.7296935481731758E9, 0.0, 2024-10-23 19:55:48.173
116.0, 17587.693642102917, 36099.49780696604, 40202.89810930468, 15575.075516113702, 23580.486903248657, 26061.128206387548, -187500.02235174447, -187500.02235174447, 0.212, 0.9440000000000001, -0.158, 192.0, 0.0, 0.0, 0.0, 0.0, 0.0, 0.0, 0.0, 0.0, 0.0, 1.729693548177265E9, 0.0, 2024-10-23 19:55:48.177
117.0, 17403.82819221356, 36692.04255247624, 40128.2209310795, 14725.999799489951, 23488.08479167042, 25463.442559652634, -187500.02235174447, -187500.02235174447, 0.212, 0.9440000000000001, -0.158, 192.0, 0.0, 0.0, 0.0, 0.0, 0.0, 0.0, 0.0, 0.0, 0.0, 1.729693548181165E9, 0.0, 2024-10-23 19:55:48.181
118.0, 17470.034059290178, 34974.1545288747, 40203.36749593824, 14180.550179547094, 23538.21975448367, 25113.369537993618, -187500.02235174447, -187500.02235174447, 0.212, 0.9440000000000001, -0.158, 192.0, 0.0, 0.0, 0.0, 0.0, 0.0, 0.0, 0.0, 0.0, 0.0, 1.729693548186194E9, 0.0, 2024-10-23 19:55:48.186
119.0, 17492.855190379047, 31802.218473222078, 40239.59967370029, 13761.164398332168, 23562.33728675095, 24800.62392957496, -187500.02235174447, -187500.02235174447, 0.212, 0.9440000000000001, -0.158, 192.0, 0.0, 0.0, 0.0, 0.0, 0.0, 0.0, 0.0, 0.0, 0.0, 1.7296935481901743E9, 0.0, 2024-10-23 19:55:48.190
120.0, 17736.109225286153, 32188.70248659879, 40337.18738999217, 14897.080051550873, 23682.20969226476, 25665.144701617326, -187500.02235174447, -187500.02235174447, 0.212, 0.9440000000000001, -0.158, 192.0, 0.0, 0.0, 0.0, 0.0, 0.0, 0.0, 0.0, 0.0, 0.0, 1.7296935481942377E9, 0.0, 2024-10-23 19:55:48.194
121.0, 17582.664499600472, 36038.075213202865, 40217.8961298342, 15593.873333200614, 23605.565560527513, 26061.038799409725, -187500.02235174447, -187500.02235174447, 0.212, 0.9440000000000001, -0.158, 192.0, 0.0, 0.0, 0.0, 0.0, 0.0, 0.0, 0.0, 0.0, 0.0, 1.729693548197317E9, 0.0, 2024-10-23 19:55:48.197
122.0, 17395.222770598266, 36626.216665055355, 40140.916721930116, 14735.812215305832, 23509.83303902543, 25469.008144022006, -187500.02235174447, -187500.02235174447, 0.212, 0.9440000000000001, -0.158, 192.0, 0.0, 0.0, 0.0, 0.0, 0.0, 0.0, 0.0, 0.0, 0.0, 1.7296935482012968E9, 0.0, 2024-10-23 19:55:48.201
123.0, 17461.003954530235, 34895.878719792214, 40213.761057109965, 14183.679423770836, 23554.313010491493, 25131.69796844697, -187500.02235174447, -187500.02235174447, 0.212, 0.9440000000000001, -0.158, 192.0, 0.0, 0.0, 0.0, 0.0, 0.0, 0.0, 0.0, 0.0, 0.0, 1.729693548205383E9, 0.0, 2024-10-23 19:55:48.205
124.0, 17479.93588208388, 31707.04474533138, 40240.09141207831, 13745.473473724542, 23564.348943751927, 24789.515112580673, -187500.02235174447, -187500.02235174447, 0.212, 0.9440000000000001, -0.158, 192.0, 0.0, 0.0, 0.0, 0.0, 0.0, 0.0, 0.0, 0.0, 0.0, 1.7296935482093444E9, 0.0, 2024-10-23 19:55:48.209
125.0, 17718.138422744087, 32090.801845884544, 40324.96098577511, 14875.108286751305, 23676.062962539552, 25647.37506477536, -187500.02235174447, -187500.02235174447, 0.2, 0.9460000000000001, -0.162, 192.0, 6.0, 64.0, 29.0, 144.0, 250.0, 240.0, 0.0, 0.0, 0.0, 1.7296935482145076E9, 0.0, 2024-10-23 19:55:48.214
126.0, 17563.8443307691, 35961.18521227661, 40194.22563245602, 15564.570196219707, 23582.275042805082, 26044.118528857056, -187500.02235174447, -187500.02235174447, 0.2, 0.9460000000000001, -0.162, 192.0, 0.0, 0.0, 0.0, 0.0, 0.0, 0.0, 0.0, 0.0, 0.0, 1.7296935482184992E9, 0.0, 2024-10-23 19:55:48.218
127.0, 17383.376346036952, 36571.72311207332, 40113.35702101672, 14699.714148010511, 23481.803951478476, 25447.215193178083, -187500.02235174447, -187500.02235174447, 0.2, 0.9460000000000001, -0.162, 192.0, 0.0, 0.0, 0.0, 0.0, 0.0, 0.0, 0.0, 0.0, 0.0, 1.7296935482223408E9, 0.0, 2024-10-23 19:55:48.222
128.0, 17453.761989326715, 34848.47066980251, 40186.11194921875, 14144.653277951871, 23534.196440481715, 25106.686366401478, -187500.02235174447, -187500.02235174447, 0.2, 0.9460000000000001, -0.162, 192.0, 0.0, 0.0, 0.0, 0.0, 0.0, 0.0, 0.0, 0.0, 0.0, 1.7296935482252245E9, 0.0, 2024-10-23 19:55:48.225
129.0, 17472.291585480165, 31641.911761988613, 40210.29653671939, 13706.670845350129, 23543.6065248974, 24768.57152802605, -187500.02235174447, -187500.02235174447, 0.2, 0.9460000000000001, -0.162, 192.0, 0.0, 0.0, 0.0, 0.0, 0.0, 0.0, 0.0, 0.0, 0.0, 1.729693548229334E9, 0.0, 2024-10-23 19:55:48.229
130.0, 17713.422204664017, 32036.509458602606, 40296.35075287232, 14839.099626433806, 23655.924040785318, 25637.02620709255, -187500.02235174447, -187500.02235174447, 0.2, 0.9460000000000001, -0.162, 192.0, 0.0, 0.0, 0.0, 0.0, 0.0, 0.0, 0.0, 0.0, 0.0, 1.7296935482333016E9, 0.0, 2024-10-23 19:55:48.233
131.0, 17564.067848213657, 35951.86453483874, 40170.979818222506, 15525.946381800937, 23569.154568809816, 26029.09815658309, -187500.02235174447, -187500.02235174447, 0.2, 0.9460000000000001, -0.162, 192.0, 0.0, 0.0, 0.0, 0.0, 0.0, 0.0, 0.0, 0.0, 0.0, 1.729693548237327E9, 0.0, 2024-10-23 19:55:48.237
132.0, 17382.281110558644, 36567.16335620444, 40089.44065444954, 14656.888205634143, 23466.291840826492, 25423.812916733375, -187500.02235174447, -187500.02235174447, 0.2, 0.9460000000000001, -0.162, 192.0, 0.0, 0.0, 0.0, 0.0, 0.0, 0.0, 0.0, 0.0, 0.0, 1.7296935482423668E9, 0.0, 2024-10-23 19:55:48.242
133.0, 17446.564727612105, 34808.505750716424, 40156.09355641527, 14100.106251252444, 23507.195533179707, 25072.91288052951, -187500.02235174447, -187500.02235174447, 0.2, 0.9460000000000001, -0.162, 192.0, 0.0, 0.0, 0.0, 0.0, 0.0, 0.0, 0.0, 0.0, 0.0, 1.729693548246265E9, 0.0, 2024-10-23 19:55:48.246
134.0, 17471.84455059106, 31555.276400479845, 40188.28006843091, 13659.866292460716, 23522.931161276243, 24733.546344464583, -187500.02235174447, -187500.02235174447, 0.2, 0.9460000000000001, -0.162, 192.0, 0.0, 0.0, 0.0, 0.0, 0.0, 0.0, 0.0, 0.0, 0.0, 1.7296935482503092E9, 0.0, 2024-10-23 19:55:48.250
135.0, 17716.640855865582, 31940.598123144882, 40283.319685854876, 14795.156096834673, 23638.690845810277, 25599.341165940903, -187500.02235174447, -187500.02235174447, 0.20400000000000001, 0.9440000000000001, -0.158, 192.0, 6.0, 96.0, 29.0, 128.0, 251.0, 16.0, 0.0, 0.0, 0.0, 1.7296935482533836E9, 0.0, 2024-10-23 19:55:48.253
136.0, 17563.218481924356, 35913.911272753634, 40162.55321056285, 15488.283692393745, 23556.257612259105, 26021.38680474601, -187500.02235174447, -187500.02235174447, 0.20400000000000001, 0.9440000000000001, -0.158, 192.0, 0.0, 0.0, 0.0, 0.0, 0.0, 0.0, 0.0, 0.0, 0.0, 1.7296935482572489E9, 0.0, 2024-10-23 19:55:48.257
