%OpenBCI Raw EXG Data
%Number of channels = 8
%Sample Rate = 250 Hz
%Board = OpenBCI_GUI$BoardCytonSerial
Sample Index, EXG Channel 0, EXG Channel 1, EXG Channel 2, EXG Channel 3, EXG Channel 4, EXG Channel 5, EXG Channel 6, EXG Channel 7, Accel Channel 0, Accel Channel 1, Accel Channel 2, Other, Other, Other, Other, Other, Other, Other, Analog Channel 0, Analog Channel 1, Analog Channel 2, Timestamp, Other, Timestamp (Formatted)
0.0, 0.0, 0.0, 0.0, 0.0, 0.0, 0.0, 0.0, 0.0, 0.0, 0.0, 0.0, 192.0, 0.0, 0.0, 0.0, 0.0, 0.0, 0.0, 0.0, 0.0, 0.0, 1.7296929981097007E9, 0.0, 2024-10-23 19:46:38.109
1.0, 9801.374054118878, 20890.47680979691, 37246.07524228993, 13725.647476392685, 24128.10464240368, 23405.20452323014, 95043.26075831185, 187500.0, 0.216, 0.9520000000000001, -0.114, 192.0, 6.0, 192.0, 29.0, 192.0, 252.0, 112.0, 0.0, 0.0, 0.0, 1.729692998126752E9, 0.0, 2024-10-23 19:46:38.126
2.0, 9815.478004870178, 20897.22703662241, 37254.85947786087, 13736.465720709053, 24144.108491433683, 23429.187945030684, 95000.34540895766, 187500.0, 0.216, 0.9520000000000001, -0.114, 192.0, 0.0, 0.0, 0.0, 0.0, 0.0, 0.0, 0.0, 0.0, 0.0, 1.7296929981296616E9, 0.0, 2024-10-23 19:46:38.129
3.0, 9864.51773220512, 20855.161053557524, 37267.04117858901, 13764.137180344724, 24145.047264700803, 23414.9275320682, 95009.64373465106, 187500.0, 0.216, 0.9520000000000001, -0.114, 192.0, 0.0, 0.0, 0.0, 0.0, 0.0, 0.0, 0.0, 0.0, 0.0, 1.7296929981336668E9, 0.0, 2024-10-23 19:46:38.133
4.0, 9886.422441771323, 20826.774338099283, 37272.115024580366, 13782.331500331344, 24147.148328679603, 23396.8226190594, 95038.11985708712, 187500.0, 0.216, 0.9520000000000001, -0.114, 192.0, 0.0, 0.0, 0.0, 0.0, 0.0, 0.0, 0.0, 0.0, 0.0, 1.72969299813767E9, 0.0, 2024-10-23 19:46:38.137
5.0, 9841.003697038139, 20855.116350068613, 37255.91000985027, 13774.44133453862, 24135.950104707492, 23405.137467996774, 95065.41133706705, 187500.0, 0.216, 0.9520000000000001, -0.114, 192.0, 0.0, 0.0, 0.0, 0.0, 0.0, 0.0, 0.0, 0.0, 0.0, 1.7296929981406736E9, 0.0, 2024-10-23 19:46:38.140
6.0, 9809.934772245262, 20902.77026924733, 37245.404689956275, 13747.753351658983, 24143.259125144377, 23419.599046659358, 95023.16654004653, 187500.0, 0.216, 0.9520000000000001, -0.114, 192.0, 0.0, 0.0, 0.0, 0.0, 0.0, 0.0, 0.0, 0.0, 0.0, 1.7296929981471016E9, 0.0, 2024-10-23 19:46:38.147
7.0, 9820.864775283906, 20904.446650081474, 37244.10828877787, 13747.418075492154, 24143.706160033486, 23421.63305540479, 94988.43192916298, 187500.0, 0.216, 0.9520000000000001, -0.114, 192.0, 0.0, 0.0, 0.0, 0.0, 0.0, 0.0, 0.0, 0.0, 0.0, 1.7296929981489208E9, 0.0, 2024-10-23 19:46:38.148
8.0, 9874.643072443376, 20863.967640872914, 37252.37843422633, 13771.24503508151, 24134.072558173248, 23407.10442150884, 94966.99660623034, 187500.0, 0.222, 0.9520000000000001, -0.11, 192.0, 6.0, 240.0, 29.0, 192.0, 252.0, 144.0, 0.0, 0.0, 0.0, 1.729692998153959E9, 0.0, 2024-10-23 19:46:38.153
9.0, 9891.272770318124, 20827.780166599772, 37246.3434632234, 13782.800886964904, 24111.25142708438, 23386.9207962657, 94994.48925191036, 187500.0, 0.222, 0.9520000000000001, -0.11, 192.0, 0.0, 0.0, 0.0, 0.0, 0.0, 0.0, 0.0, 0.0, 0.0, 1.729692998157667E9, 0.0, 2024-10-23 19:46:38.157
10.0, 9844.065886028515, 20852.680009922984, 37227.07625950292, 13767.62405247975, 24110.849095684185, 23396.219121959108, 95036.10820008615, 187500.0, 0.222, 0.9520000000000001, -0.11, 192.0, 0.0, 0.0, 0.0, 0.0, 0.0, 0.0, 0.0, 0.0, 0.0, 1.7296929981617267E9, 0.0, 2024-10-23 19:46:38.161
11.0, 9809.13010944487, 20896.690594755484, 37219.85664604386, 13732.889441596204, 24122.762575478864, 23405.360985441326, 95010.64956315156, 187500.0, 0.222, 0.9520000000000001, -0.11, 192.0, 0.0, 0.0, 0.0, 0.0, 0.0, 0.0, 0.0, 0.0, 0.0, 1.7296929981657116E9, 0.0, 2024-10-23 19:46:38.165
12.0, 9819.769539805597, 20898.99282443438, 37224.908140290754, 13726.295676981888, 24131.122127905146, 23406.25505521954, 94986.71084483992, 187500.0, 0.222, 0.9520000000000001, -0.11, 192.0, 0.0, 0.0, 0.0, 0.0, 0.0, 0.0, 0.0, 0.0, 0.0, 1.7296929981696625E9, 0.0, 2024-10-23 19:46:38.169
13.0, 9874.263092787634, 20859.854919893136, 37237.76039335256, 13750.793188904905, 24124.43895631301, 23400.175380727695, 94977.81485054671, 187500.0, 0.222, 0.9520000000000001, -0.11, 192.0, 0.0, 0.0, 0.0, 0.0, 0.0, 0.0, 0.0, 0.0, 0.0, 1.7296929981726744E9, 0.0, 2024-10-23 19:46:38.172
14.0, 9892.05508137406, 20827.60135264413, 37237.581579396916, 13759.82329366485, 24117.889895187607, 23389.82652304489, 94997.10440601164, 187500.0, 0.222, 0.9520000000000001, -0.11, 192.0, 0.0, 0.0, 0.0, 0.0, 0.0, 0.0, 0.0, 0.0, 0.0, 1.7296929981766562E9, 0.0, 2024-10-23 19:46:38.176
15.0, 9844.80349359554, 20850.914222111016, 37224.2375879571, 13741.092531811302, 24111.89962767358, 23383.970365997597, 95027.18985404848, 187500.0, 0.222, 0.9520000000000001, -0.11, 192.0, 0.0, 0.0, 0.0, 0.0, 0.0, 0.0, 0.0, 0.0, 0.0, 1.7296929981817167E9, 0.0, 2024-10-23 19:46:38.181
16.0, 9809.398330378333, 20895.416545321532, 37215.87803553081, 13705.799127316372, 24113.53130501882, 23410.97127329961, 95013.75645563084, 187500.0, 0.222, 0.9520000000000001, -0.11, 192.0, 0.0, 0.0, 0.0, 0.0, 0.0, 0.0, 0.0, 0.0, 0.0, 1.729692998189692E9, 0.0, 2024-10-23 19:46:38.189
17.0, 9819.993057250149, 20898.746955245373, 37220.6836605887, 13698.71362432404, 24119.700386488486, 23409.943093054666, 94972.76335629981, 187500.0, 0.222, 0.9520000000000001, -0.11, 192.0, 0.0, 0.0, 0.0, 0.0, 0.0, 0.0, 0.0, 0.0, 0.0, 1.7296929981926928E9, 0.0, 2024-10-23 19:46:38.192
18.0, 9871.558531708542, 20855.004591346336, 37244.26475098905, 13720.975961801525, 24129.62456102664, 23384.037421230965, 94966.54957134124, 187500.0, 0.222, 0.9520000000000001, -0.108, 192.0, 6.0, 240.0, 29.0, 192.0, 252.0, 160.0, 0.0, 0.0, 0.0, 1.7296929981967065E9, 0.0, 2024-10-23 19:46:38.196
19.0, 9895.29608432008, 20826.751986354826, 37257.765204640054, 13740.041999821902, 24123.991921423905, 23393.738078324568, 94981.12290872609, 187500.0, 0.222, 0.9520000000000001, -0.108, 192.0, 0.0, 0.0, 0.0, 0.0, 0.0, 0.0, 0.0, 0.0, 0.0, 1.7296929981997256E9, 0.0, 2024-10-23 19:46:38.199
20.0, 9845.89872907385, 20844.700437152438, 37243.12481202183, 13721.177127501624, 24122.24848535639, 23388.172493955197, 95012.81768236372, 187500.0, 0.222, 0.9520000000000001, -0.108, 192.0, 0.0, 0.0, 0.0, 0.0, 0.0, 0.0, 0.0, 0.0, 0.0, 1.729692998203835E9, 0.0, 2024-10-23 19:46:38.203
21.0, 9812.594629835443, 20890.342699330176, 37240.710823620655, 13692.097507965269, 24134.318427362257, 23417.229761747094, 94995.00334203284, 187500.0, 0.222, 0.9520000000000001, -0.108, 192.0, 0.0, 0.0, 0.0, 0.0, 0.0, 0.0, 0.0, 0.0, 0.0, 1.7296929982067273E9, 0.0, 2024-10-23 19:46:38.206
22.0, 9829.358438176923, 20898.56814128973, 37252.37843422633, 13694.779717299905, 24143.482642588933, 23427.600971174357, 94951.12686766707, 187500.0, 0.222, 0.9520000000000001, -0.108, 192.0, 0.0, 0.0, 0.0, 0.0, 0.0, 0.0, 0.0, 0.0, 0.0, 1.7296929982097285E9, 0.0, 2024-10-23 19:46:38.209
23.0, 9884.969578381728, 20862.403018761044, 37276.54066998252, 13727.301505482377, 24152.512747348876, 23419.82256410391, 94931.4573325464, 187500.0, 0.222, 0.9520000000000001, -0.108, 192.0, 0.0, 0.0, 0.0, 0.0, 0.0, 0.0, 0.0, 0.0, 0.0, 1.7296929982137196E9, 0.0, 2024-10-23 19:46:38.213
24.0, 9903.521526279632, 20832.518736424296, 37282.19566132971, 13746.501653969486, 24142.610924555174, 23398.834276060377, 94963.97912072887, 187500.0, 0.222, 0.9520000000000001, -0.108, 192.0, 0.0, 0.0, 0.0, 0.0, 0.0, 0.0, 0.0, 0.0, 0.0, 1.729692998217718E9, 0.0, 2024-10-23 19:46:38.217
25.0, 9857.387525723878, 20859.60905070413, 37268.58344895643, 13744.601755690785, 24136.665360530063, 23392.553435868434, 94984.02863550528, 187500.0, 0.222, 0.9520000000000001, -0.108, 192.0, 0.0, 0.0, 0.0, 0.0, 0.0, 0.0, 0.0, 0.0, 0.0, 1.7296929982218988E9, 0.0, 2024-10-23 19:46:38.221
26.0, 9820.887127028362, 20906.212437893446, 37260.96150409717, 13724.261668236455, 24152.959782237984, 23416.15687801324, 94935.39123957053, 187500.0, 0.222, 0.9520000000000001, -0.108, 192.0, 0.0, 0.0, 0.0, 0.0, 0.0, 0.0, 0.0, 0.0, 0.0, 1.7296929982247748E9, 0.0, 2024-10-23 19:46:38.224
27.0, 9828.79964456554, 20905.541885559785, 37262.7943471425, 13730.274287494933, 24164.716799821475, 23436.25109627856, 94892.11826230506, 187500.0, 0.222, 0.9520000000000001, -0.108, 192.0, 0.0, 0.0, 0.0, 0.0, 0.0, 0.0, 0.0, 0.0, 0.0, 1.729692998228762E9, 0.0, 2024-10-23 19:46:38.228
28.0, 9877.638206200387, 20864.906414140038, 37273.70199843669, 13760.762066931971, 24162.88395677614, 23430.909029353745, 94884.83159361263, 187500.0, 0.224, 0.9520000000000001, -0.106, 192.0, 7.0, 0.0, 29.0, 192.0, 252.0, 176.0, 0.0, 0.0, 0.0, 1.7296929982327757E9, 0.0, 2024-10-23 19:46:38.232
29.0, 9893.463241274743, 20832.02699804628, 37269.298704778994, 13777.749392718006, 24156.73722705093, 23423.197677516662, 94898.89084087501, 187500.0, 0.224, 0.9520000000000001, -0.106, 192.0, 0.0, 0.0, 0.0, 0.0, 0.0, 0.0, 0.0, 0.0, 0.0, 1.7296929982368424E9, 0.0, 2024-10-23 19:46:38.236
30.0, 9844.04353428406, 20852.79176864526, 37246.67873939023, 13765.992375134514, 24151.909250248584, 23411.39595644426, 94923.47775977585, 187500.0, 0.224, 0.9520000000000001, -0.106, 192.0, 0.0, 0.0, 0.0, 0.0, 0.0, 0.0, 0.0, 0.0, 0.0, 1.729692998241754E9, 0.0, 2024-10-23 19:46:38.241
31.0, 9807.923115244284, 20896.93646394449, 37238.87798057532, 13739.706723655072, 24167.130788222647, 23448.477500495614, 94887.647913414, 187500.0, 0.224, 0.9520000000000001, -0.106, 192.0, 0.0, 0.0, 0.0, 0.0, 0.0, 0.0, 0.0, 0.0, 0.0, 1.7296929982458053E9, 0.0, 2024-10-23 19:46:38.245
32.0, 9818.763711305108, 20897.741126744884, 37235.90519856277, 13738.835005621315, 24166.750808566907, 23457.239384322096, 94848.4876571283, 187500.0, 0.224, 0.9520000000000001, -0.106, 192.0, 0.0, 0.0, 0.0, 0.0, 0.0, 0.0, 0.0, 0.0, 0.0, 1.7296929982497945E9, 0.0, 2024-10-23 19:46:38.249
33.0, 9870.776220652608, 20853.730541912384, 37245.51644867855, 13763.824255922349, 24161.364038153177, 23434.328846255405, 94842.27387216972, 187500.0, 0.224, 0.9520000000000001, -0.106, 192.0, 0.0, 0.0, 0.0, 0.0, 0.0, 0.0, 0.0, 0.0, 0.0, 1.729692998252792E9, 0.0, 2024-10-23 19:46:38.252
34.0, 9891.004549384661, 20818.280675206268, 37245.7399661231, 13775.916549672671, 24160.045285230313, 23407.216180231117, 94867.91132305996, 187500.0, 0.224, 0.9520000000000001, -0.106, 192.0, 0.0, 0.0, 0.0, 0.0, 0.0, 0.0, 0.0, 0.0, 0.0, 1.7296929982567997E9, 0.0, 2024-10-23 19:46:38.256
35.0, 9843.060057528026, 20834.820966103194, 37226.76333508055, 13761.924357643647, 24147.662418802076, 23403.34932844035, 94884.40691046798, 187500.0, 0.224, 0.9520000000000001, -0.106, 192.0, 0.0, 0.0, 0.0, 0.0, 0.0, 0.0, 0.0, 0.0, 0.0, 1.72969299826077E9, 0.0, 2024-10-23 19:46:38.260
36.0, 9798.244809895135, 20865.46520775142, 37207.74200054908, 13718.249048977978, 24142.812090255273, 23387.904273021733, 94858.94827353339, 187500.0, 0.224, 0.9520000000000001, -0.106, 192.0, 0.0, 0.0, 0.0, 0.0, 0.0, 0.0, 0.0, 0.0, 0.0, 1.7296929982648108E9, 0.0, 2024-10-23 19:46:38.264
37.0, 9813.265182169102, 20864.392324017565, 37218.58259660991, 13723.211136247057, 24151.57397408175, 23427.153936285253, 94810.377932832, 187500.0, 0.224, 0.9520000000000001, -0.106, 192.0, 0.0, 0.0, 0.0, 0.0, 0.0, 0.0, 0.0, 0.0, 0.0, 1.7296929982698567E9, 0.0, 2024-10-23 19:46:38.269
38.0, 9865.702374661252, 20819.778242084773, 37237.13454450781, 13757.722229686051, 24153.742093293917, 23429.8808491088, 94787.35563604304, 187500.0, 0.226, 0.9560000000000001, -0.098, 192.0, 7.0, 16.0, 29.0, 224.0, 252.0, 240.0, 0.0, 0.0, 0.0, 1.7296929982739005E9, 0.0, 2024-10-23 19:46:38.273
39.0, 9884.14256383688, 20783.858988745094, 37243.34832946638, 13772.988471149025, 24150.76931128136, 23403.416383673717, 94794.75406345775, 187500.0, 0.226, 0.9560000000000001, -0.098, 192.0, 0.0, 0.0, 0.0, 0.0, 0.0, 0.0, 0.0, 0.0, 0.0, 1.7296929982778132E9, 0.0, 2024-10-23 19:46:38.277
40.0, 9833.649973112342, 20798.29821566322, 37224.282291446005, 13756.068200596357, 24138.520555319854, 23398.901331293742, 94824.45953183885, 187500.0, 0.226, 0.9560000000000001, -0.098, 192.0, 0.0, 0.0, 0.0, 0.0, 0.0, 0.0, 0.0, 0.0, 0.0, 1.7296929982808373E9, 0.0, 2024-10-23 19:46:38.280
41.0, 9793.997978448628, 20837.480823693375, 37214.20165469666, 13721.2888862239, 24150.031703714336, 23417.25211349155, 94797.23510709227, 187500.0, 0.226, 0.9560000000000001, -0.098, 192.0, 0.0, 0.0, 0.0, 0.0, 0.0, 0.0, 0.0, 0.0, 0.0, 1.7296929982848804E9, 0.0, 2024-10-23 19:46:38.284
42.0, 9808.079577455472, 20837.860803349115, 37225.332823435405, 13715.209211732055, 24156.245488672914, 23425.63401766229, 94762.18757178636, 187500.0, 0.226, 0.9560000000000001, -0.098, 192.0, 0.0, 0.0, 0.0, 0.0, 0.0, 0.0, 0.0, 0.0, 0.0, 1.729692998288844E9, 0.0, 2024-10-23 19:46:38.288
43.0, 9866.015299083627, 20795.92893075096, 37252.110213292865, 13742.1430638007, 24166.39318065562, 23412.312377966926, 94748.88828383545, 187500.0, 0.226, 0.9560000000000001, -0.098, 192.0, 0.0, 0.0, 0.0, 0.0, 0.0, 0.0, 0.0, 0.0, 0.0, 1.729692998292847E9, 0.0, 2024-10-23 19:46:38.292
44.0, 9883.628473714409, 20756.656915742984, 37256.91583835075, 13750.524967971442, 24145.762520523374, 23372.839197258854, 94758.94656884034, 187500.0, 0.226, 0.9560000000000001, -0.098, 192.0, 0.0, 0.0, 0.0, 0.0, 0.0, 0.0, 0.0, 0.0, 0.0, 1.7296929982979794E9, 0.0, 2024-10-23 19:46:38.297
45.0, 9835.728685346685, 20770.045610671714, 37241.7390038656, 13737.918584098648, 24133.714930261962, 23381.936357252165, 94794.46349077982, 187500.0, 0.226, 0.9560000000000001, -0.098, 192.0, 0.0, 0.0, 0.0, 0.0, 0.0, 0.0, 0.0, 0.0, 0.0, 1.7296929983019872E9, 0.0, 2024-10-23 19:46:38.301
46.0, 9800.524687829577, 20817.49836415033, 37236.75456485207, 13713.912810553647, 24153.809148527285, 23424.44937520616, 94777.74438592725, 187500.0, 0.226, 0.9560000000000001, -0.098, 192.0, 0.0, 0.0, 0.0, 0.0, 0.0, 0.0, 0.0, 0.0, 0.0, 1.72969299830586E9, 0.0, 2024-10-23 19:46:38.305
47.0, 9819.054283983027, 20827.668407877496, 37251.32790223693, 13718.651380378173, 24172.428151658554, 23421.4765931936, 94735.29842320662, 187500.0, 0.226, 0.9560000000000001, -0.098, 192.0, 0.0, 0.0, 0.0, 0.0, 0.0, 0.0, 0.0, 0.0, 0.0, 1.7296929983088577E9, 0.0, 2024-10-23 19:46:38.308
48.0, 9876.38650851089, 20791.458581859897, 37277.59120197192, 13752.670735439151, 24176.719686593973, 23412.088860522374, 94732.48210340526, 187500.0, 0.222, 0.9500000000000001, -0.096, 192.0, 6.0, 240.0, 29.0, 176.0, 253.0, 0.0, 0.0, 0.0, 0.0, 1.729692998312966E9, 0.0, 2024-10-23 19:46:38.312
49.0, 9902.225125101224, 20766.06700015867, 37289.81760618897, 13777.615282251274, 24182.106457007703, 23406.47857266409, 94751.14581002544, 187500.0, 0.222, 0.9500000000000001, -0.096, 192.0, 0.0, 0.0, 0.0, 0.0, 0.0, 0.0, 0.0, 0.0, 0.0, 1.729692998316966E9, 0.0, 2024-10-23 19:46:38.316
50.0, 9857.923967590807, 20791.77150628227, 37278.64173396132, 13777.01178515098, 24176.2055964715, 23430.909029353745, 94759.95239734082, 187500.0, 0.222, 0.9500000000000001, -0.096, 192.0, 0.0, 0.0, 0.0, 0.0, 0.0, 0.0, 0.0, 0.0, 0.0, 1.7296929983208663E9, 0.0, 2024-10-23 19:46:38.320
51.0, 9809.04070246705, 20833.859841091617, 37256.737024395115, 13740.086703310813, 24165.096779477215, 23432.02661657651, 94740.84165583154, 187500.0, 0.222, 0.9500000000000001, -0.096, 192.0, 0.0, 0.0, 0.0, 0.0, 0.0, 0.0, 0.0, 0.0, 0.0, 1.729692998325849E9, 0.0, 2024-10-23 19:46:38.325
52.0, 9814.89685951434, 20839.738349883362, 37257.72050115115, 13740.57844168883, 24168.606003356697, 23447.941058628687, 94718.06522823159, 187500.0, 0.222, 0.9500000000000001, -0.096, 192.0, 0.0, 0.0, 0.0, 0.0, 0.0, 0.0, 0.0, 0.0, 0.0, 1.7296929983298984E9, 0.0, 2024-10-23 19:46:38.329
53.0, 9871.692642175274, 20805.428422144465, 37276.47361474915, 13769.635709480728, 24177.07731450526, 23424.91876183972, 94700.22853615625, 187500.0, 0.222, 0.9500000000000001, -0.096, 192.0, 0.0, 0.0, 0.0, 0.0, 0.0, 0.0, 0.0, 0.0, 0.0, 1.7296929983339531E9, 0.0, 2024-10-23 19:46:38.333
54.0, 9892.189191840791, 20775.58884329663, 37279.580507228435, 13791.138087646734, 24176.183244727046, 23409.272540721005, 94716.32179216408, 187500.0, 0.222, 0.9500000000000001, -0.096, 192.0, 0.0, 0.0, 0.0, 0.0, 0.0, 0.0, 0.0, 0.0, 0.0, 1.729692998336902E9, 0.0, 2024-10-23 19:46:38.336
55.0, 9844.04353428406, 20800.443983130932, 37258.88279186282, 13784.901950943704, 24162.705142820498, 23423.91293333923, 94764.60156018753, 187500.0, 0.222, 0.9500000000000001, -0.096, 192.0, 0.0, 0.0, 0.0, 0.0, 0.0, 0.0, 0.0, 0.0, 0.0, 1.729692998340893E9, 0.0, 2024-10-23 19:46:38.340
56.0, 9802.871620997385, 20851.69653316695, 37241.96252131015, 13754.168302317656, 24164.06859923227, 23436.11698581183, 94735.00785052871, 187500.0, 0.222, 0.9500000000000001, -0.096, 192.0, 0.0, 0.0, 0.0, 0.0, 0.0, 0.0, 0.0, 0.0, 0.0, 1.7296929983450103E9, 0.0, 2024-10-23 19:46:38.345
57.0, 9813.600458335932, 20862.738294927873, 37241.24726548759, 13753.989488362015, 24172.003468513903, 23442.35312251486, 94681.96716093626, 187500.0, 0.222, 0.9500000000000001, -0.096, 192.0, 0.0, 0.0, 0.0, 0.0, 0.0, 0.0, 0.0, 0.0, 0.0, 1.729692998349078E9, 0.0, 2024-10-23 19:46:38.349
58.0, 9865.52356070561, 20826.88609682156, 37251.08203304792, 13777.145895617712, 24170.282384190847, 23416.514505924526, 94658.31901530255, 187500.0, 0.228, 0.9500000000000001, -0.1, 192.0, 7.0, 32.0, 29.0, 176.0, 252.0, 224.0, 0.0, 0.0, 0.0, 1.7296929983529527E9, 0.0, 2024-10-23 19:46:38.352
59.0, 9879.649863201364, 20795.347785395123, 37247.505753935075, 13788.277064356455, 24155.48552936143, 23400.98004352809, 94685.96812319376, 187500.0, 0.228, 0.9500000000000001, -0.1, 192.0, 0.0, 0.0, 0.0, 0.0, 0.0, 0.0, 0.0, 0.0, 0.0, 1.729692998357908E9, 0.0, 2024-10-23 19:46:38.357
60.0, 9831.057170755526, 20817.051329261223, 37226.00337576907, 13776.452991539598, 24140.30869487628, 23407.037366275476, 94720.97095501078, 187500.0, 0.228, 0.9500000000000001, -0.1, 192.0, 0.0, 0.0, 0.0, 0.0, 0.0, 0.0, 0.0, 0.0, 0.0, 1.7296929983619163E9, 0.0, 2024-10-23 19:46:38.361
61.0, 9787.806545234507, 20866.828664163193, 37208.45725637165, 13741.986601589513, 24137.15709890808, 23419.19671525916, 94712.94667875132, 187500.0, 0.228, 0.9500000000000001, -0.1, 192.0, 0.0, 0.0, 0.0, 0.0, 0.0, 0.0, 0.0, 0.0, 0.0, 1.729692998364947E9, 0.0, 2024-10-23 19:46:38.364
62.0, 9803.69863554223, 20880.642042236574, 37212.480570373606, 13740.53373819992, 24142.25329664389, 23420.31430248193, 94677.36270157847, 187500.0, 0.228, 0.9500000000000001, -0.1, 192.0, 0.0, 0.0, 0.0, 0.0, 0.0, 0.0, 0.0, 0.0, 0.0, 1.72969299836902E9, 0.0, 2024-10-23 19:46:38.369
63.0, 9859.980328080694, 20848.433178476476, 37231.36779443834, 13766.461761768076, 24146.05309320129, 23409.943093054666, 94649.06539309805, 187500.0, 0.228, 0.9500000000000001, -0.1, 192.0, 0.0, 0.0, 0.0, 0.0, 0.0, 0.0, 0.0, 0.0, 0.0, 1.729692998373922E9, 0.0, 2024-10-23 19:46:38.373
64.0, 9880.05219460156, 20818.168916483988, 37236.30752996296, 13777.3023578289, 24140.085177431727, 23396.263825448015, 94669.51723927466, 187500.0, 0.228, 0.9500000000000001, -0.1, 192.0, 0.0, 0.0, 0.0, 0.0, 0.0, 0.0, 0.0, 0.0, 0.0, 1.7296929983779173E9, 0.0, 2024-10-23 19:46:38.377
65.0, 9839.193205737258, 20844.141643541057, 37232.64184387229, 13766.260596067978, 24147.86358450217, 23404.601026129847, 94700.69792278981, 187500.0, 0.228, 0.9500000000000001, -0.1, 192.0, 0.0, 0.0, 0.0, 0.0, 0.0, 0.0, 0.0, 0.0, 0.0, 1.7296929983809621E9, 0.0, 2024-10-23 19:46:38.380
66.0, 9796.300208127524, 20893.31548134273, 37219.387259410294, 13729.871956094737, 24149.562317080774, 23420.44841294866, 94675.14987887739, 187500.0, 0.228, 0.9500000000000001, -0.1, 192.0, 0.0, 0.0, 0.0, 0.0, 0.0, 0.0, 0.0, 0.0, 0.0, 1.7296929983849435E9, 0.0, 2024-10-23 19:46:38.384
67.0, 9809.13010944487, 20899.752783745862, 37227.858570558856, 13725.245144992488, 24163.174529454056, 23420.11313678183, 94629.2393957662, 187500.0, 0.228, 0.9500000000000001, -0.1, 192.0, 0.0, 0.0, 0.0, 0.0, 0.0, 0.0, 0.0, 0.0, 0.0, 1.7296929983909702E9, 0.0, 2024-10-23 19:46:38.390
68.0, 9861.835522870484, 20857.597393703152, 37245.538800423004, 13748.915642370659, 24161.654610831098, 23407.462049420126, 94597.92460178431, 187500.0, 0.228, 0.9500000000000001, -0.1, 192.0, 7.0, 32.0, 29.0, 176.0, 252.0, 224.0, 0.0, 0.0, 0.0, 1.7296929983939629E9, 0.0, 2024-10-23 19:46:38.393
69.0, 9883.941398136783, 20822.907486308515, 37253.00428307108, 13768.942805402614, 24156.200785184003, 23398.655462104736, 94621.21511950674, 187500.0, 0.228, 0.9500000000000001, -0.1, 192.0, 0.0, 0.0, 0.0, 0.0, 0.0, 0.0, 0.0, 0.0, 0.0, 1.7296929983989708E9, 0.0, 2024-10-23 19:46:38.398
70.0, 9841.674249371797, 20843.649905163038, 37239.101498019874, 13761.410267521176, 24147.170680424057, 23399.795401071955, 94661.38120429292, 187500.0, 0.228, 0.9500000000000001, -0.1, 192.0, 0.0, 0.0, 0.0, 0.0, 0.0, 0.0, 0.0, 0.0, 0.0, 1.7296929984019732E9, 0.0, 2024-10-23 19:46:38.401
71.0, 9801.374054118878, 20894.544827287773, 37229.4902479041, 13731.458929951064, 24154.05501771629, 23427.48921245208, 94622.95855557425, 187500.0, 0.228, 0.9500000000000001, -0.1, 192.0, 0.0, 0.0, 0.0, 0.0, 0.0, 0.0, 0.0, 0.0, 0.0, 1.72969299840705E9, 0.0, 2024-10-23 19:46:38.407
72.0, 9812.281705413068, 20897.22703662241, 37233.29004446149, 13727.05563629337, 24153.607982827187, 23420.381357715294, 94580.49024110918, 187500.0, 0.228, 0.9500000000000001, -0.1, 192.0, 0.0, 0.0, 0.0, 0.0, 0.0, 0.0, 0.0, 0.0, 0.0, 1.7296929984110181E9, 0.0, 2024-10-23 19:46:38.411
73.0, 9870.507999719144, 20860.74898967135, 37255.23945751661, 13759.599776220295, 24156.55841309529, 23416.648616391256, 94567.36976711391, 187500.0, 0.228, 0.9500000000000001, -0.1, 192.0, 0.0, 0.0, 0.0, 0.0, 0.0, 0.0, 0.0, 0.0, 0.0, 1.729692998413964E9, 0.0, 2024-10-23 19:46:38.413
74.0, 9894.804345942062, 20826.64022763255, 37266.88471637783, 13779.179904363145, 24151.84219501522, 23403.63990111827, 94580.8702207649, 187500.0, 0.228, 0.9500000000000001, -0.1, 192.0, 0.0, 0.0, 0.0, 0.0, 0.0, 0.0, 0.0, 0.0, 0.0, 1.7296929984179494E9, 0.0, 2024-10-23 19:46:38.417
75.0, 9854.302984989046, 20844.454567963432, 37259.530992452026, 13772.608491493285, 24145.606058312187, 23411.64182563327, 94609.25693622314, 187500.0, 0.228, 0.9500000000000001, -0.1, 192.0, 0.0, 0.0, 0.0, 0.0, 0.0, 0.0, 0.0, 0.0, 0.0, 1.7296929984209657E9, 0.0, 2024-10-23 19:46:38.420
76.0, 9809.510089100611, 20885.26885333882, 37245.78466961201, 13736.421017220142, 24142.96855246646, 23427.936247341186, 94587.28517142359, 187500.0, 0.228, 0.9500000000000001, -0.1, 192.0, 0.0, 0.0, 0.0, 0.0, 0.0, 0.0, 0.0, 0.0, 0.0, 1.7296929984260278E9, 0.0, 2024-10-23 19:46:38.426
77.0, 9821.937659017762, 20888.107524884646, 37255.8429546169, 13732.978848574025, 24160.604078841698, 23432.78657588799, 94555.09865940794, 187500.0, 0.228, 0.9500000000000001, -0.1, 192.0, 0.0, 0.0, 0.0, 0.0, 0.0, 0.0, 0.0, 0.0, 0.0, 1.7296929984300315E9, 0.0, 2024-10-23 19:46:38.430
78.0, 9879.560456223542, 20849.014323832314, 37277.16651882727, 13758.996279120003, 24164.11330272118, 23416.20158150215, 94541.53115052357, 187500.0, 0.228, 0.9500000000000001, -0.098, 192.0, 7.0, 32.0, 29.0, 176.0, 252.0, 240.0, 0.0, 0.0, 0.0, 1.729692998434086E9, 0.0, 2024-10-23 19:46:38.434
79.0, 9902.24747684568, 20815.240837960344, 37278.23940256112, 13773.837837438326, 24152.78096828234, 23400.77887782799, 94550.02481341659, 187500.0, 0.228, 0.9500000000000001, -0.098, 192.0, 0.0, 0.0, 0.0, 0.0, 0.0, 0.0, 0.0, 0.0, 0.0, 1.729692998437014E9, 0.0, 2024-10-23 19:46:38.437
80.0, 9852.961880321727, 20831.557611412718, 37257.31816975095, 13760.516197742963, 24137.425319841543, 23394.229816702584, 94582.1219184544, 187500.0, 0.228, 0.9500000000000001, -0.098, 192.0, 0.0, 0.0, 0.0, 0.0, 0.0, 0.0, 0.0, 0.0, 0.0, 1.7296929984410114E9, 0.0, 2024-10-23 19:46:38.441
81.0, 9812.549926346532, 20888.912187685037, 37251.81964061494, 13736.95745908707, 24159.01710498537, 23448.745721429077, 94547.63317675986, 187500.0, 0.228, 0.9500000000000001, -0.098, 192.0, 0.0, 0.0, 0.0, 0.0, 0.0, 0.0, 0.0, 0.0, 0.0, 1.7296929984449964E9, 0.0, 2024-10-23 19:46:38.444
82.0, 9821.512975873111, 20900.22217037942, 37249.65152140278, 13737.67271490964, 24156.670171817565, 23441.280238781004, 94509.29993501902, 187500.0, 0.228, 0.9500000000000001, -0.098, 192.0, 0.0, 0.0, 0.0, 0.0, 0.0, 0.0, 0.0, 0.0, 0.0, 1.729692998449097E9, 0.0, 2024-10-23 19:46:38.449
83.0, 9876.207694555247, 20862.335963527676, 37257.60874242887, 13764.494808256008, 24151.082235703736, 23414.458145434637, 94487.81990859746, 187500.0, 0.228, 0.9500000000000001, -0.098, 192.0, 0.0, 0.0, 0.0, 0.0, 0.0, 0.0, 0.0, 0.0, 0.0, 1.729692998455062E9, 0.0, 2024-10-23 19:46:38.455
84.0, 9894.133793608404, 20824.919143309493, 37258.65927441827, 13781.1021543863, 24150.76931128136, 23393.313395179917, 94507.33298150694, 187500.0, 0.228, 0.9500000000000001, -0.098, 192.0, 0.0, 0.0, 0.0, 0.0, 0.0, 0.0, 0.0, 0.0, 0.0, 1.729692998458146E9, 0.0, 2024-10-23 19:46:38.458
85.0, 9842.23304298318, 20839.98421907237, 37237.96155905266, 13772.004994392992, 24143.840270500215, 23397.336709181873, 94543.05106914653, 187500.0, 0.228, 0.9500000000000001, -0.098, 192.0, 0.0, 0.0, 0.0, 0.0, 0.0, 0.0, 0.0, 0.0, 0.0, 1.7296929984620516E9, 0.0, 2024-10-23 19:46:38.462
86.0, 9788.253580123614, 20885.805295205748, 37216.72740182011, 13733.045903807391, 24142.409758855076, 23418.526162925504, 94515.67018218878, 187500.0, 0.228, 0.9500000000000001, -0.098, 192.0, 0.0, 0.0, 0.0, 0.0, 0.0, 0.0, 0.0, 0.0, 0.0, 1.7296929984650512E9, 0.0, 2024-10-23 19:46:38.465
87.0, 9798.401272106323, 20891.929673186503, 37221.778896067015, 13727.346208971288, 24153.49622410491, 23412.69235762267, 94475.23587646913, 187500.0, 0.228, 0.9500000000000001, -0.098, 192.0, 0.0, 0.0, 0.0, 0.0, 0.0, 0.0, 0.0, 0.0, 0.0, 1.7296929984691484E9, 0.0, 2024-10-23 19:46:38.469
88.0, 9858.259243757635, 20849.55076569924, 37240.643768387294, 13748.133331314724, 24156.826634028752, 23378.829464772876, 94444.54693133199, 187500.0, 0.228, 0.9500000000000001, -0.098, 192.0, 0.0, 0.0, 0.0, 0.0, 0.0, 0.0, 0.0, 0.0, 0.0, 1.7296929984730713E9, 0.0, 2024-10-23 19:46:38.473
89.0, 9880.76745042413, 20811.150468725024, 37247.349291723884, 13768.004032135492, 24152.803320026796, 23394.855665547333, 94461.1989809512, 187500.0, 0.226, 0.9480000000000001, -0.098, 192.0, 7.0, 16.0, 29.0, 160.0, 252.0, 240.0, 0.0, 0.0, 0.0, 1.7296929984771082E9, 0.0, 2024-10-23 19:46:38.477
90.0, 9831.817130067007, 20825.321474709686, 37224.99754726858, 13756.470531996552, 24127.054110414283, 23395.72738358109, 94489.6080481539, 187500.0, 0.226, 0.9480000000000001, -0.098, 192.0, 0.0, 0.0, 0.0, 0.0, 0.0, 0.0, 0.0, 0.0, 0.0, 1.7296929984831884E9, 0.0, 2024-10-23 19:46:38.483
91.0, 9777.860018951897, 20865.55461472924, 37203.45046561366, 13709.733034340506, 24121.801450467283, 23375.47670310458, 94463.68002458573, 187500.0, 0.226, 0.9480000000000001, -0.098, 192.0, 0.0, 0.0, 0.0, 0.0, 0.0, 0.0, 0.0, 0.0, 0.0, 1.7296929984860508E9, 0.0, 2024-10-23 19:46:38.486
92.0, 9799.250638395624, 20874.875292167104, 37222.829428056415, 13716.013874532448, 24147.841232757717, 23410.859514577332, 94423.84921596637, 187500.0, 0.226, 0.9480000000000001, -0.098, 192.0, 0.0, 0.0, 0.0, 0.0, 0.0, 0.0, 0.0, 0.0, 0.0, 1.729692998493129E9, 0.0, 2024-10-23 19:46:38.493
93.0, 9864.51773220512, 20829.724768367385, 37254.211277271665, 13756.805808163383, 24159.575898596755, 23433.546535199468, 94398.07765460941, 187500.0, 0.226, 0.9480000000000001, -0.098, 192.0, 0.0, 0.0, 0.0, 0.0, 0.0, 0.0, 0.0, 0.0, 0.0, 1.7296929984960976E9, 0.0, 2024-10-23 19:46:38.496
94.0, 9883.67317720332, 20777.53344506424, 37256.021768572544, 13763.265462310967, 24153.27270666036, 23399.39306967176, 94401.27395406652, 187500.0, 0.226, 0.9480000000000001, -0.098, 192.0, 0.0, 0.0, 0.0, 0.0, 0.0, 0.0, 0.0, 0.0, 0.0, 1.7296929984991095E9, 0.0, 2024-10-23 19:46:38.499
95.0, 9838.299135959047, 20784.17191316747, 37241.44843118768, 13753.274232539445, 24141.761558265873, 23411.48536342208, 94421.27876535401, 187500.0, 0.226, 0.9480000000000001, -0.098, 192.0, 0.0, 0.0, 0.0, 0.0, 0.0, 0.0, 0.0, 0.0, 0.0, 1.7296929985031116E9, 0.0, 2024-10-23 19:46:38.503
96.0, 9786.5101440561, 20822.616913630594, 37225.355175179866, 13715.388025687698, 24138.408796597578, 23418.660273392234, 94397.54121274248, 187500.0, 0.226, 0.9480000000000001, -0.098, 192.0, 0.0, 0.0, 0.0, 0.0, 0.0, 0.0, 0.0, 0.0, 0.0, 1.7296929985060823E9, 0.0, 2024-10-23 19:46:38.506
97.0, 9798.289513384047, 20822.50515490832, 37232.50773340556, 13711.029435518914, 24145.896630990104, 23411.798287844456, 94358.17979075668, 187500.0, 0.226, 0.9480000000000001, -0.098, 192.0, 0.0, 0.0, 0.0, 0.0, 0.0, 0.0, 0.0, 0.0, 0.0, 1.7296929985091414E9, 0.0, 2024-10-23 19:46:38.509
98.0, 9855.912310589829, 20773.48777931783, 37250.76910862554, 13735.996334075491, 24152.937430493526, 23392.933415524178, 94341.25952020401, 187500.0, 0.226, 0.9480000000000001, -0.098, 192.0, 0.0, 0.0, 0.0, 0.0, 0.0, 0.0, 0.0, 0.0, 0.0, 1.7296929985141304E9, 0.0, 2024-10-23 19:46:38.514
99.0, 9879.381642267901, 20731.935886375417, 37258.055777317975, 13759.018630864459, 24153.719741549463, 23407.260883720028, 94347.09332550685, 187500.0, 0.228, 0.9480000000000001, -0.098, 192.0, 7.0, 32.0, 29.0, 160.0, 252.0, 240.0, 0.0, 0.0, 0.0, 1.7296929985181267E9, 0.0, 2024-10-23 19:46:38.518
100.0, 9831.23598471117, 20739.736645190318, 37237.0898410189, 13750.189691804611, 24140.01812219836, 23399.90715979423, 94372.9766455861, 187500.0, 0.228, 0.9480000000000001, -0.098, 192.0, 0.0, 0.0, 0.0, 0.0, 0.0, 0.0, 0.0, 0.0, 0.0, 1.72969299852123E9, 0.0, 2024-10-23 19:46:38.521
101.0, 9781.816277720485, 20782.003793955304, 37220.84012279989, 13714.292790209389, 24141.828613499238, 23416.648616391256, 94334.50929337852, 187500.0, 0.228, 0.9480000000000001, -0.098, 192.0, 0.0, 0.0, 0.0, 0.0, 0.0, 0.0, 0.0, 0.0, 0.0, 1.7296929985251236E9, 0.0, 2024-10-23 19:46:38.525
102.0, 9796.523725572077, 20786.407087613, 37228.52912289252, 13714.583362887308, 24148.69059904702, 23424.672892650713, 94282.92146717566, 187500.0, 0.228, 0.9480000000000001, -0.098, 192.0, 0.0, 0.0, 0.0, 0.0, 0.0, 0.0, 0.0, 0.0, 0.0, 1.7296929985291417E9, 0.0, 2024-10-23 19:46:38.529
103.0, 9858.326298991002, 20745.168119092956, 37249.115079535855, 13744.355886501777, 24147.64006705762, 23401.78470632848, 94263.497801244, 187500.0, 0.228, 0.9480000000000001, -0.098, 192.0, 0.0, 0.0, 0.0, 0.0, 0.0, 0.0, 0.0, 0.0, 0.0, 1.729692998533262E9, 0.0, 2024-10-23 19:46:38.533
104.0, 9882.71205219174, 20707.550133174675, 37252.49019294861, 13760.2479768095, 24136.57595355224, 23379.879996762276, 94290.76692947948, 187500.0, 0.228, 0.9480000000000001, -0.098, 192.0, 0.0, 0.0, 0.0, 0.0, 0.0, 0.0, 0.0, 0.0, 0.0, 1.7296929985372777E9, 0.0, 2024-10-23 19:46:38.537
105.0, 9841.42838018279, 20724.0904240716, 37235.122887506834, 13754.369468017754, 24126.67413075854, 23395.503866136536, 94321.76879903898, 187500.0, 0.228, 0.9480000000000001, -0.098, 192.0, 0.0, 0.0, 0.0, 0.0, 0.0, 0.0, 0.0, 0.0, 0.0, 1.7296929985421467E9, 0.0, 2024-10-23 19:46:38.542
106.0, 9793.03685343705, 20772.839578728628, 37217.95674776516, 13718.71843561154, 24122.293188845302, 23409.317244209917, 94290.45400505711, 187500.0, 0.228, 0.9480000000000001, -0.098, 192.0, 0.0, 0.0, 0.0, 0.0, 0.0, 0.0, 0.0, 0.0, 0.0, 1.7296929985461483E9, 0.0, 2024-10-23 19:46:38.546
107.0, 9805.620885565388, 20780.39446835452, 37220.52719837752, 13719.52309841193, 24120.57210452224, 23408.244360476063, 94236.38513521971, 187500.0, 0.228, 0.9480000000000001, -0.098, 192.0, 0.0, 0.0, 0.0, 0.0, 0.0, 0.0, 0.0, 0.0, 0.0, 1.7296929985491784E9, 0.0, 2024-10-23 19:46:38.549
108.0, 9867.892845617873, 20742.64237196951, 37245.56115216746, 13755.934090129625, 24142.499165832898, 23410.68070062169, 94214.36866693124, 187500.0, 0.228, 0.9480000000000001, -0.098, 192.0, 0.0, 0.0, 0.0, 0.0, 0.0, 0.0, 0.0, 0.0, 0.0, 1.729692998553275E9, 0.0, 2024-10-23 19:46:38.553
109.0, 9886.735366193696, 20702.990377305792, 37250.21031501416, 13768.786343191427, 24142.16388966607, 23398.320185937904, 94247.4492487251, 187500.0, 0.23, 0.9540000000000001, -0.10200000000000001, 192.0, 7.0, 48.0, 29.0, 208.0, 252.0, 208.0, 0.0, 0.0, 0.0, 1.729692998558219E9, 0.0, 2024-10-23 19:46:38.558
110.0, 9836.131016746882, 20712.66868265494, 37226.36100368035, 13747.775703403438, 24120.616808011153, 23386.29494742095, 94292.42095856917, 187500.0, 0.23, 0.9540000000000001, -0.10200000000000001, 192.0, 0.0, 0.0, 0.0, 0.0, 0.0, 0.0, 0.0, 0.0, 0.0, 1.7296929985621903E9, 0.0, 2024-10-23 19:46:38.562
111.0, 9780.296359097525, 20754.645258742006, 37202.26582315753, 13699.42888014661, 24118.001653909883, 23382.338688652362, 94262.40256576569, 187500.0, 0.23, 0.9540000000000001, -0.10200000000000001, 192.0, 0.0, 0.0, 0.0, 0.0, 0.0, 0.0, 0.0, 0.0, 0.0, 1.7296929985651927E9, 0.0, 2024-10-23 19:46:38.565
112.0, 9791.159306902804, 20763.87652920205, 37212.83819828489, 13697.908961523648, 24134.698407017997, 23392.70989807962, 94209.04895175087, 187500.0, 0.23, 0.9540000000000001, -0.10200000000000001, 192.0, 0.0, 0.0, 0.0, 0.0, 0.0, 0.0, 0.0, 0.0, 0.0, 1.7296929985701857E9, 0.0, 2024-10-23 19:46:38.570
113.0, 9847.530406419088, 20720.536496703207, 37234.22881772862, 13723.032322291414, 24140.800433254295, 23371.52044433599, 94179.09761418076, 187500.0, 0.23, 0.9540000000000001, -0.10200000000000001, 192.0, 0.0, 0.0, 0.0, 0.0, 0.0, 0.0, 0.0, 0.0, 0.0, 1.7296929985743823E9, 0.0, 2024-10-23 19:46:38.574
114.0, 9871.513828219633, 20680.124542728012, 37242.61072189936, 13741.807787633872, 24139.951066964994, 23378.33772639486, 94178.51646882492, 187500.0, 0.23, 0.9540000000000001, -0.10200000000000001, 192.0, 0.0, 0.0, 0.0, 0.0, 0.0, 0.0, 0.0, 0.0, 0.0, 1.729692998577407E9, 0.0, 2024-10-23 19:46:38.577
115.0, 9828.71023758772, 20689.914606799437, 37228.52912289252, 13735.86222360876, 24132.30677036128, 23384.216235186606, 94210.3900564182, 187500.0, 0.23, 0.9540000000000001, -0.10200000000000001, 192.0, 0.0, 0.0, 0.0, 0.0, 0.0, 0.0, 0.0, 0.0, 0.0, 1.7296929985811963E9, 0.0, 2024-10-23 19:46:38.581
116.0, 9778.083536396449, 20735.400406765988, 37211.25122442856, 13699.1830109576, 24136.933581463527, 23401.15885748373, 94182.11509968223, 187500.0, 0.23, 0.9540000000000001, -0.10200000000000001, 192.0, 0.0, 0.0, 0.0, 0.0, 0.0, 0.0, 0.0, 0.0, 0.0, 1.7296929985853205E9, 0.0, 2024-10-23 19:46:38.585
117.0, 9787.940655701239, 20738.596706223096, 37216.101552975364, 13696.52315336742, 24148.53413683583, 23414.011110545533, 94140.3173375508, 187500.0, 0.23, 0.9540000000000001, -0.10200000000000001, 192.0, 0.0, 0.0, 0.0, 0.0, 0.0, 0.0, 0.0, 0.0, 0.0, 1.7296929985892434E9, 0.0, 2024-10-23 19:46:38.589
118.0, 9846.122246518404, 20696.664833624942, 37237.60393114137, 13727.390912460198, 24149.048226958304, 23418.43675594768, 94146.4193637871, 187500.0, 0.23, 0.9540000000000001, -0.10200000000000001, 192.0, 0.0, 0.0, 0.0, 0.0, 0.0, 0.0, 0.0, 0.0, 0.0, 1.7296929985933545E9, 0.0, 2024-10-23 19:46:38.593
119.0, 9877.14646782237, 20668.009897233238, 37250.25501850308, 13747.619241192251, 24146.723645534952, 23389.848874789343, 94144.49711376395, 187500.0, 0.226, 0.9520000000000001, -0.10200000000000001, 192.0, 7.0, 16.0, 29.0, 192.0, 252.0, 208.0, 0.0, 0.0, 0.0, 1.7296929985972116E9, 0.0, 2024-10-23 19:46:38.597
120.0, 9834.633449868375, 20682.47147589582, 37234.96642529564, 13740.310220755366, 24135.815994240762, 23380.796418284943, 94162.49026805047, 187500.0, 0.226, 0.9520000000000001, -0.10200000000000001, 192.0, 0.0, 0.0, 0.0, 0.0, 0.0, 0.0, 0.0, 0.0, 0.0, 1.729692998602329E9, 0.0, 2024-10-23 19:46:38.602
121.0, 9780.855152708908, 20727.510240973264, 37216.72740182011, 13706.71554883904, 24136.620657041152, 23415.665139635224, 94121.49716871943, 187500.0, 0.226, 0.9520000000000001, -0.10200000000000001, 192.0, 0.0, 0.0, 0.0, 0.0, 0.0, 0.0, 0.0, 0.0, 0.0, 1.729692998606324E9, 0.0, 2024-10-23 19:46:38.606
122.0, 9797.84247849494, 20742.351799291588, 37227.67975660321, 13709.174240729124, 24153.540927593822, 23428.11506129683, 94068.61294133819, 187500.0, 0.226, 0.9520000000000001, -0.10200000000000001, 192.0, 0.0, 0.0, 0.0, 0.0, 0.0, 0.0, 0.0, 0.0, 0.0, 1.7296929986093557E9, 0.0, 2024-10-23 19:46:38.609
123.0, 9853.408915210834, 20701.157534260456, 37243.97417831113, 13730.81072936186, 24154.479700860942, 23393.58161611338, 94055.80539176529, 187500.0, 0.226, 0.9520000000000001, -0.10200000000000001, 192.0, 0.0, 0.0, 0.0, 0.0, 0.0, 0.0, 0.0, 0.0, 0.0, 1.7296929986133783E9, 0.0, 2024-10-23 19:46:38.613
124.0, 9870.060964830038, 20660.81263551863, 37241.04609978749, 13741.159587044667, 24144.1978984115, 23381.288156662962, 94073.9103047741, 187500.0, 0.226, 0.9520000000000001, -0.10200000000000001, 192.0, 0.0, 0.0, 0.0, 0.0, 0.0, 0.0, 0.0, 0.0, 0.0, 1.729692998617403E9, 0.0, 2024-10-23 19:46:38.617
125.0, 9828.03968525406, 20675.2295106923, 37227.8362188144, 13740.019648077447, 24137.470023330454, 23390.0723922339, 94111.37182848118, 187500.0, 0.226, 0.9520000000000001, -0.10200000000000001, 192.0, 0.0, 0.0, 0.0, 0.0, 0.0, 0.0, 0.0, 0.0, 0.0, 1.7296929986214054E9, 0.0, 2024-10-23 19:46:38.621
126.0, 9777.658853251798, 20722.794022893195, 37211.11711396183, 13708.637798862195, 24135.056034929283, 23415.82160184641, 94106.32033423429, 187500.0, 0.226, 0.9520000000000001, -0.10200000000000001, 192.0, 0.0, 0.0, 0.0, 0.0, 0.0, 0.0, 0.0, 0.0, 0.0, 1.72969299862729E9, 0.0, 2024-10-23 19:46:38.627
127.0, 9788.4100423348, 20734.81926141015, 37211.74296280658, 13709.956551785059, 24133.267895372857, 23436.854593378855, 94055.6489295541, 187500.0, 0.226, 0.9520000000000001, -0.10200000000000001, 192.0, 0.0, 0.0, 0.0, 0.0, 0.0, 0.0, 0.0, 0.0, 0.0, 1.7296929986302805E9, 0.0, 2024-10-23 19:46:38.630
128.0, 9844.37881045089, 20696.106040013558, 37227.21036996965, 13739.259688765966, 24142.700331532997, 23415.083994279386, 94030.5926240197, 187500.0, 0.226, 0.9520000000000001, -0.10200000000000001, 192.0, 0.0, 0.0, 0.0, 0.0, 0.0, 0.0, 0.0, 0.0, 0.0, 1.7296929986343575E9, 0.0, 2024-10-23 19:46:38.634
129.0, 9869.435115985289, 20665.104170454048, 37237.291006718995, 13762.036116365924, 24150.41168337008, 23401.11415399482, 94038.63925202361, 187500.0, 0.226, 0.9540000000000001, -0.1, 192.0, 7.0, 16.0, 29.0, 208.0, 252.0, 224.0, 0.0, 0.0, 0.0, 1.7296929986382904E9, 0.0, 2024-10-23 19:46:38.638
130.0, 9825.066903241504, 20677.017650248727, 37219.58842511039, 13755.732924429527, 24134.050206428794, 23392.240511446063, 94087.16488923608, 187500.0, 0.226, 0.9540000000000001, -0.1, 192.0, 0.0, 0.0, 0.0, 0.0, 0.0, 0.0, 0.0, 0.0, 0.0, 1.729692998641369E9, 0.0, 2024-10-23 19:46:38.641
131.0, 9774.954292172706, 20729.29838052969, 37199.98594522309, 13715.611543132252, 24126.517668547353, 23396.8226190594, 94075.16200246359, 187500.0, 0.226, 0.9540000000000001, -0.1, 192.0, 0.0, 0.0, 0.0, 0.0, 0.0, 0.0, 0.0, 0.0, 0.0, 1.7296929986453967E9, 0.0, 2024-10-23 19:46:38.645
132.0, 9786.018405678084, 20747.470348771854, 37204.232776669596, 13716.013874532448, 24133.558468050775, 23409.026671531996, 94034.3477170882, 187500.0, 0.226, 0.9540000000000001, -0.1, 192.0, 0.0, 0.0, 0.0, 0.0, 0.0, 0.0, 0.0, 0.0, 0.0, 1.7296929986493547E9, 0.0, 2024-10-23 19:46:38.649
133.0, 9846.792798852062, 20719.15068854698, 37229.60200662637, 13746.680467925129, 24149.20468916949, 23411.61947388881, 94005.35750452966, 187500.0, 0.226, 0.9540000000000001, -0.1, 192.0, 0.0, 0.0, 0.0, 0.0, 0.0, 0.0, 0.0, 0.0, 0.0, 1.7296929986537116E9, 0.0, 2024-10-23 19:46:38.653
134.0, 9874.62072069892, 20694.51906615723, 37245.24822774508, 13766.39470653471, 24150.568145581263, 23395.19094171416, 94005.87159465214, 187500.0, 0.226, 0.9540000000000001, -0.1, 192.0, 0.0, 0.0, 0.0, 0.0, 0.0, 0.0, 0.0, 0.0, 0.0, 1.7296929986582892E9, 0.0, 2024-10-23 19:46:38.658
135.0, 9829.559603877022, 20708.600665164075, 37229.110268248354, 13750.972002860548, 24125.198915624493, 23371.431037358172, 94039.51097005737, 187500.0, 0.226, 0.9540000000000001, -0.1, 192.0, 0.0, 0.0, 0.0, 0.0, 0.0, 0.0, 0.0, 0.0, 0.0, 1.7296929986614103E9, 0.0, 2024-10-23 19:46:38.661
136.0, 9779.871675952874, 20764.18945362442, 37216.101552975364, 13711.699987852573, 24118.851020199185, 23379.745886295546, 94029.11740888565, 187500.0, 0.226, 0.9540000000000001, -0.1, 192.0, 0.0, 0.0, 0.0, 0.0, 0.0, 0.0, 0.0, 0.0, 0.0, 1.7296929986654632E9, 0.0, 2024-10-23 19:46:38.665
137.0, 9794.288551126547, 20784.93187247895, 37233.26769271704, 13720.14894725668, 24149.33879963622, 23428.606799674846, 94012.97944938892, 187500.0, 0.226, 0.9540000000000001, -0.1, 192.0, 0.0, 0.0, 0.0, 0.0, 0.0, 0.0, 0.0, 0.0, 0.0, 1.729692998669335E9, 0.0, 2024-10-23 19:46:38.669
138.0, 9853.94535707776, 20754.466444786365, 37260.358006996874, 13750.077933082335, 24162.3028114203, 23419.68845363718, 93973.86389659213, 187500.0, 0.226, 0.9540000000000001, -0.1, 192.0, 0.0, 0.0, 0.0, 0.0, 0.0, 0.0, 0.0, 0.0, 0.0, 1.729692998673318E9, 0.0, 2024-10-23 19:46:38.673
139.0, 9872.899636375862, 20717.563714690652, 37264.358969254376, 13761.253805309989, 24154.412645627577, 23390.9217585232, 93983.25162926337, 187500.0, 0.224, 0.9520000000000001, -0.108, 192.0, 7.0, 0.0, 29.0, 192.0, 252.0, 160.0, 0.0, 0.0, 0.0, 1.7296929986773887E9, 0.0, 2024-10-23 19:46:38.677
140.0, 9831.504205644633, 20731.824127653137, 37245.35998646736, 13750.659078438173, 24137.112395419168, 23384.43975263116, 94028.7374292299, 187500.0, 0.224, 0.9520000000000001, -0.108, 192.0, 0.0, 0.0, 0.0, 0.0, 0.0, 0.0, 0.0, 0.0, 0.0, 1.7296929986814897E9, 0.0, 2024-10-23 19:46:38.681
141.0, 9783.090327154438, 20779.612157298587, 37231.41249792725, 13715.835060576805, 24147.125976935145, 23401.672947606203, 93986.55968744274, 187500.0, 0.224, 0.9520000000000001, -0.108, 192.0, 0.0, 0.0, 0.0, 0.0, 0.0, 0.0, 0.0, 0.0, 0.0, 1.7296929986864333E9, 0.0, 2024-10-23 19:46:38.686
142.0, 9791.65104528082, 20779.567453809675, 37236.64280612979, 13713.733996598006, 24155.574936339253, 23403.282273206984, 93933.60840482813, 187500.0, 0.224, 0.9520000000000001, -0.108, 192.0, 0.0, 0.0, 0.0, 0.0, 0.0, 0.0, 0.0, 0.0, 0.0, 1.7296929986894305E9, 0.0, 2024-10-23 19:46:38.689
143.0, 9848.513883175121, 20735.02042711025, 37251.43966095921, 13744.71351441306, 24159.486491618933, 23409.63016863229, 93924.13126517908, 187500.0, 0.224, 0.9520000000000001, -0.108, 192.0, 0.0, 0.0, 0.0, 0.0, 0.0, 0.0, 0.0, 0.0, 0.0, 1.7296929986933584E9, 0.0, 2024-10-23 19:46:38.693
144.0, 9875.604197454953, 20696.217798735834, 37258.43575697372, 13765.76885768996, 24159.531195107844, 23395.973252770098, 93954.90961729403, 187500.0, 0.224, 0.9520000000000001, -0.108, 192.0, 0.0, 0.0, 0.0, 0.0, 0.0, 0.0, 0.0, 0.0, 0.0, 1.7296929986973562E9, 0.0, 2024-10-23 19:46:38.697
145.0, 9839.796702837551, 20706.119621529535, 37249.2938934915, 13764.450104767098, 24159.464139874475, 23414.30168322345, 93972.96982681392, 187500.0, 0.224, 0.9520000000000001, -0.108, 192.0, 0.0, 0.0, 0.0, 0.0, 0.0, 0.0, 0.0, 0.0, 0.0, 1.7296929987014203E9, 0.0, 2024-10-23 19:46:38.701
146.0, 9783.000920176617, 20741.748302191296, 37227.858570558856, 13725.066331036847, 24163.152177709602, 23431.467822965125, 93951.22157945891, 187500.0, 0.224, 0.9520000000000001, -0.108, 192.0, 0.0, 0.0, 0.0, 0.0, 0.0, 0.0, 0.0, 0.0, 0.0, 1.7296929987054293E9, 0.0, 2024-10-23 19:46:38.705
147.0, 9792.343949358934, 20739.311962045667, 37225.51163739105, 13723.05467403587, 24158.368904396168, 23436.74283465658, 93919.75032326583, 187500.0, 0.224, 0.9520000000000001, -0.108, 192.0, 0.0, 0.0, 0.0, 0.0, 0.0, 0.0, 0.0, 0.0, 0.0, 1.7296929987116005E9, 0.0, 2024-10-23 19:46:38.711
148.0, 9850.95022332075, 20696.463667924843, 37239.72734686462, 13752.581328461329, 24147.997694968904, 23424.002340317053, 93902.20420386842, 187500.0, 0.224, 0.9520000000000001, -0.108, 192.0, 0.0, 0.0, 0.0, 0.0, 0.0, 0.0, 0.0, 0.0, 0.0, 1.729692998714531E9, 0.0, 2024-10-23 19:46:38.714
149.0, 9875.023052099115, 20655.023533704705, 37245.51644867855, 13768.741639702517, 24149.852889758695, 23393.134581224273, 93918.20805289842, 187500.0, 0.228, 0.9480000000000001, -0.108, 192.0, 7.0, 32.0, 29.0, 160.0, 252.0, 160.0, 0.0, 0.0, 0.0, 1.7296929987184863E9, 0.0, 2024-10-23 19:46:38.718
150.0, 9837.539176647566, 20665.774722787708, 37235.23464622911, 13766.81938967936, 24148.91411649157, 23401.78470632848, 93948.74053582437, 187500.0, 0.228, 0.9480000000000001, -0.108, 192.0, 0.0, 0.0, 0.0, 0.0, 0.0, 0.0, 0.0, 0.0, 0.0, 1.729692998721395E9, 0.0, 2024-10-23 19:46:38.721
151.0, 9777.50239104061, 20708.0865750416, 37205.059791214444, 13726.228621748522, 24135.279552373835, 23424.136450783786, 93936.51413160731, 187500.0, 0.228, 0.9480000000000001, -0.108, 192.0, 0.0, 0.0, 0.0, 0.0, 0.0, 0.0, 0.0, 0.0, 0.0, 1.7296929987253952E9, 0.0, 2024-10-23 19:46:38.725
152.0, 9793.03685343705, 20722.68226417092, 37218.02380299852, 13725.848642092782, 24164.247413187913, 23434.46295672214, 93893.41996829749, 187500.0, 0.228, 0.9480000000000001, -0.108, 192.0, 0.0, 0.0, 0.0, 0.0, 0.0, 0.0, 0.0, 0.0, 0.0, 1.7296929987294004E9, 0.0, 2024-10-23 19:46:38.729
153.0, 9850.838464598473, 20685.89129279748, 37238.5874078974, 13753.654212195184, 24165.677924833053, 23420.8283926044, 93872.52108723177, 187500.0, 0.228, 0.9480000000000001, -0.108, 192.0, 0.0, 0.0, 0.0, 0.0, 0.0, 0.0, 0.0, 0.0, 0.0, 1.729692998733597E9, 0.0, 2024-10-23 19:46:38.733
154.0, 9869.055136329549, 20649.413245846423, 37234.9887770401, 13766.618223979262, 24142.2980001328, 23394.028651002485, 93892.70471247491, 187500.0, 0.228, 0.9480000000000001, -0.108, 192.0, 0.0, 0.0, 0.0, 0.0, 0.0, 0.0, 0.0, 0.0, 0.0, 1.729692998737495E9, 0.0, 2024-10-23 19:46:38.737
155.0, 9832.04064751156, 20667.2275861773, 37220.48249488861, 13758.884520397725, 24132.999674439394, 23390.407668400727, 93932.669631561, 187500.0, 0.228, 0.9480000000000001, -0.108, 192.0, 0.0, 0.0, 0.0, 0.0, 0.0, 0.0, 0.0, 0.0, 0.0, 1.7296929987424886E9, 0.0, 2024-10-23 19:46:38.742
156.0, 9782.12920214286, 20723.48692697131, 37205.21625342563, 13726.385083959709, 24140.93454372103, 23412.40178494475, 93898.58322126666, 187500.0, 0.228, 0.9480000000000001, -0.108, 192.0, 0.0, 0.0, 0.0, 0.0, 0.0, 0.0, 0.0, 0.0, 0.0, 1.7296929987454715E9, 0.0, 2024-10-23 19:46:38.745
157.0, 9789.013539435095, 20734.081653843125, 37205.21625342563, 13720.864203079249, 24145.136671678625, 23407.260883720028, 93858.61830218058, 187500.0, 0.228, 0.9480000000000001, -0.108, 192.0, 0.0, 0.0, 0.0, 0.0, 0.0, 0.0, 0.0, 0.0, 0.0, 1.7296929987484643E9, 0.0, 2024-10-23 19:46:38.748
158.0, 9845.13876976237, 20699.86113308205, 37227.1880182252, 13747.060447580869, 24146.54483157931, 23403.081107506885, 93838.9487670599, 187500.0, 0.228, 0.9480000000000001, -0.108, 192.0, 0.0, 0.0, 0.0, 0.0, 0.0, 0.0, 0.0, 0.0, 0.0, 1.7296929987535007E9, 0.0, 2024-10-23 19:46:38.753
159.0, 9870.776220652608, 20668.680449566895, 37236.01695728504, 13771.44620078161, 24136.888877974616, 23399.191903971663, 93862.66396792699, 187500.0, 0.228, 0.9520000000000001, -0.106, 192.0, 7.0, 32.0, 29.0, 192.0, 252.0, 176.0, 0.0, 0.0, 0.0, 1.7296929987574537E9, 0.0, 2024-10-23 19:46:38.757
160.0, 9834.253470212636, 20682.650289851463, 37229.91493104875, 13768.987508891525, 24134.944276207007, 23394.051002746943, 93897.912668933, 187500.0, 0.228, 0.9520000000000001, -0.106, 192.0, 0.0, 0.0, 0.0, 0.0, 0.0, 0.0, 0.0, 0.0, 0.0, 1.7296929987615788E9, 0.0, 2024-10-23 19:46:38.761
161.0, 9778.195295118725, 20725.476232227833, 37212.45821862915, 13727.167395015646, 24135.324255862746, 23402.16468598422, 93883.42873852597, 187500.0, 0.228, 0.9520000000000001, -0.106, 192.0, 0.0, 0.0, 0.0, 0.0, 0.0, 0.0, 0.0, 0.0, 0.0, 1.7296929987655733E9, 0.0, 2024-10-23 19:46:38.765
162.0, 9792.053376681015, 20734.10400558758, 37222.7847245675, 13726.966229315547, 24151.886898504126, 23415.709843124136, 93844.29083398472, 187500.0, 0.228, 0.9520000000000001, -0.106, 192.0, 0.0, 0.0, 0.0, 0.0, 0.0, 0.0, 0.0, 0.0, 0.0, 1.7296929987704833E9, 0.0, 2024-10-23 19:46:38.770
163.0, 9855.085296044981, 20698.296510970176, 37250.724405136636, 13760.33738378732, 24167.533119622844, 23422.996511816564, 93832.86909256806, 187500.0, 0.228, 0.9520000000000001, -0.106, 192.0, 0.0, 0.0, 0.0, 0.0, 0.0, 0.0, 0.0, 0.0, 0.0, 1.7296929987734373E9, 0.0, 2024-10-23 19:46:38.773
164.0, 9884.254322559158, 20664.14304544247, 37262.682588420226, 13777.838799695826, 24162.369866653666, 23406.322110452904, 93833.87492106855, 187500.0, 0.228, 0.9520000000000001, -0.106, 192.0, 0.0, 0.0, 0.0, 0.0, 0.0, 0.0, 0.0, 0.0, 0.0, 1.7296929987764776E9, 0.0, 2024-10-23 19:46:38.776
165.0, 9846.56928140751, 20667.51815885522, 37251.03732955901, 13769.568654247363, 24151.484567103933, 23399.951863283142, 93848.69412764242, 187500.0, 0.228, 0.9520000000000001, -0.106, 192.0, 0.0, 0.0, 0.0, 0.0, 0.0, 0.0, 0.0, 0.0, 0.0, 1.7296929987815597E9, 0.0, 2024-10-23 19:46:38.781
166.0, 9790.622865035875, 20705.896104084983, 37232.10540200536, 13731.593040417796, 24145.40489261209, 23420.180192015196, 93841.18394150543, 187500.0, 0.228, 0.9520000000000001, -0.106, 192.0, 0.0, 0.0, 0.0, 0.0, 0.0, 0.0, 0.0, 0.0, 0.0, 1.7296929987854948E9, 0.0, 2024-10-23 19:46:38.785
167.0, 9799.541211073543, 20708.265388997246, 37237.223951485634, 13728.687313638606, 24148.332971135733, 23424.605837417348, 93814.25008943678, 187500.0, 0.228, 0.9520000000000001, -0.106, 192.0, 0.0, 0.0, 0.0, 0.0, 0.0, 0.0, 0.0, 0.0, 0.0, 1.7296929987895968E9, 0.0, 2024-10-23 19:46:38.789
168.0, 9853.788894866573, 20661.125559941003, 37254.41244297176, 13747.172206303145, 24146.187203668025, 23399.370717927304, 93797.0392462062, 187500.0, 0.228, 0.9520000000000001, -0.106, 192.0, 0.0, 0.0, 0.0, 0.0, 0.0, 0.0, 0.0, 0.0, 0.0, 1.729692998793558E9, 0.0, 2024-10-23 19:46:38.793
169.0, 9876.632377699898, 20621.3171030661, 37258.23459127362, 13759.15274133119, 24130.58568603822, 23363.9655547101, 93800.50376659677, 187500.0, 0.226, 0.9540000000000001, -0.10400000000000001, 192.0, 7.0, 16.0, 29.0, 208.0, 252.0, 192.0, 0.0, 0.0, 0.0, 1.7296929987995398E9, 0.0, 2024-10-23 19:46:38.799
170.0, 9834.678153357287, 20623.775794956186, 37241.5378381655, 13749.474435982042, 24121.48852604491, 23365.418418099693, 93829.35986868857, 187500.0, 0.226, 0.9540000000000001, -0.10400000000000001, 192.0, 0.0, 0.0, 0.0, 0.0, 0.0, 0.0, 0.0, 0.0, 0.0, 1.7296929988026416E9, 0.0, 2024-10-23 19:46:38.802
171.0, 9780.095193397427, 20668.456932122343, 37225.958672280154, 13713.37636868672, 24139.951066964994, 23399.326014438393, 93801.01785671925, 187500.0, 0.226, 0.9540000000000001, -0.10400000000000001, 192.0, 0.0, 0.0, 0.0, 0.0, 0.0, 0.0, 0.0, 0.0, 0.0, 1.729692998805657E9, 0.0, 2024-10-23 19:46:38.805
172.0, 9785.325501599968, 20671.608528090543, 37229.71376534865, 13710.537697140897, 24153.20565142699, 23419.06260479243, 93770.32891158211, 187500.0, 0.226, 0.9540000000000001, -0.10400000000000001, 192.0, 0.0, 0.0, 0.0, 0.0, 0.0, 0.0, 0.0, 0.0, 0.0, 1.729692998809696E9, 0.0, 2024-10-23 19:46:38.809
173.0, 9841.070752271504, 20634.66109450592, 37250.83616385891, 13736.599831175785, 24160.559375352786, 23401.360023183828, 93766.17148711342, 187500.0, 0.226, 0.9540000000000001, -0.10400000000000001, 192.0, 0.0, 0.0, 0.0, 0.0, 0.0, 0.0, 0.0, 0.0, 0.0, 1.7296929988135533E9, 0.0, 2024-10-23 19:46:38.813
174.0, 9864.160104293836, 20602.675748190373, 37248.60098941338, 13752.737790672516, 24151.59632582621, 23387.34547941035, 93767.5796470141, 187500.0, 0.226, 0.9540000000000001, -0.10400000000000001, 192.0, 0.0, 0.0, 0.0, 0.0, 0.0, 0.0, 0.0, 0.0, 0.0, 1.729692998817551E9, 0.0, 2024-10-23 19:46:38.817
175.0, 9828.196147465247, 20612.801088428627, 37231.85953281636, 13746.38989524721, 24137.62648554164, 23375.521406593492, 93792.21126940385, 187500.0, 0.226, 0.9540000000000001, -0.10400000000000001, 192.0, 0.0, 0.0, 0.0, 0.0, 0.0, 0.0, 0.0, 0.0, 0.0, 1.7296929988235786E9, 0.0, 2024-10-23 19:46:38.823
176.0, 9777.122411384871, 20661.170263429914, 37219.186093710196, 13705.75442382746, 24149.40585486959, 23385.602043342835, 93774.50868779526, 187500.0, 0.226, 0.9540000000000001, -0.10400000000000001, 192.0, 0.0, 0.0, 0.0, 0.0, 0.0, 0.0, 0.0, 0.0, 0.0, 1.7296929988265965E9, 0.0, 2024-10-23 19:46:38.826
177.0, 9793.439184837245, 20679.632804349996, 37233.33474795041, 13716.885592566205, 24171.757599324894, 23436.25109627856, 93744.60205371404, 187500.0, 0.226, 0.9540000000000001, -0.10400000000000001, 192.0, 0.0, 0.0, 0.0, 0.0, 0.0, 0.0, 0.0, 0.0, 0.0, 1.7296929988296351E9, 0.0, 2024-10-23 19:46:38.829
178.0, 9850.838464598473, 20646.261649878223, 37246.32111147894, 13744.042962079402, 24159.01710498537, 23425.81283161793, 93738.36591701102, 187500.0, 0.226, 0.9540000000000001, -0.10400000000000001, 192.0, 0.0, 0.0, 0.0, 0.0, 0.0, 0.0, 0.0, 0.0, 0.0, 1.7296929988335564E9, 0.0, 2024-10-23 19:46:38.833
179.0, 9874.821886399019, 20612.421108772887, 37249.02567255803, 13756.403476763187, 24150.41168337008, 23390.094743978352, 93748.49125724928, 187500.0, 0.228, 0.9480000000000001, -0.1, 192.0, 7.0, 32.0, 29.0, 160.0, 252.0, 224.0, 0.0, 0.0, 0.0, 1.729692998836542E9, 0.0, 2024-10-23 19:46:38.836
180.0, 9840.04257202656, 20621.74178621075, 37234.20646598416, 13753.900081384192, 24139.72754952044, 23390.63118584528, 93779.9848651868, 187500.0, 0.228, 0.9480000000000001, -0.1, 192.0, 0.0, 0.0, 0.0, 0.0, 0.0, 0.0, 0.0, 0.0, 0.0, 1.729692998841579E9, 0.0, 2024-10-23 19:46:38.841
181.0, 9784.498487055122, 20662.08668495258, 37211.139465706285, 13713.868107064738, 24130.898610460594, 23398.186075471174, 93757.0296236312, 187500.0, 0.228, 0.9480000000000001, -0.1, 192.0, 0.0, 0.0, 0.0, 0.0, 0.0, 0.0, 0.0, 0.0, 0.0, 1.729692998845572E9, 0.0, 2024-10-23 19:46:38.845
182.0, 9792.187487147748, 20667.51815885522, 37214.04519248548, 13709.733034340506, 24140.53221232083, 23407.90908430923, 93713.73429462127, 187500.0, 0.228, 0.9480000000000001, -0.1, 192.0, 0.0, 0.0, 0.0, 0.0, 0.0, 0.0, 0.0, 0.0, 0.0, 1.729692998849612E9, 0.0, 2024-10-23 19:46:38.849
183.0, 9849.363249464423, 20625.83215544607, 37234.161762495256, 13740.71255215556, 24146.120148434657, 23416.983892558088, 93689.0579687426, 187500.0, 0.228, 0.9480000000000001, -0.1, 192.0, 0.0, 0.0, 0.0, 0.0, 0.0, 0.0, 0.0, 0.0, 0.0, 1.7296929988537335E9, 0.0, 2024-10-23 19:46:38.853
184.0, 9868.608101440443, 20575.07134378807, 37234.295872961986, 13754.548281973397, 24130.652741271584, 23371.274575146985, 93702.4690154158, 187500.0, 0.228, 0.9480000000000001, -0.1, 192.0, 0.0, 0.0, 0.0, 0.0, 0.0, 0.0, 0.0, 0.0, 0.0, 1.7296929988565712E9, 0.0, 2024-10-23 19:46:38.856
185.0, 9833.873490556894, 20566.041239028127, 37222.44944840067, 13749.295622026399, 24124.30484584628, 23372.86154900331, 93745.42906825889, 187500.0, 0.228, 0.9480000000000001, -0.1, 192.0, 0.0, 0.0, 0.0, 0.0, 0.0, 0.0, 0.0, 0.0, 0.0, 1.7296929988605847E9, 0.0, 2024-10-23 19:46:38.860
186.0, 9782.978568432161, 20598.875951632974, 37207.1832069377, 13716.460909421554, 24122.87433420114, 23409.943093054666, 93734.49906522025, 187500.0, 0.228, 0.9480000000000001, -0.1, 192.0, 0.0, 0.0, 0.0, 0.0, 0.0, 0.0, 0.0, 0.0, 0.0, 1.72969299886456E9, 0.0, 2024-10-23 19:46:38.864
187.0, 9798.803603506518, 20603.234541801758, 37219.20844545466, 13711.923505297125, 24134.34077910671, 23408.87020932081, 93669.8578202555, 187500.0, 0.228, 0.9480000000000001, -0.1, 192.0, 0.0, 0.0, 0.0, 0.0, 0.0, 0.0, 0.0, 0.0, 0.0, 1.7296929988696885E9, 0.0, 2024-10-23 19:46:38.869
188.0, 9843.484740672677, 20547.891622530416, 37233.13358225031, 13730.3413427283, 24141.649799543597, 23383.880959019778, 93642.27576759766, 187500.0, 0.228, 0.9480000000000001, -0.1, 192.0, 0.0, 0.0, 0.0, 0.0, 0.0, 0.0, 0.0, 0.0, 0.0, 1.7296929988736525E9, 0.0, 2024-10-23 19:46:38.873
189.0, 9861.187322281281, 20506.607950521466, 37235.74873635158, 13746.836930136316, 24134.877220973638, 23375.789627526956, 93703.117216005, 187500.0, 0.23, 0.9540000000000001, -0.1, 192.0, 7.0, 48.0, 29.0, 208.0, 252.0, 224.0, 0.0, 0.0, 0.0, 1.7296929988776717E9, 0.0, 2024-10-23 19:46:38.877
190.0, 9834.007601023628, 20524.891677485906, 37231.8371810719, 13751.687258683118, 24128.663436015064, 23389.535950366968, 93740.28816703417, 187500.0, 0.23, 0.9540000000000001, -0.1, 192.0, 0.0, 0.0, 0.0, 0.0, 0.0, 0.0, 0.0, 0.0, 0.0, 1.7296929988816714E9, 0.0, 2024-10-23 19:46:38.881
191.0, 9780.810449219996, 20575.585433910543, 37217.75558206506, 13713.510479153452, 24134.430186084533, 23386.38435439877, 93709.93449806387, 187500.0, 0.23, 0.9540000000000001, -0.1, 192.0, 0.0, 0.0, 0.0, 0.0, 0.0, 0.0, 0.0, 0.0, 0.0, 1.7296929988846853E9, 0.0, 2024-10-23 19:46:38.884
192.0, 9785.705481255709, 20589.778791639663, 37225.623396113326, 13708.794261073383, 24153.943258994015, 23397.6719853487, 93661.38650910695, 187500.0, 0.23, 0.9540000000000001, -0.1, 192.0, 0.0, 0.0, 0.0, 0.0, 0.0, 0.0, 0.0, 0.0, 0.0, 1.729692998888681E9, 0.0, 2024-10-23 19:46:38.888
193.0, 9838.746170848151, 20561.25796571469, 37243.77301261103, 13739.594964932796, 24154.166776438567, 23392.91106377972, 93647.12609614445, 187500.0, 0.23, 0.9540000000000001, -0.1, 192.0, 0.0, 0.0, 0.0, 0.0, 0.0, 0.0, 0.0, 0.0, 0.0, 1.7296929988926756E9, 0.0, 2024-10-23 19:46:38.892
194.0, 9862.684889159786, 20540.381436393433, 37250.925570836735, 13768.093439113312, 24152.803320026796, 23388.664232333213, 93661.94530271832, 187500.0, 0.23, 0.9540000000000001, -0.1, 192.0, 0.0, 0.0, 0.0, 0.0, 0.0, 0.0, 0.0, 0.0, 0.0, 1.7296929988976939E9, 0.0, 2024-10-23 19:46:38.897
195.0, 9831.839481811463, 20560.810930825584, 37244.912951578255, 13773.72607871605, 24158.34655265171, 23418.459107692135, 93700.65852411492, 187500.0, 0.23, 0.9540000000000001, -0.1, 192.0, 0.0, 0.0, 0.0, 0.0, 0.0, 0.0, 0.0, 0.0, 0.0, 1.7296929989016604E9, 0.0, 2024-10-23 19:46:38.901
196.0, 9780.36341433089, 20613.69515820684, 37233.55826539496, 13741.42780797813, 24164.247413187913, 23448.119872584328, 93696.38934092395, 187500.0, 0.23, 0.9540000000000001, -0.1, 192.0, 0.0, 0.0, 0.0, 0.0, 0.0, 0.0, 0.0, 0.0, 0.0, 1.7296929989056432E9, 0.0, 2024-10-23 19:46:38.905
197.0, 9784.096155654926, 20622.41233854441, 37230.25020721558, 13732.554165429374, 24157.653648573596, 23439.64856143577, 93652.06583166908, 187500.0, 0.23, 0.9540000000000001, -0.1, 192.0, 0.0, 0.0, 0.0, 0.0, 0.0, 0.0, 0.0, 0.0, 0.0, 1.729692998911669E9, 0.0, 2024-10-23 19:46:38.911
198.0, 9837.203900480736, 20582.06743980258, 37240.35319570937, 13748.245090037, 24146.164851923568, 23392.10640097933, 93631.99396514821, 187500.0, 0.23, 0.9540000000000001, -0.1, 192.0, 0.0, 0.0, 0.0, 0.0, 0.0, 0.0, 0.0, 0.0, 0.0, 1.7296929989146988E9, 0.0, 2024-10-23 19:46:38.914
199.0, 9861.097915303459, 20542.01311373867, 37243.54949516648, 13758.191616319611, 24149.048226958304, 23375.499054849035, 93651.32822410205, 187500.0, 0.234, 0.9500000000000001, -0.10400000000000001, 192.0, 7.0, 80.0, 29.0, 176.0, 252.0, 192.0, 0.0, 0.0, 0.0, 1.7296929989177012E9, 0.0, 2024-10-23 19:46:38.917
200.0, 9831.727723089185, 20546.416407396366, 37232.395974683284, 13758.01280236397, 24141.761558265873, 23416.179229757694, 93706.62643988448, 187500.0, 0.234, 0.9500000000000001, -0.10400000000000001, 192.0, 0.0, 0.0, 0.0, 0.0, 0.0, 0.0, 0.0, 0.0, 0.0, 1.7296929989217083E9, 0.0, 2024-10-23 19:46:38.921
201.0, 9785.616074277887, 20592.617463185485, 37219.186093710196, 13720.081892023312, 24138.341741364213, 23408.892561065266, 93696.72461709079, 187500.0, 0.234, 0.9500000000000001, -0.10400000000000001, 192.0, 0.0, 0.0, 0.0, 0.0, 0.0, 0.0, 0.0, 0.0, 0.0, 1.7296929989257991E9, 0.0, 2024-10-23 19:46:38.925
202.0, 9797.797775006029, 20602.988672612748, 37222.56120712295, 13720.595982145785, 24144.734340278428, 23432.361892743338, 93646.99198567773, 187500.0, 0.234, 0.9500000000000001, -0.10400000000000001, 192.0, 0.0, 0.0, 0.0, 0.0, 0.0, 0.0, 0.0, 0.0, 0.0, 1.7296929989296584E9, 0.0, 2024-10-23 19:46:38.929
203.0, 9852.648955899353, 20556.295878445613, 37235.63697762931, 13739.885537610715, 24141.426282099044, 23405.42804067469, 93626.94247090131, 187500.0, 0.234, 0.9500000000000001, -0.10400000000000001, 192.0, 0.0, 0.0, 0.0, 0.0, 0.0, 0.0, 0.0, 0.0, 0.0, 1.7296929989337206E9, 0.0, 2024-10-23 19:46:38.933
204.0, 9877.81702015603, 20515.325130859033, 37235.94990205168, 13751.553148216386, 24134.988979695914, 23379.656479317724, 93646.79081997763, 187500.0, 0.234, 0.9500000000000001, -0.10400000000000001, 192.0, 0.0, 0.0, 0.0, 0.0, 0.0, 0.0, 0.0, 0.0, 0.0, 1.7296929989378145E9, 0.0, 2024-10-23 19:46:38.937
205.0, 9852.537197177076, 20527.86445949846, 37232.79830608348, 13756.58229071883, 24142.432110599533, 23390.49707537855, 93671.37773887847, 187500.0, 0.234, 0.9500000000000001, -0.10400000000000001, 192.0, 0.0, 0.0, 0.0, 0.0, 0.0, 0.0, 0.0, 0.0, 0.0, 1.7296929989407654E9, 0.0, 2024-10-23 19:46:38.940
206.0, 9801.709330285708, 20581.68746014684, 37221.19775071117, 13728.396740960687, 24135.30190411829, 23428.45033746366, 93631.54693025911, 187500.0, 0.234, 0.9500000000000001, -0.10400000000000001, 192.0, 0.0, 0.0, 0.0, 0.0, 0.0, 0.0, 0.0, 0.0, 0.0, 1.729692998944834E9, 0.0, 2024-10-23 19:46:38.944
207.0, 9807.856060010918, 20593.466829474786, 37223.99171876809, 13725.915697326149, 24140.085177431727, 23434.708825911144, 93581.0319877901, 187500.0, 0.234, 0.9500000000000001, -0.10400000000000001, 192.0, 0.0, 0.0, 0.0, 0.0, 0.0, 0.0, 0.0, 0.0, 0.0, 1.729692998948763E9, 0.0, 2024-10-23 19:46:38.948
208.0, 9862.170799037314, 20555.625326111953, 37242.543666665995, 13746.948688858593, 24140.398101854098, 23412.133564011285, 93574.99701678718, 187500.0, 0.234, 0.9500000000000001, -0.10400000000000001, 192.0, 0.0, 0.0, 0.0, 0.0, 0.0, 0.0, 0.0, 0.0, 0.0, 1.7296929989527428E9, 0.0, 2024-10-23 19:46:38.952
209.0, 9885.863648159939, 20518.96846520525, 37249.56211442496, 13757.543415730408, 24139.951066964994, 23375.275537404483, 93610.17866255983, 187500.0, 0.234, 0.9580000000000001, -0.108, 192.0, 7.0, 80.0, 29.0, 240.0, 252.0, 160.0, 0.0, 0.0, 0.0, 1.72969299895774E9, 0.0, 2024-10-23 19:46:38.957
210.0, 9859.3768309804, 20534.659389812874, 37249.56211442496, 13761.924357643647, 24144.108491433683, 23400.600063872345, 93645.56147403258, 187500.0, 0.234, 0.9580000000000001, -0.108, 192.0, 0.0, 0.0, 0.0, 0.0, 0.0, 0.0, 0.0, 0.0, 0.0, 1.7296929989617946E9, 0.0, 2024-10-23 19:46:38.961
211.0, 9809.778310034075, 20590.49404746223, 37236.70986136316, 13731.034246806414, 24145.091968189714, 23426.997474074065, 93603.65195317888, 187500.0, 0.234, 0.9580000000000001, -0.108, 192.0, 0.0, 0.0, 0.0, 0.0, 0.0, 0.0, 0.0, 0.0, 0.0, 1.7296929989657552E9, 0.0, 2024-10-23 19:46:38.965
212.0, 9816.349722903935, 20604.64270170244, 37238.31918696394, 13725.848642092782, 24144.15319492259, 23416.268636735516, 93565.92220853832, 187500.0, 0.234, 0.9580000000000001, -0.108, 192.0, 0.0, 0.0, 0.0, 0.0, 0.0, 0.0, 0.0, 0.0, 0.0, 1.7296929989688337E9, 0.0, 2024-10-23 19:46:38.968
213.0, 9878.487572489688, 20576.54655892212, 37265.58831519941, 13760.471494254052, 24164.090950976726, 23432.40659623225, 93538.69778379177, 187500.0, 0.234, 0.9580000000000001, -0.108, 192.0, 0.0, 0.0, 0.0, 0.0, 0.0, 0.0, 0.0, 0.0, 0.0, 1.7296929989727974E9, 0.0, 2024-10-23 19:46:38.972
214.0, 9902.29218033459, 20544.471805628757, 37277.702960694194, 13784.343157332321, 24165.007372499393, 23432.20543053215, 93570.25844696266, 187500.0, 0.234, 0.9580000000000001, -0.108, 192.0, 0.0, 0.0, 0.0, 0.0, 0.0, 0.0, 0.0, 0.0, 0.0, 1.7296929989768693E9, 0.0, 2024-10-23 19:46:38.976
215.0, 9868.831618884995, 20557.45816915729, 37269.43281524573, 13780.789229963928, 24158.97240149646, 23426.103404295853, 93592.3419704845, 187500.0, 0.234, 0.9580000000000001, -0.108, 192.0, 0.0, 0.0, 0.0, 0.0, 0.0, 0.0, 0.0, 0.0, 0.0, 1.7296929989810426E9, 0.0, 2024-10-23 19:46:38.981
216.0, 9802.826917508473, 20604.150963324424, 37246.43287020122, 13740.086703310813, 24152.87037526016, 23424.53878218398, 93570.19139172928, 187500.0, 0.234, 0.9580000000000001, -0.108, 192.0, 0.0, 0.0, 0.0, 0.0, 0.0, 0.0, 0.0, 0.0, 0.0, 1.7296929989860766E9, 0.0, 2024-10-23 19:46:38.986
217.0, 9806.783176277064, 20622.1664693554, 37251.32790223693, 13745.406418491177, 24166.661401589085, 23454.82539592092, 93504.38785605287, 187500.0, 0.234, 0.9580000000000001, -0.108, 192.0, 0.0, 0.0, 0.0, 0.0, 0.0, 0.0, 0.0, 0.0, 0.0, 1.7296929989900076E9, 0.0, 2024-10-23 19:46:38.990
218.0, 9858.929796091294, 20583.028564814158, 37271.15389956879, 13775.357756061287, 24181.16768374058, 23443.53776497099, 93477.8116318955, 187500.0, 0.234, 0.9580000000000001, -0.108, 192.0, 0.0, 0.0, 0.0, 0.0, 0.0, 0.0, 0.0, 0.0, 0.0, 1.7296929989937885E9, 0.0, 2024-10-23 19:46:38.993
219.0, 9882.175610324814, 20546.394055651912, 37279.55815548398, 13798.804735994905, 24177.12201799417, 23427.39980547426, 93487.24406805565, 187500.0, 0.234, 0.9580000000000001, -0.108, 192.0, 0.0, 0.0, 0.0, 0.0, 0.0, 0.0, 0.0, 0.0, 0.0, 1.729692998996842E9, 0.0, 2024-10-23 19:46:38.996
220.0, 9847.306888974535, 20545.455282384788, 37268.58344895643, 13793.44031732563, 24169.12009347917, 23406.791497086466, 93508.83585319947, 187500.0, 0.226, 0.9520000000000001, -0.10400000000000001, 192.0, 7.0, 16.0, 29.0, 192.0, 252.0, 192.0, 0.0, 0.0, 0.0, 1.7296929990010364E9, 0.0, 2024-10-23 19:46:39.001
221.0, 9787.851248723418, 20585.822532871072, 37249.115079535855, 13752.782494161427, 24168.69541033452, 23439.715616669135, 93481.1643935638, 187500.0, 0.226, 0.9520000000000001, -0.10400000000000001, 192.0, 0.0, 0.0, 0.0, 0.0, 0.0, 0.0, 0.0, 0.0, 0.0, 1.7296929990049858E9, 0.0, 2024-10-23 19:46:39.004
222.0, 9793.394481348334, 20592.79627714113, 37254.971236583144, 13747.351020258788, 24190.913044323093, 23453.908974398255, 93432.57170111797, 187500.0, 0.226, 0.9520000000000001, -0.10400000000000001, 192.0, 0.0, 0.0, 0.0, 0.0, 0.0, 0.0, 0.0, 0.0, 0.0, 1.7296929990090199E9, 0.0, 2024-10-23 19:46:39.009
223.0, 9849.586766908977, 20553.144282477413, 37275.28897229302, 13763.399572777698, 24200.88192235016, 23427.332750240894, 93386.9964941736, 187500.0, 0.226, 0.9520000000000001, -0.10400000000000001, 192.0, 0.0, 0.0, 0.0, 0.0, 0.0, 0.0, 0.0, 0.0, 0.0, 1.7296929990138009E9, 0.0, 2024-10-23 19:46:39.013
224.0, 9872.117325319925, 20515.325130859033, 37277.971181627654, 13771.602662992796, 24179.200730228513, 23402.477610406593, 93380.76035747056, 187500.0, 0.226, 0.9520000000000001, -0.10400000000000001, 192.0, 0.0, 0.0, 0.0, 0.0, 0.0, 0.0, 0.0, 0.0, 0.0, 1.729692999017845E9, 0.0, 2024-10-23 19:46:39.017
225.0, 9843.775313350596, 20523.997607707694, 37265.63301868833, 13762.550206488397, 24179.088971506237, 23405.45039241915, 93395.46780532216, 187500.0, 0.226, 0.9520000000000001, -0.10400000000000001, 192.0, 0.0, 0.0, 0.0, 0.0, 0.0, 0.0, 0.0, 0.0, 0.0, 1.7296929990218713E9, 0.0, 2024-10-23 19:46:39.021
226.0, 9795.339083115947, 20579.340526979035, 37250.791460370005, 13727.905002582671, 24186.018012287383, 23452.478462753115, 93356.17343856972, 187500.0, 0.226, 0.9520000000000001, -0.10400000000000001, 192.0, 0.0, 0.0, 0.0, 0.0, 0.0, 0.0, 0.0, 0.0, 0.0, 1.7296929990247884E9, 0.0, 2024-10-23 19:46:39.024
227.0, 9800.994074463139, 20591.432820729355, 37244.86824808935, 13718.561973400352, 24177.859625561196, 23455.83122442141, 93312.96751653761, 187500.0, 0.226, 0.9520000000000001, -0.10400000000000001, 192.0, 0.0, 0.0, 0.0, 0.0, 0.0, 0.0, 0.0, 0.0, 0.0, 1.7296929990288112E9, 0.0, 2024-10-23 19:46:39.028
228.0, 9857.722801890708, 20559.87215755846, 37256.91583835075, 13734.655229408174, 24178.06079126129, 23421.63305540479, 93280.2222109106, 187500.0, 0.226, 0.9520000000000001, -0.10400000000000001, 192.0, 0.0, 0.0, 0.0, 0.0, 0.0, 0.0, 0.0, 0.0, 0.0, 1.7296929990328016E9, 0.0, 2024-10-23 19:46:39.032
229.0, 9877.861723644939, 20521.4942123287, 37257.005245328575, 13744.62410743524, 24170.997640013415, 23396.10736323683, 93283.57497257889, 187500.0, 0.226, 0.9520000000000001, -0.10400000000000001, 192.0, 0.0, 0.0, 0.0, 0.0, 0.0, 0.0, 0.0, 0.0, 0.0, 1.729692999036814E9, 0.0, 2024-10-23 19:46:39.036
230.0, 9845.786970351573, 20526.903334486884, 37239.459125931164, 13731.883613095715, 24149.092930447216, 23373.53210133697, 93306.32904843439, 187500.0, 0.228, 0.9520000000000001, -0.108, 192.0, 7.0, 32.0, 29.0, 192.0, 252.0, 160.0, 0.0, 0.0, 0.0, 1.7296929990418155E9, 0.0, 2024-10-23 19:46:39.041
231.0, 9789.572333046477, 20579.742858379228, 37219.49901813257, 13693.259798676945, 24147.43890135752, 23394.788610313968, 93273.762556763, 187500.0, 0.228, 0.9520000000000001, -0.108, 192.0, 0.0, 0.0, 0.0, 0.0, 0.0, 0.0, 0.0, 0.0, 0.0, 1.72969299904579E9, 0.0, 2024-10-23 19:46:39.045
232.0, 9798.848306995429, 20596.976053354272, 37225.77985832452, 13700.52411562492, 24154.278535160847, 23419.666101892723, 93236.88217841175, 187500.0, 0.228, 0.9520000000000001, -0.108, 192.0, 0.0, 0.0, 0.0, 0.0, 0.0, 0.0, 0.0, 0.0, 0.0, 1.7296929990505393E9, 0.0, 2024-10-23 19:46:39.050
233.0, 9857.655746657341, 20566.421218683867, 37247.17047776824, 13731.57068867334, 24157.899517762606, 23408.15495349824, 93206.41675071916, 187500.0, 0.228, 0.9520000000000001, -0.108, 192.0, 0.0, 0.0, 0.0, 0.0, 0.0, 0.0, 0.0, 0.0, 0.0, 1.729692999056095E9, 0.0, 2024-10-23 19:46:39.056
234.0, 9883.583770225498, 20533.899430501395, 37257.027597073036, 13754.39181976221, 24157.944221251517, 23393.402802157736, 93200.87351809425, 187500.0, 0.228, 0.9520000000000001, -0.108, 192.0, 0.0, 0.0, 0.0, 0.0, 0.0, 0.0, 0.0, 0.0, 0.0, 1.7296929990592632E9, 0.0, 2024-10-23 19:46:39.059
235.0, 9849.720877375708, 20537.20748868078, 37245.18117251172, 13757.252843052489, 24146.20955541248, 23402.745831340057, 93235.8539981668, 187500.0, 0.228, 0.9520000000000001, -0.108, 192.0, 0.0, 0.0, 0.0, 0.0, 0.0, 0.0, 0.0, 0.0, 0.0, 1.7296929990628302E9, 0.0, 2024-10-23 19:46:39.062
236.0, 9795.517897071588, 20587.610672427498, 37237.13454450781, 13729.916659583649, 24155.843157272717, 23430.35023574236, 93225.48278873954, 187500.0, 0.228, 0.9520000000000001, -0.108, 192.0, 0.0, 0.0, 0.0, 0.0, 0.0, 0.0, 0.0, 0.0, 0.0, 1.7296929990658367E9, 0.0, 2024-10-23 19:46:39.065
237.0, 9803.385711119856, 20596.30550102061, 37244.80119285598, 13730.989543317502, 24167.577823111755, 23437.994532346074, 93162.83084903132, 187500.0, 0.228, 0.9520000000000001, -0.108, 192.0, 0.0, 0.0, 0.0, 0.0, 0.0, 0.0, 0.0, 0.0, 0.0, 1.7296929990698624E9, 0.0, 2024-10-23 19:46:39.069
238.0, 9857.94631933526, 20556.429988912343, 37266.75060591109, 13758.348078530798, 24177.859625561196, 23431.177250287208, 93123.11179913423, 187500.0, 0.228, 0.9520000000000001, -0.108, 192.0, 0.0, 0.0, 0.0, 0.0, 0.0, 0.0, 0.0, 0.0, 0.0, 1.7296929990738668E9, 0.0, 2024-10-23 19:46:39.073
239.0, 9881.326244035512, 20514.96750294775, 37275.33367578193, 13777.861151440282, 24173.478683647954, 23402.67877610669, 93118.39558105417, 187500.0, 0.228, 0.9520000000000001, -0.108, 192.0, 0.0, 0.0, 0.0, 0.0, 0.0, 0.0, 0.0, 0.0, 0.0, 1.7296929990779448E9, 0.0, 2024-10-23 19:46:39.077
240.0, 9848.603290152943, 20515.839220981507, 37264.40367274328, 13777.72704097355, 24153.093892704714, 23402.365851684317, 93145.62000580074, 187500.0, 0.226, 0.9440000000000001, -0.10400000000000001, 192.0, 7.0, 16.0, 29.0, 128.0, 252.0, 192.0, 0.0, 0.0, 0.0, 1.729692999081965E9, 0.0, 2024-10-23 19:46:39.081
241.0, 9793.595647048433, 20562.867291315473, 37252.8925243488, 13750.614374949262, 24168.02485800086, 23436.787538145487, 93154.98538672751, 187500.0, 0.226, 0.9440000000000001, -0.10400000000000001, 192.0, 0.0, 0.0, 0.0, 0.0, 0.0, 0.0, 0.0, 0.0, 0.0, 1.7296929990849693E9, 0.0, 2024-10-23 19:46:39.084
242.0, 9801.977551219172, 20573.953756565305, 37259.95567559668, 13753.609508706273, 24181.748829096417, 23439.670913180224, 93125.50343579096, 187500.0, 0.226, 0.9440000000000001, -0.10400000000000001, 192.0, 0.0, 0.0, 0.0, 0.0, 0.0, 0.0, 0.0, 0.0, 0.0, 1.7296929990889912E9, 0.0, 2024-10-23 19:46:39.088
243.0, 9859.935624591782, 20539.48736661522, 37282.39682702981, 13786.466573055575, 24192.29885247932, 23432.96538984363, 93093.31692377532, 187500.0, 0.226, 0.9440000000000001, -0.10400000000000001, 192.0, 0.0, 0.0, 0.0, 0.0, 0.0, 0.0, 0.0, 0.0, 0.0, 1.729692999092971E9, 0.0, 2024-10-23 19:46:39.092
244.0, 9888.81407842804, 20507.949055188783, 37294.93615566923, 13817.222573426077, 24189.080201277757, 23429.478517708605, 93096.15559532114, 187500.0, 0.226, 0.9440000000000001, -0.10400000000000001, 192.0, 0.0, 0.0, 0.0, 0.0, 0.0, 0.0, 0.0, 0.0, 0.0, 1.7296929990968945E9, 0.0, 2024-10-23 19:46:39.096
245.0, 9865.411801983333, 20516.73329075972, 37294.93615566923, 13828.376093909275, 24197.484457192953, 23457.485253511102, 93118.57439500981, 187500.0, 0.226, 0.9440000000000001, -0.10400000000000001, 192.0, 0.0, 0.0, 0.0, 0.0, 0.0, 0.0, 0.0, 0.0, 0.0, 1.7296929991018736E9, 0.0, 2024-10-23 19:46:39.101
246.0, 9799.585914562454, 20553.099578988502, 37270.95273386869, 13783.225570109555, 24189.124904766668, 23452.701980197668, 93098.88250814468, 187500.0, 0.226, 0.9440000000000001, -0.10400000000000001, 192.0, 0.0, 0.0, 0.0, 0.0, 0.0, 0.0, 0.0, 0.0, 0.0, 1.7296929991059294E9, 0.0, 2024-10-23 19:46:39.105
247.0, 9800.390577362845, 20555.73708483423, 37266.81766114446, 13768.942805402614, 24193.327032724268, 23424.628189161802, 93049.57455987627, 187500.0, 0.226, 0.9440000000000001, -0.10400000000000001, 192.0, 0.0, 0.0, 0.0, 0.0, 0.0, 0.0, 0.0, 0.0, 0.0, 1.729692999109032E9, 0.0, 2024-10-23 19:46:39.109
248.0, 9857.164008279326, 20520.19781115029, 37288.32003931046, 13802.649236041218, 24203.497076451433, 23469.935175172708, 93034.68829806904, 187500.0, 0.226, 0.9440000000000001, -0.10400000000000001, 192.0, 0.0, 0.0, 0.0, 0.0, 0.0, 0.0, 0.0, 0.0, 0.0, 1.729692999112917E9, 0.0, 2024-10-23 19:46:39.112
249.0, 9882.108555091449, 20485.776124689117, 37296.657239992295, 13826.11856771929, 24208.74973639843, 23473.98084091912, 93056.74946984643, 187500.0, 0.226, 0.9440000000000001, -0.10400000000000001, 192.0, 0.0, 0.0, 0.0, 0.0, 0.0, 0.0, 0.0, 0.0, 0.0, 1.7296929991169612E9, 0.0, 2024-10-23 19:46:39.116
250.0, 9849.653822142342, 20487.363098545444, 37277.7476641831, 13812.72987279056, 24188.297890221824, 23435.155860800252, 93075.25671425542, 187500.0, 0.228, 0.9500000000000001, -0.108, 192.0, 7.0, 32.0, 29.0, 176.0, 252.0, 160.0, 0.0, 0.0, 0.0, 1.729692999120912E9, 0.0, 2024-10-23 19:46:39.120
251.0, 9783.425603321268, 20529.943171732804, 37249.15978302476, 13766.305299556889, 24177.859625561196, 23447.337561528395, 93060.97394954848, 187500.0, 0.228, 0.9500000000000001, -0.108, 192.0, 0.0, 0.0, 0.0, 0.0, 0.0, 0.0, 0.0, 0.0, 0.0, 1.7296929991248982E9, 0.0, 2024-10-23 19:46:39.124
252.0, 9797.03781569455, 20556.474692401254, 37257.27346626204, 13770.865055425771, 24184.25222447541, 23479.03233516602, 93023.60183281921, 187500.0, 0.228, 0.9500000000000001, -0.108, 192.0, 0.0, 0.0, 0.0, 0.0, 0.0, 0.0, 0.0, 0.0, 0.0, 1.7296929991299264E9, 0.0, 2024-10-23 19:46:39.129
253.0, 9856.158179778837, 20529.04910195459, 37271.623286202346, 13788.433526567642, 24179.446599417523, 23455.40654127676, 92983.90513466658, 187500.0, 0.228, 0.9500000000000001, -0.108, 192.0, 0.0, 0.0, 0.0, 0.0, 0.0, 0.0, 0.0, 0.0, 0.0, 1.729692999133946E9, 0.0, 2024-10-23 19:46:39.133
254.0, 9874.62072069892, 20490.58174974701, 37270.72921642414, 13793.328558603354, 24169.231852201447, 23422.25890424954, 92997.33853308423, 187500.0, 0.228, 0.9500000000000001, -0.108, 192.0, 0.0, 0.0, 0.0, 0.0, 0.0, 0.0, 0.0, 0.0, 0.0, 1.7296929991369448E9, 0.0, 2024-10-23 19:46:39.136
255.0, 9847.66451688582, 20501.824677208027, 37261.207373286175, 13785.527799788451, 24170.751770824405, 23416.983892558088, 93014.83994899273, 187500.0, 0.228, 0.9500000000000001, -0.108, 192.0, 0.0, 0.0, 0.0, 0.0, 0.0, 0.0, 0.0, 0.0, 0.0, 1.7296929991409242E9, 0.0, 2024-10-23 19:46:39.140
0.0, 9785.549019044522, 20550.931459776337, 37233.60296888387, 13742.344229500799, 24164.940317266028, 23435.535840455992, 93008.04501867831, 187500.0, 0.228, 0.9500000000000001, -0.108, 192.0, 0.0, 0.0, 0.0, 0.0, 0.0, 0.0, 0.0, 0.0, 0.0, 1.7296929991449392E9, 0.0, 2024-10-23 19:46:39.144
1.0, 9793.059205181504, 20569.326945463057, 37234.31822470644, 13734.38700847471, 24173.724552836964, 23434.082977066395, 92981.11116660967, 187500.0, 0.228, 0.9500000000000001, -0.108, 192.0, 0.0, 0.0, 0.0, 0.0, 0.0, 0.0, 0.0, 0.0, 0.0, 1.7296929991489556E9, 0.0, 2024-10-23 19:46:39.148
2.0, 9846.926909318794, 20541.38726489392, 37249.49505919159, 13755.397648262699, 24177.434942416545, 23437.614552690335, 92947.38238422661, 187500.0, 0.228, 0.9500000000000001, -0.108, 192.0, 0.0, 0.0, 0.0, 0.0, 0.0, 0.0, 0.0, 0.0, 0.0, 1.7296929991529827E9, 0.0, 2024-10-23 19:46:39.152
3.0, 9874.218389298725, 20517.694415771297, 37255.91000985027, 13776.58710200633, 24170.707067335497, 23429.34440724187, 92953.61852092964, 187500.0, 0.228, 0.9500000000000001, -0.108, 192.0, 0.0, 0.0, 0.0, 0.0, 0.0, 0.0, 0.0, 0.0, 0.0, 1.7296929991579628E9, 0.0, 2024-10-23 19:46:39.157
4.0, 9844.691734873264, 20527.14920367589, 37240.017919542544, 13769.68041296964, 24155.26201191688, 23408.512581409526, 92972.75161418339, 187500.0, 0.224, 0.9520000000000001, -0.106, 192.0, 7.0, 0.0, 29.0, 192.0, 252.0, 176.0, 0.0, 0.0, 0.0, 1.7296929991619775E9, 0.0, 2024-10-23 19:46:39.161
5.0, 9790.399347591323, 20582.64858515842, 37227.67975660321, 13730.76602587295, 24162.168700953567, 23420.02372980401, 92949.52815169432, 187500.0, 0.224, 0.9520000000000001, -0.106, 192.0, 0.0, 0.0, 0.0, 0.0, 0.0, 0.0, 0.0, 0.0, 0.0, 1.7296929991649733E9, 0.0, 2024-10-23 19:46:39.164
6.0, 9796.121394171882, 20601.915788878894, 37230.83135257141, 13730.207232261568, 24162.459273631488, 23431.73604389859, 92909.36206690813, 187500.0, 0.224, 0.9520000000000001, -0.106, 192.0, 0.0, 0.0, 0.0, 0.0, 0.0, 0.0, 0.0, 0.0, 0.0, 1.7296929991689565E9, 0.0, 2024-10-23 19:46:39.168
7.0, 9852.179569265792, 20577.418276955876, 37251.216143514655, 13760.024459364946, 24184.766314597884, 23434.46295672214, 92886.94326721947, 187500.0, 0.224, 0.9520000000000001, -0.106, 192.0, 0.0, 0.0, 0.0, 0.0, 0.0, 0.0, 0.0, 0.0, 0.0, 1.7296929991729772E9, 0.0, 2024-10-23 19:46:39.172
8.0, 9876.319453277523, 20548.606878352988, 37261.43089073073, 13779.649290996706, 24178.284308705846, 23410.703052366145, 92872.7275577459, 187500.0, 0.224, 0.9520000000000001, -0.106, 192.0, 0.0, 0.0, 0.0, 0.0, 0.0, 0.0, 0.0, 0.0, 0.0, 1.7296929991769743E9, 0.0, 2024-10-23 19:46:39.176
9.0, 9847.061019785526, 20557.100541246004, 37247.03636730151, 13774.687203727628, 24155.5525845948, 23404.511619152025, 92906.4339883845, 187500.0, 0.224, 0.9520000000000001, -0.106, 192.0, 0.0, 0.0, 0.0, 0.0, 0.0, 0.0, 0.0, 0.0, 0.0, 1.7296929991810284E9, 0.0, 2024-10-23 19:46:39.181
10.0, 9787.27010336758, 20610.163582582903, 37229.44554441518, 13741.33840100031, 24155.3514188947, 23429.322055497418, 92900.46607261493, 187500.0, 0.224, 0.9520000000000001, -0.106, 192.0, 0.0, 0.0, 0.0, 0.0, 0.0, 0.0, 0.0, 0.0, 0.0, 1.729692999186015E9, 0.0, 2024-10-23 19:46:39.186
11.0, 9792.142783658837, 20624.915733923404, 37235.122887506834, 13739.52790969943, 24165.029724243846, 23436.988703845585, 92882.80819449523, 187500.0, 0.224, 0.9520000000000001, -0.106, 192.0, 0.0, 0.0, 0.0, 0.0, 0.0, 0.0, 0.0, 0.0, 0.0, 1.7296929991900103E9, 0.0, 2024-10-23 19:46:39.190
12.0, 9849.966746564716, 20595.925521364872, 37259.888620363316, 13765.321822800855, 24172.98694526994, 23423.01886356102, 92844.63141496557, 187500.0, 0.224, 0.9520000000000001, -0.106, 192.0, 0.0, 0.0, 0.0, 0.0, 0.0, 0.0, 0.0, 0.0, 0.0, 1.7296929991930587E9, 0.0, 2024-10-23 19:46:39.193
13.0, 9874.173685809814, 20560.87798605895, 37270.304533279486, 13790.020500423969, 24170.34943942421, 23414.860476834834, 92862.75867971883, 187500.0, 0.224, 0.9520000000000001, -0.106, 192.0, 0.0, 0.0, 0.0, 0.0, 0.0, 0.0, 0.0, 0.0, 0.0, 1.729692999196972E9, 0.0, 2024-10-23 19:46:39.196
14.0, 9851.151389020848, 20568.946965807318, 37267.24234428911, 13797.888314472237, 24165.83438704424, 23414.97223555711, 92905.27169767281, 187500.0, 0.222, 0.9540000000000001, -0.10200000000000001, 192.0, 6.0, 240.0, 29.0, 208.0, 252.0, 208.0, 0.0, 0.0, 0.0, 1.7296929992009947E9, 0.0, 2024-10-23 19:46:39.200
15.0, 9792.813335992496, 20616.153850096925, 37253.9430563382, 13764.204235578089, 24172.562262125288, 23432.54070669898, 92892.86647950012, 187500.0, 0.222, 0.9540000000000001, -0.10200000000000001, 192.0, 0.0, 0.0, 0.0, 0.0, 0.0, 0.0, 0.0, 0.0, 0.0, 1.7296929992050345E9, 0.0, 2024-10-23 19:46:39.205
16.0, 9796.948408716727, 20621.540620510652, 37257.0946523064, 13755.464703496064, 24177.837273816738, 23427.62332291881, 92849.50409525682, 187500.0, 0.222, 0.9540000000000001, -0.10200000000000001, 192.0, 0.0, 0.0, 0.0, 0.0, 0.0, 0.0, 0.0, 0.0, 0.0, 1.7296929992090688E9, 0.0, 2024-10-23 19:46:39.209
17.0, 9848.268013986113, 20580.972204324273, 37273.34437052541, 13776.810619450882, 24179.647765117617, 23430.082014808897, 92837.3670980176, 187500.0, 0.222, 0.9540000000000001, -0.10200000000000001, 192.0, 0.0, 0.0, 0.0, 0.0, 0.0, 0.0, 0.0, 0.0, 0.0, 1.7296929992130387E9, 0.0, 2024-10-23 19:46:39.213
18.0, 9876.4312119998, 20546.863442285474, 37284.699056708705, 13804.750300020016, 24181.12298025167, 23455.20537557666, 92856.92487441598, 187500.0, 0.222, 0.9540000000000001, -0.10200000000000001, 192.0, 0.0, 0.0, 0.0, 0.0, 0.0, 0.0, 0.0, 0.0, 0.0, 1.7296929992180605E9, 0.0, 2024-10-23 19:46:39.218
19.0, 9848.893862830862, 20542.3483899055, 37267.89054487831, 13795.876657471259, 24166.951974267005, 23415.173401257205, 92879.79070899377, 187500.0, 0.222, 0.9540000000000001, -0.10200000000000001, 192.0, 0.0, 0.0, 0.0, 0.0, 0.0, 0.0, 0.0, 0.0, 0.0, 1.7296929992213717E9, 0.0, 2024-10-23 19:46:39.221
20.0, 9787.627731278864, 20580.614576412987, 37244.10828877787, 13752.581328461329, 24165.230889943945, 23433.770052644024, 92857.10368837163, 187500.0, 0.222, 0.9540000000000001, -0.10200000000000001, 192.0, 0.0, 0.0, 0.0, 0.0, 0.0, 0.0, 0.0, 0.0, 0.0, 1.7296929992251756E9, 0.0, 2024-10-23 19:46:39.225
21.0, 9794.534420315555, 20587.65537591641, 37244.17534401123, 13748.669773181651, 24162.25810793139, 23454.60187847637, 92816.13294078504, 187500.0, 0.222, 0.9540000000000001, -0.10200000000000001, 192.0, 0.0, 0.0, 0.0, 0.0, 0.0, 0.0, 0.0, 0.0, 0.0, 1.7296929992291195E9, 0.0, 2024-10-23 19:46:39.229
22.0, 9845.295231973558, 20543.108349216982, 37255.48532670562, 13766.126485601246, 24154.032665971838, 23422.080090293897, 92807.81809184767, 187500.0, 0.222, 0.9540000000000001, -0.10200000000000001, 192.0, 0.0, 0.0, 0.0, 0.0, 0.0, 0.0, 0.0, 0.0, 0.0, 1.7296929992331047E9, 0.0, 2024-10-23 19:46:39.233
23.0, 9867.021127584116, 20501.310587085558, 37256.044120317, 13783.784363720939, 24145.15902342308, 23415.083994279386, 92824.85012112262, 187500.0, 0.222, 0.9540000000000001, -0.10200000000000001, 192.0, 0.0, 0.0, 0.0, 0.0, 0.0, 0.0, 0.0, 0.0, 0.0, 1.7296929992371335E9, 0.0, 2024-10-23 19:46:39.237
24.0, 9846.23400524068, 20500.640034751897, 37255.820602872445, 13789.528762045951, 24163.5545091098, 23420.761337371034, 92860.18822910645, 187500.0, 0.228, 0.9540000000000001, -0.1, 192.0, 7.0, 32.0, 29.0, 208.0, 252.0, 224.0, 0.0, 0.0, 0.0, 1.729692999242179E9, 0.0, 2024-10-23 19:46:39.242
25.0, 9787.627731278864, 20541.00728523818, 37234.94407355119, 13746.412246991666, 24158.97240149646, 23433.926514855208, 92833.96963286039, 187500.0, 0.228, 0.9540000000000001, -0.1, 192.0, 0.0, 0.0, 0.0, 0.0, 0.0, 0.0, 0.0, 0.0, 0.0, 1.7296929992461736E9, 0.0, 2024-10-23 19:46:39.246
26.0, 9788.79002199054, 20540.984933493728, 37232.66419561675, 13735.750464886483, 24153.652686316098, 23442.35312251486, 92798.56446964318, 187500.0, 0.228, 0.9540000000000001, -0.1, 192.0, 0.0, 0.0, 0.0, 0.0, 0.0, 0.0, 0.0, 0.0, 0.0, 1.7296929992491708E9, 0.0, 2024-10-23 19:46:39.249
27.0, 9845.831673840485, 20503.232837108713, 37254.56890518295, 13760.203273320589, 24174.506863892897, 23440.341465513884, 92779.27491417826, 187500.0, 0.228, 0.9540000000000001, -0.1, 192.0, 0.0, 0.0, 0.0, 0.0, 0.0, 0.0, 0.0, 0.0, 0.0, 1.7296929992530756E9, 0.0, 2024-10-23 19:46:39.253
28.0, 9870.552703208054, 20461.52448195511, 37261.497945964096, 13773.413154293676, 24174.88684354864, 23408.53493315398, 92787.03096950424, 187500.0, 0.228, 0.9540000000000001, -0.1, 192.0, 0.0, 0.0, 0.0, 0.0, 0.0, 0.0, 0.0, 0.0, 0.0, 1.7296929992571175E9, 0.0, 2024-10-23 19:46:39.257
29.0, 9843.909423817327, 20457.836444119985, 37247.41634695725, 13769.591005991819, 24155.50788110589, 23411.68652912218, 92821.22913852087, 187500.0, 0.228, 0.9540000000000001, -0.1, 192.0, 0.0, 0.0, 0.0, 0.0, 0.0, 0.0, 0.0, 0.0, 0.0, 1.7296929992611096E9, 0.0, 2024-10-23 19:46:39.261
30.0, 9783.492658554633, 20500.952959174272, 37225.57869262442, 13727.793243860395, 24150.59049732572, 23426.550439184957, 92808.15336801451, 187500.0, 0.228, 0.9540000000000001, -0.1, 192.0, 0.0, 0.0, 0.0, 0.0, 0.0, 0.0, 0.0, 0.0, 0.0, 1.7296929992651129E9, 0.0, 2024-10-23 19:46:39.265
31.0, 9790.533458058055, 20513.738157002706, 37227.52329439203, 13719.679560623117, 24159.464139874475, 23435.44643347817, 92760.43239360243, 187500.0, 0.228, 0.9540000000000001, -0.1, 192.0, 0.0, 0.0, 0.0, 0.0, 0.0, 0.0, 0.0, 0.0, 0.0, 1.729692999269122E9, 0.0, 2024-10-23 19:46:39.269
32.0, 9843.551795906043, 20480.14348508638, 37243.01305329955, 13743.059485323369, 24161.475796875453, 23423.711767639135, 92730.07872463211, 187500.0, 0.228, 0.9540000000000001, -0.1, 192.0, 0.0, 0.0, 0.0, 0.0, 0.0, 0.0, 0.0, 0.0, 0.0, 1.7296929992742836E9, 0.0, 2024-10-23 19:46:39.274
33.0, 9869.256302029646, 20446.213537003227, 37249.04802430249, 13763.086648355324, 24152.423340371053, 23406.836200575377, 92750.88819872001, 187500.0, 0.228, 0.9540000000000001, -0.1, 192.0, 0.0, 0.0, 0.0, 0.0, 0.0, 0.0, 0.0, 0.0, 0.0, 1.7296929992772331E9, 0.0, 2024-10-23 19:46:39.277
34.0, 9845.965784307216, 20449.52159518261, 37241.44843118768, 13764.740677445017, 24150.54579383681, 23399.43777316067, 92794.0494172632, 187500.0, 0.23, 0.9500000000000001, -0.10400000000000001, 192.0, 7.0, 48.0, 29.0, 176.0, 252.0, 192.0, 0.0, 0.0, 0.0, 1.7296929992811549E9, 0.0, 2024-10-23 19:46:39.281
35.0, 9792.723929014675, 20505.44565980979, 37229.87022755983, 13735.057560808369, 24154.59145958322, 23428.517392697024, 92756.69965227839, 187500.0, 0.23, 0.9500000000000001, -0.10400000000000001, 192.0, 0.0, 0.0, 0.0, 0.0, 0.0, 0.0, 0.0, 0.0, 0.0, 1.7296929992851872E9, 0.0, 2024-10-23 19:46:39.285
36.0, 9796.054338938517, 20521.20363965078, 37231.61366362735, 13732.218889262545, 24157.005447984393, 23427.958599085643, 92714.6336692135, 187500.0, 0.23, 0.9500000000000001, -0.10400000000000001, 192.0, 0.0, 0.0, 0.0, 0.0, 0.0, 0.0, 0.0, 0.0, 0.0, 1.729692999289232E9, 0.0, 2024-10-23 19:46:39.289
37.0, 9852.358383221434, 20493.398069548377, 37257.7428528956, 13762.125523343746, 24174.506863892897, 23424.427023461703, 92713.65019245747, 187500.0, 0.23, 0.9500000000000001, -0.10400000000000001, 192.0, 0.0, 0.0, 0.0, 0.0, 0.0, 0.0, 0.0, 0.0, 0.0, 1.7296929992933097E9, 0.0, 2024-10-23 19:46:39.293
38.0, 9880.14160157938, 20462.820883133518, 37272.182079813734, 13790.1546108907, 24170.036515001837, 23414.189924501174, 92732.82798920012, 187500.0, 0.23, 0.9500000000000001, -0.10400000000000001, 192.0, 0.0, 0.0, 0.0, 0.0, 0.0, 0.0, 0.0, 0.0, 0.0, 1.7296929992971642E9, 0.0, 2024-10-23 19:46:39.297
39.0, 9856.538159434576, 20466.173644801813, 37265.16363205476, 13789.260541112488, 24158.681828818542, 23398.700165593644, 92753.1904283989, 187500.0, 0.23, 0.9500000000000001, -0.10400000000000001, 192.0, 0.0, 0.0, 0.0, 0.0, 0.0, 0.0, 0.0, 0.0, 0.0, 1.7296929993021317E9, 0.0, 2024-10-23 19:46:39.302
40.0, 9797.618961050388, 20512.39705233539, 37251.551419681484, 13753.67656393964, 24167.77898881185, 23413.698186123158, 92731.12925662151, 187500.0, 0.23, 0.9500000000000001, -0.10400000000000001, 192.0, 0.0, 0.0, 0.0, 0.0, 0.0, 0.0, 0.0, 0.0, 0.0, 1.7296929993053288E9, 0.0, 2024-10-23 19:46:39.305
41.0, 9809.510089100611, 20530.993703722204, 37265.14128031031, 13752.849549394794, 24179.960689539992, 23441.280238781004, 92680.61431415252, 187500.0, 0.23, 0.9500000000000001, -0.10400000000000001, 192.0, 0.0, 0.0, 0.0, 0.0, 0.0, 0.0, 0.0, 0.0, 0.0, 1.729692999309186E9, 0.0, 2024-10-23 19:46:39.309
42.0, 9866.797610139563, 20502.696395241786, 37291.33752481193, 13777.682337484639, 24180.653593618106, 23442.666046937233, 92666.3762529345, 187500.0, 0.23, 0.9500000000000001, -0.10400000000000001, 192.0, 0.0, 0.0, 0.0, 0.0, 0.0, 0.0, 0.0, 0.0, 0.0, 1.72969299931386E9, 0.0, 2024-10-23 19:46:39.313
43.0, 9891.786860440596, 20468.967612858727, 37298.24421384862, 13791.428660324653, 24177.07731450526, 23409.78663084348, 92689.44325321238, 187500.0, 0.23, 0.9500000000000001, -0.10400000000000001, 192.0, 0.0, 0.0, 0.0, 0.0, 0.0, 0.0, 0.0, 0.0, 0.0, 1.7296929993171709E9, 0.0, 2024-10-23 19:46:39.317
44.0, 9875.224217799214, 20476.209578062248, 37294.48912078013, 13794.803773737405, 24184.341631453233, 23407.39499418676, 92719.23812857129, 187500.0, 0.226, 0.9520000000000001, -0.10400000000000001, 192.0, 7.0, 16.0, 29.0, 192.0, 252.0, 192.0, 0.0, 0.0, 0.0, 1.7296929993215704E9, 0.0, 2024-10-23 19:46:39.321
45.0, 9817.757882804619, 20523.3941106074, 37278.03823686102, 13764.494808256008, 24191.538893167843, 23472.773846718534, 92725.67543097443, 187500.0, 0.226, 0.9520000000000001, -0.10400000000000001, 192.0, 0.0, 0.0, 0.0, 0.0, 0.0, 0.0, 0.0, 0.0, 0.0, 1.7296929993251915E9, 0.0, 2024-10-23 19:46:39.325
46.0, 9826.363304419912, 20539.465014870766, 37280.653390962296, 13758.415133764165, 24192.388259457144, 23469.197567605683, 92679.16145076293, 187500.0, 0.226, 0.9520000000000001, -0.10400000000000001, 192.0, 0.0, 0.0, 0.0, 0.0, 0.0, 0.0, 0.0, 0.0, 0.0, 1.729692999330186E9, 0.0, 2024-10-23 19:46:39.330
47.0, 9874.017223598627, 20502.562284775053, 37289.32586781095, 13772.519084515463, 24188.74492511093, 23434.038273577487, 92638.32481364308, 187500.0, 0.226, 0.9520000000000001, -0.10400000000000001, 192.0, 0.0, 0.0, 0.0, 0.0, 0.0, 0.0, 0.0, 0.0, 0.0, 1.7296929993337233E9, 0.0, 2024-10-23 19:46:39.333
48.0, 9893.686758719297, 20466.307755268546, 37289.37057129986, 13789.39465157922, 24174.305698192802, 23429.791442130976, 92662.621159866, 187500.0, 0.226, 0.9520000000000001, -0.10400000000000001, 192.0, 0.0, 0.0, 0.0, 0.0, 0.0, 0.0, 0.0, 0.0, 0.0, 1.7296929993362188E9, 0.0, 2024-10-23 19:46:39.336
49.0, 9869.636281685387, 20470.24166229268, 37275.400731015296, 13785.058413154891, 24156.223136928456, 23417.609741402834, 92695.52292770421, 187500.0, 0.226, 0.9520000000000001, -0.10400000000000001, 192.0, 0.0, 0.0, 0.0, 0.0, 0.0, 0.0, 0.0, 0.0, 0.0, 1.7296929993412068E9, 0.0, 2024-10-23 19:46:39.341
50.0, 9807.073748954983, 20519.68372102782, 37253.18309702672, 13744.445293479597, 24154.45734911649, 23433.859459621843, 92672.45592742633, 187500.0, 0.226, 0.9520000000000001, -0.10400000000000001, 192.0, 0.0, 0.0, 0.0, 0.0, 0.0, 0.0, 0.0, 0.0, 0.0, 1.7296929993453157E9, 0.0, 2024-10-23 19:46:39.345
51.0, 9809.018350722594, 20534.413520623868, 37251.95375108168, 13739.86318586626, 24169.343610923723, 23447.40461676176, 92655.64741559594, 187500.0, 0.226, 0.9520000000000001, -0.10400000000000001, 192.0, 0.0, 0.0, 0.0, 0.0, 0.0, 0.0, 0.0, 0.0, 0.0, 1.7296929993493164E9, 0.0, 2024-10-23 19:46:39.349
52.0, 9862.90840660434, 20504.99862492068, 37271.824451902445, 13764.226587322544, 24184.721611108973, 23439.06741607993, 92643.13043870097, 187500.0, 0.226, 0.9520000000000001, -0.10400000000000001, 192.0, 0.0, 0.0, 0.0, 0.0, 0.0, 0.0, 0.0, 0.0, 0.0, 1.729692999353593E9, 0.0, 2024-10-23 19:46:39.353
53.0, 9886.824773171518, 20474.354383272457, 37274.908992637276, 13782.420907309164, 24176.02678251586, 23416.313340224428, 92675.6745786279, 187500.0, 0.226, 0.9520000000000001, -0.10400000000000001, 192.0, 0.0, 0.0, 0.0, 0.0, 0.0, 0.0, 0.0, 0.0, 0.0, 1.7296929993573067E9, 0.0, 2024-10-23 19:46:39.357
54.0, 9865.300043261057, 20482.915101398838, 37263.21903028715, 13783.516142787474, 24153.473872360453, 23408.35611919834, 92713.42667501292, 187500.0, 0.226, 0.9500000000000001, -0.10200000000000001, 192.0, 7.0, 16.0, 29.0, 176.0, 252.0, 208.0, 0.0, 0.0, 0.0, 1.7296929993623085E9, 0.0, 2024-10-23 19:46:39.362
55.0, 9806.537307088054, 20537.095729958502, 37242.811887599455, 13750.368505760254, 24154.54675609431, 23431.02078807602, 92684.05648279864, 187500.0, 0.226, 0.9500000000000001, -0.10200000000000001, 192.0, 0.0, 0.0, 0.0, 0.0, 0.0, 0.0, 0.0, 0.0, 0.0, 1.7296929993652675E9, 0.0, 2024-10-23 19:46:39.365
56.0, 9813.287533913557, 20553.837186555527, 37249.20448651368, 13749.630898193229, 24171.13175048015, 23452.29964879747, 92622.0080401907, 187500.0, 0.226, 0.9500000000000001, -0.10200000000000001, 192.0, 0.0, 0.0, 0.0, 0.0, 0.0, 0.0, 0.0, 0.0, 0.0, 1.72969299936933E9, 0.0, 2024-10-23 19:46:39.369
57.0, 9866.395278739366, 20521.42715709533, 37270.081015834934, 13774.776610705449, 24177.792570327827, 23445.325904527417, 92584.12183333897, 187500.0, 0.226, 0.9500000000000001, -0.10200000000000001, 192.0, 0.0, 0.0, 0.0, 0.0, 0.0, 0.0, 0.0, 0.0, 0.0, 1.7296929993733544E9, 0.0, 2024-10-23 19:46:39.373
58.0, 9887.942360394283, 20479.875264152917, 37277.501794994096, 13795.563733048884, 24174.484512148443, 23432.87598286581, 92624.60084254753, 187500.0, 0.226, 0.9500000000000001, -0.10200000000000001, 192.0, 0.0, 0.0, 0.0, 0.0, 0.0, 0.0, 0.0, 0.0, 0.0, 1.7296929993773592E9, 0.0, 2024-10-23 19:46:39.377
59.0, 9868.518694462622, 20482.333956043, 37272.29383853601, 13799.2070673951, 24169.097741734713, 23420.403709459748, 92673.12647976, 187500.0, 0.226, 0.9500000000000001, -0.10200000000000001, 192.0, 0.0, 0.0, 0.0, 0.0, 0.0, 0.0, 0.0, 0.0, 0.0, 1.7296929993812923E9, 0.0, 2024-10-23 19:46:39.381
60.0, 9813.265182169102, 20536.425177624846, 37262.459070975674, 13771.289738570422, 24176.965555782983, 23439.089767824385, 92642.79516253414, 187500.0, 0.226, 0.9500000000000001, -0.10200000000000001, 192.0, 0.0, 0.0, 0.0, 0.0, 0.0, 0.0, 0.0, 0.0, 0.0, 1.729692999385368E9, 0.0, 2024-10-23 19:46:39.385
61.0, 9817.37790314888, 20547.243421941213, 37268.94107686771, 13767.020555379459, 24189.97427105597, 23456.345314543883, 92615.77190348768, 187500.0, 0.226, 0.9500000000000001, -0.10200000000000001, 192.0, 0.0, 0.0, 0.0, 0.0, 0.0, 0.0, 0.0, 0.0, 0.0, 1.7296929993893056E9, 0.0, 2024-10-23 19:46:39.389
62.0, 9870.038613085582, 20510.810078479062, 37285.79429218701, 13787.315939344877, 24186.12977100966, 23449.97506737412, 92588.99451363021, 187500.0, 0.226, 0.9500000000000001, -0.10200000000000001, 192.0, 0.0, 0.0, 0.0, 0.0, 0.0, 0.0, 0.0, 0.0, 0.0, 1.7296929993923929E9, 0.0, 2024-10-23 19:46:39.392
63.0, 9896.48072677621, 20470.152255314857, 37294.22089984667, 13808.438337855141, 24180.295965706824, 23435.781709645, 92603.12081612597, 187500.0, 0.226, 0.9500000000000001, -0.10200000000000001, 192.0, 0.0, 0.0, 0.0, 0.0, 0.0, 0.0, 0.0, 0.0, 0.0, 1.7296929993972712E9, 0.0, 2024-10-23 19:46:39.397
64.0, 9879.33693877899, 20467.62650819141, 37293.03625739053, 13813.199259424122, 24179.91598605108, 23409.987796543577, 92622.52213031318, 187500.0, 0.224, 0.9500000000000001, -0.10400000000000001, 192.0, 7.0, 0.0, 29.0, 176.0, 252.0, 192.0, 0.0, 0.0, 0.0, 1.7296929994012845E9, 0.0, 2024-10-23 19:46:39.401
65.0, 9820.641257839354, 20508.552552289075, 37277.7476641831, 13775.58127350584, 24175.847968560218, 23403.751659840545, 92612.39679007493, 187500.0, 0.224, 0.9500000000000001, -0.10400000000000001, 192.0, 0.0, 0.0, 0.0, 0.0, 0.0, 0.0, 0.0, 0.0, 0.0, 1.729692999405306E9, 0.0, 2024-10-23 19:46:39.405
66.0, 9833.89584230135, 20524.28818038561, 37294.17619635775, 13786.310110844388, 24195.763372869897, 23472.751494974076, 92582.35604552699, 187500.0, 0.224, 0.9500000000000001, -0.10400000000000001, 192.0, 0.0, 0.0, 0.0, 0.0, 0.0, 0.0, 0.0, 0.0, 0.0, 1.7296929994093704E9, 0.0, 2024-10-23 19:46:39.409
67.0, 9892.747985452173, 20492.973386403726, 37323.12170542737, 13821.3129426614, 24214.851762634727, 23512.112916959875, 92568.16268779787, 187500.0, 0.224, 0.9500000000000001, -0.10400000000000001, 192.0, 0.0, 0.0, 0.0, 0.0, 0.0, 0.0, 0.0, 0.0, 0.0, 1.729692999413422E9, 0.0, 2024-10-23 19:46:39.413
68.0, 9917.446663075289, 20451.935583583785, 37325.468638595186, 13832.153538722223, 24198.02089905988, 23467.431779793715, 92583.74185368323, 187500.0, 0.224, 0.9500000000000001, -0.10400000000000001, 192.0, 0.0, 0.0, 0.0, 0.0, 0.0, 0.0, 0.0, 0.0, 0.0, 1.7296929994173021E9, 0.0, 2024-10-23 19:46:39.417
69.0, 9898.939418666294, 20455.936545841283, 37316.19266464623, 13829.627791598772, 24178.88780580614, 23450.35504702986, 92607.07707489457, 187500.0, 0.224, 0.9500000000000001, -0.10400000000000001, 192.0, 0.0, 0.0, 0.0, 0.0, 0.0, 0.0, 0.0, 0.0, 0.0, 1.7296929994203022E9, 0.0, 2024-10-23 19:46:39.420
70.0, 9838.634412125875, 20503.702223742275, 37297.5066062816, 13791.853343469304, 24191.762410612395, 23478.65235551028, 92598.04697013462, 187500.0, 0.224, 0.9500000000000001, -0.10400000000000001, 192.0, 0.0, 0.0, 0.0, 0.0, 0.0, 0.0, 0.0, 0.0, 0.0, 1.7296929994243271E9, 0.0, 2024-10-23 19:46:39.424
71.0, 9841.60719413843, 20520.220162894748, 37292.81273994598, 13780.431602052642, 24192.097686779223, 23467.208262349162, 92554.50577193568, 187500.0, 0.224, 0.9500000000000001, -0.10400000000000001, 192.0, 0.0, 0.0, 0.0, 0.0, 0.0, 0.0, 0.0, 0.0, 0.0, 1.729692999429342E9, 0.0, 2024-10-23 19:46:39.429
72.0, 9891.608046484953, 20493.375717803923, 37299.96529817168, 13798.201238894611, 24188.700221622017, 23463.252003580572, 92508.12590219092, 187500.0, 0.224, 0.9500000000000001, -0.10400000000000001, 192.0, 0.0, 0.0, 0.0, 0.0, 0.0, 0.0, 0.0, 0.0, 0.0, 1.7296929994333053E9, 0.0, 2024-10-23 19:46:39.433
73.0, 9912.05989266156, 20459.13284529839, 37299.093580137924, 13809.757090778005, 24178.619584872675, 23430.149070042262, 92534.16568448136, 187500.0, 0.224, 0.9500000000000001, -0.10400000000000001, 192.0, 0.0, 0.0, 0.0, 0.0, 0.0, 0.0, 0.0, 0.0, 0.0, 1.7296929994374352E9, 0.0, 2024-10-23 19:46:39.437
74.0, 9894.446718030777, 20468.833502391997, 37292.18689110123, 13807.566619821386, 24171.265860946878, 23425.499907195557, 92577.32690302454, 187500.0, 0.226, 0.9560000000000001, -0.108, 192.0, 7.0, 16.0, 29.0, 224.0, 252.0, 160.0, 0.0, 0.0, 0.0, 1.7296929994413462E9, 0.0, 2024-10-23 19:46:39.441
75.0, 9826.5197666311, 20510.251284867678, 37262.21320178666, 13757.923395386148, 24159.866471274672, 23438.933305613198, 92556.47272544775, 187500.0, 0.226, 0.9560000000000001, -0.108, 192.0, 0.0, 0.0, 0.0, 0.0, 0.0, 0.0, 0.0, 0.0, 0.0, 1.729692999446437E9, 0.0, 2024-10-23 19:46:39.446
76.0, 9824.66457184131, 20520.890715228405, 37256.312341250465, 13742.612450434262, 24157.34072415122, 23432.294837509973, 92517.69244881779, 187500.0, 0.226, 0.9560000000000001, -0.108, 192.0, 0.0, 0.0, 0.0, 0.0, 0.0, 0.0, 0.0, 0.0, 0.0, 1.7296929994493597E9, 0.0, 2024-10-23 19:46:39.449
77.0, 9876.833543399995, 20493.979214904215, 37277.077111849445, 13763.95836638908, 24178.619584872675, 23431.5795816874, 92507.23183241271, 187500.0, 0.226, 0.9560000000000001, -0.108, 192.0, 0.0, 0.0, 0.0, 0.0, 0.0, 0.0, 0.0, 0.0, 0.0, 1.7296929994538841E9, 0.0, 2024-10-23 19:46:39.453
78.0, 9900.548744267076, 20456.33887724148, 37282.3521235409, 13780.900988686204, 24172.696372592018, 23412.602950644847, 92508.50588184666, 187500.0, 0.226, 0.9560000000000001, -0.108, 192.0, 0.0, 0.0, 0.0, 0.0, 0.0, 0.0, 0.0, 0.0, 0.0, 1.729692999457342E9, 0.0, 2024-10-23 19:46:39.457
79.0, 9876.878246888906, 20445.721798625207, 37272.49500423611, 13778.039965395925, 24156.49135786192, 23399.10249699384, 92533.40572516987, 187500.0, 0.226, 0.9560000000000001, -0.108, 192.0, 0.0, 0.0, 0.0, 0.0, 0.0, 0.0, 0.0, 0.0, 0.0, 1.729692999461336E9, 0.0, 2024-10-23 19:46:39.461
80.0, 9809.532440845065, 20480.031726364105, 37254.54655343849, 13740.176110288634, 24159.106511963193, 23416.872133835812, 92546.3920886984, 187500.0, 0.226, 0.9560000000000001, -0.108, 192.0, 0.0, 0.0, 0.0, 0.0, 0.0, 0.0, 0.0, 0.0, 0.0, 1.729692999465449E9, 0.0, 2024-10-23 19:46:39.465
81.0, 9815.679170570274, 20492.05696488106, 37262.883754120325, 13742.031305078424, 24172.718724336475, 23445.057683593954, 92505.95778297876, 187500.0, 0.226, 0.9560000000000001, -0.108, 192.0, 0.0, 0.0, 0.0, 0.0, 0.0, 0.0, 0.0, 0.0, 0.0, 1.7296929994695373E9, 0.0, 2024-10-23 19:46:39.469
82.0, 9861.14261879237, 20449.34278122697, 37273.61259145887, 13764.271290811455, 24169.969459768472, 23439.35798875785, 92476.56523902003, 187500.0, 0.226, 0.9560000000000001, -0.108, 192.0, 0.0, 0.0, 0.0, 0.0, 0.0, 0.0, 0.0, 0.0, 0.0, 1.7296929994737144E9, 0.0, 2024-10-23 19:46:39.473
83.0, 9883.695528947776, 20406.94152199525, 37284.85551891989, 13788.63469226774, 24173.076352247757, 23426.34927348486, 92494.67015202882, 187500.0, 0.226, 0.9560000000000001, -0.108, 192.0, 0.0, 0.0, 0.0, 0.0, 0.0, 0.0, 0.0, 0.0, 0.0, 1.7296929994763827E9, 0.0, 2024-10-23 19:46:39.476
84.0, 9863.33308974899, 20400.548923081034, 37277.52414673855, 13793.686186514638, 24166.907270778094, 23426.952770585154, 92516.39604763938, 187500.0, 0.23, 0.9540000000000001, -0.106, 192.0, 7.0, 48.0, 29.0, 208.0, 252.0, 176.0, 0.0, 0.0, 0.0, 1.7296929994803915E9, 0.0, 2024-10-23 19:46:39.480
85.0, 9801.083481440959, 20442.70431312374, 37257.72050115115, 13761.499674498997, 24164.761503310383, 23454.803044176468, 92523.95093726528, 187500.0, 0.23, 0.9540000000000001, -0.106, 192.0, 0.0, 0.0, 0.0, 0.0, 0.0, 0.0, 0.0, 0.0, 0.0, 1.7296929994854064E9, 0.0, 2024-10-23 19:46:39.485
86.0, 9806.626714065877, 20455.33304874099, 37262.83905063141, 13758.90687214218, 24176.45146566051, 23458.289916311493, 92485.21536412423, 187500.0, 0.23, 0.9540000000000001, -0.106, 192.0, 0.0, 0.0, 0.0, 0.0, 0.0, 0.0, 0.0, 0.0, 0.0, 1.7296929994893944E9, 0.0, 2024-10-23 19:46:39.489
87.0, 9860.226197269702, 20421.4701558912, 37288.72237071066, 13780.744526475017, 24198.177361271068, 23445.59412546088, 92447.57502646149, 187500.0, 0.23, 0.9540000000000001, -0.106, 192.0, 0.0, 0.0, 0.0, 0.0, 0.0, 0.0, 0.0, 0.0, 0.0, 1.729692999493748E9, 0.0, 2024-10-23 19:46:39.493
88.0, 9884.634302214898, 20381.84051297194, 37295.76317021408, 13799.2070673951, 24186.73326810995, 23425.63401766229, 92470.19499185027, 187500.0, 0.23, 0.9540000000000001, -0.106, 192.0, 0.0, 0.0, 0.0, 0.0, 0.0, 0.0, 0.0, 0.0, 0.0, 1.729692999497524E9, 0.0, 2024-10-23 19:46:39.497
89.0, 9866.931720606295, 20380.27589086007, 37290.1528823558, 13801.621055796273, 24181.681773863053, 23421.6777588937, 92506.7847975236, 187500.0, 0.23, 0.9540000000000001, -0.106, 192.0, 0.0, 0.0, 0.0, 0.0, 0.0, 0.0, 0.0, 0.0, 0.0, 1.729692999501499E9, 0.0, 2024-10-23 19:46:39.501
90.0, 9811.61115307941, 20432.489565907665, 37276.67478044925, 13769.72511645855, 24183.78283784185, 23447.73989292859, 92492.36792234992, 187500.0, 0.23, 0.9540000000000001, -0.106, 192.0, 0.0, 0.0, 0.0, 0.0, 0.0, 0.0, 0.0, 0.0, 0.0, 1.7296929995044272E9, 0.0, 2024-10-23 19:46:39.504
91.0, 9821.490624128655, 20451.80147311705, 37284.341428797416, 13774.083706627334, 24186.040364031836, 23463.69903846968, 92447.64208169485, 187500.0, 0.23, 0.9540000000000001, -0.106, 192.0, 0.0, 0.0, 0.0, 0.0, 0.0, 0.0, 0.0, 0.0, 0.0, 1.7296929995084162E9, 0.0, 2024-10-23 19:46:39.508
92.0, 9874.106630576449, 20424.554696626034, 37303.47452205116, 13801.710462774094, 24196.746849625928, 23460.480387268115, 92424.59743316144, 187500.0, 0.23, 0.9540000000000001, -0.106, 192.0, 0.0, 0.0, 0.0, 0.0, 0.0, 0.0, 0.0, 0.0, 0.0, 1.72969299951345E9, 0.0, 2024-10-23 19:46:39.513
93.0, 9897.44185178779, 20388.546036308533, 37307.47548430866, 13816.574372836874, 24182.3076227078, 23428.562096185935, 92454.50406724264, 187500.0, 0.23, 0.9540000000000001, -0.106, 192.0, 0.0, 0.0, 0.0, 0.0, 0.0, 0.0, 0.0, 0.0, 0.0, 1.7296929995174682E9, 0.0, 2024-10-23 19:46:39.517
94.0, 9888.858781916952, 20402.04648995954, 37302.13341738384, 13825.850346785826, 24167.77898881185, 23444.476538238116, 92482.10847164494, 187500.0, 0.23, 0.9540000000000001, -0.106, 192.0, 0.0, 0.0, 0.0, 0.0, 0.0, 0.0, 0.0, 0.0, 0.0, 1.7296929995214636E9, 0.0, 2024-10-23 19:46:39.521
95.0, 9834.097008001449, 20459.66928716532, 37286.68836196522, 13797.933017961148, 24181.54766339632, 23486.251948625082, 92457.4768492552, 187500.0, 0.23, 0.9580000000000001, -0.108, 192.0, 7.0, 48.0, 29.0, 240.0, 252.0, 160.0, 0.0, 0.0, 0.0, 1.729692999525448E9, 0.0, 2024-10-23 19:46:39.525
96.0, 9839.148502248348, 20475.896653639873, 37288.7000189662, 13791.719233002572, 24195.338689725246, 23477.84769270989, 92430.18536927526, 187500.0, 0.23, 0.9580000000000001, -0.108, 192.0, 0.0, 0.0, 0.0, 0.0, 0.0, 0.0, 0.0, 0.0, 0.0, 1.7296929995294676E9, 0.0, 2024-10-23 19:46:39.529
97.0, 9886.489497004688, 20443.66543813532, 37296.38901905883, 13804.526782575464, 24188.186131499548, 23468.571718760937, 92416.72961911316, 187500.0, 0.23, 0.9580000000000001, -0.108, 192.0, 0.0, 0.0, 0.0, 0.0, 0.0, 0.0, 0.0, 0.0, 0.0, 1.729692999533474E9, 0.0, 2024-10-23 19:46:39.533
98.0, 9911.992837428194, 20412.864734275907, 37300.23351910514, 13820.150651949723, 24187.336765210246, 23456.01003837705, 92420.90939532631, 187500.0, 0.23, 0.9580000000000001, -0.108, 192.0, 0.0, 0.0, 0.0, 0.0, 0.0, 0.0, 0.0, 0.0, 0.0, 1.7296929995364718E9, 0.0, 2024-10-23 19:46:39.536
99.0, 9887.852953416463, 20408.059109218015, 37282.732103196635, 13811.053491956412, 24160.313506163777, 23429.389110730783, 92433.53813094356, 187500.0, 0.23, 0.9580000000000001, -0.108, 192.0, 0.0, 0.0, 0.0, 0.0, 0.0, 0.0, 0.0, 0.0, 0.0, 1.7296929995414865E9, 0.0, 2024-10-23 19:46:39.541
100.0, 9824.083426485471, 20452.494377195166, 37258.16753604025, 13762.572558232852, 24161.20757594199, 23441.481404481103, 92414.27092722309, 187500.0, 0.23, 0.9580000000000001, -0.108, 192.0, 0.0, 0.0, 0.0, 0.0, 0.0, 0.0, 0.0, 0.0, 0.0, 1.7296929995454757E9, 0.0, 2024-10-23 19:46:39.545
101.0, 9830.967763777706, 20467.917080869327, 37268.73991116761, 13759.465665753563, 24191.114210023192, 23465.06249488145, 92374.37306337037, 187500.0, 0.23, 0.9580000000000001, -0.108, 192.0, 0.0, 0.0, 0.0, 0.0, 0.0, 0.0, 0.0, 0.0, 0.0, 1.729692999549791E9, 0.0, 2024-10-23 19:46:39.549
102.0, 9877.861723644939, 20435.104720008938, 37283.58146948594, 13770.887407170227, 24193.68466063555, 23453.864270909344, 92355.70935675017, 187500.0, 0.23, 0.9580000000000001, -0.108, 192.0, 0.0, 0.0, 0.0, 0.0, 0.0, 0.0, 0.0, 0.0, 0.0, 1.729692999553686E9, 0.0, 2024-10-23 19:46:39.553
103.0, 9895.877229675918, 20393.329309621968, 37281.547460740505, 13776.073011883856, 24175.26682320438, 23416.44745069116, 92370.48385983513, 187500.0, 0.23, 0.9580000000000001, -0.108, 192.0, 0.0, 0.0, 0.0, 0.0, 0.0, 0.0, 0.0, 0.0, 0.0, 1.7296929995575151E9, 0.0, 2024-10-23 19:46:39.557
104.0, 9869.055136329549, 20388.65779503081, 37264.02369308755, 13765.120657100757, 24148.10945369118, 23392.978119013085, 92420.28354648156, 187500.0, 0.23, 0.9580000000000001, -0.108, 192.0, 0.0, 0.0, 0.0, 0.0, 0.0, 0.0, 0.0, 0.0, 0.0, 1.729692999562535E9, 0.0, 2024-10-23 19:46:39.562
105.0, 9808.079577455472, 20442.972534057204, 37241.22491374313, 13727.837947349304, 24137.917058219562, 23413.228799489596, 92422.5187209271, 187500.0, 0.23, 0.9520000000000001, -0.10200000000000001, 192.0, 7.0, 48.0, 29.0, 192.0, 252.0, 208.0, 0.0, 0.0, 0.0, 1.7296929995655117E9, 0.0, 2024-10-23 19:46:39.565
106.0, 9815.142728703348, 20464.564319201032, 37249.875038847335, 13724.820461847838, 24157.944221251517, 23426.43868046268, 92381.9056012518, 187500.0, 0.23, 0.9520000000000001, -0.10200000000000001, 192.0, 0.0, 0.0, 0.0, 0.0, 0.0, 0.0, 0.0, 0.0, 0.0, 1.7296929995685272E9, 0.0, 2024-10-23 19:46:39.568
107.0, 9862.841351370973, 20432.646028118852, 37271.399768757794, 13745.406418491177, 24168.583651612244, 23430.506697953548, 92347.75213572409, 187500.0, 0.23, 0.9520000000000001, -0.10200000000000001, 192.0, 0.0, 0.0, 0.0, 0.0, 0.0, 0.0, 0.0, 0.0, 0.0, 1.729692999573649E9, 0.0, 2024-10-23 19:46:39.573
108.0, 9878.353462022957, 20386.40026884082, 37270.97508561314, 13756.87286339675, 24148.757654280384, 23405.11511625232, 92378.70930179469, 187500.0, 0.23, 0.9520000000000001, -0.10200000000000001, 192.0, 0.0, 0.0, 0.0, 0.0, 0.0, 0.0, 0.0, 0.0, 0.0, 1.729692999577526E9, 0.0, 2024-10-23 19:46:39.577
109.0, 9859.108610046937, 20380.186483882248, 37266.08005357743, 13754.525930228941, 24148.467081602466, 23394.833313802876, 92409.26413646509, 187500.0, 0.23, 0.9520000000000001, -0.10200000000000001, 192.0, 0.0, 0.0, 0.0, 0.0, 0.0, 0.0, 0.0, 0.0, 0.0, 1.72969299958356E9, 0.0, 2024-10-23 19:46:39.583
110.0, 9796.680187783264, 20421.201934957735, 37251.70788189267, 13716.349150699276, 24159.19591894101, 23413.854648334345, 92400.23403170516, 187500.0, 0.23, 0.9520000000000001, -0.10200000000000001, 192.0, 0.0, 0.0, 0.0, 0.0, 0.0, 0.0, 0.0, 0.0, 0.0, 1.729692999586572E9, 0.0, 2024-10-23 19:46:39.586
111.0, 9802.46928959719, 20434.65768511983, 37261.296780264, 13715.209211732055, 24174.39510517062, 23425.052872306453, 92357.98923468462, 187500.0, 0.23, 0.9520000000000001, -0.10200000000000001, 192.0, 0.0, 0.0, 0.0, 0.0, 0.0, 0.0, 0.0, 0.0, 0.0, 1.7296929995895789E9, 0.0, 2024-10-23 19:46:39.589
112.0, 9851.643127398864, 20399.65485330282, 37278.820547916956, 13739.90788935517, 24179.98304128445, 23410.59129364387, 92333.67053671724, 187500.0, 0.23, 0.9520000000000001, -0.10200000000000001, 192.0, 0.0, 0.0, 0.0, 0.0, 0.0, 0.0, 0.0, 0.0, 0.0, 1.729692999593698E9, 0.0, 2024-10-23 19:46:39.593
113.0, 9882.577941725009, 20364.249690085613, 37292.38805680133, 13768.406363535687, 24184.900425064618, 23406.992662786564, 92338.25264433058, 187500.0, 0.23, 0.9520000000000001, -0.10200000000000001, 192.0, 0.0, 0.0, 0.0, 0.0, 0.0, 0.0, 0.0, 0.0, 0.0, 1.72969299959662E9, 0.0, 2024-10-23 19:46:39.596
114.0, 9867.892845617873, 20359.55582375, 37293.81856844647, 13779.939863674625, 24184.051058775316, 23409.607816887834, 92361.07377541946, 187500.0, 0.23, 0.9520000000000001, -0.10200000000000001, 192.0, 0.0, 0.0, 0.0, 0.0, 0.0, 0.0, 0.0, 0.0, 0.0, 1.7296929996015804E9, 0.0, 2024-10-23 19:46:39.601
115.0, 9806.783176277064, 20404.08049870497, 37280.58633572893, 13749.25091853749, 24183.89459656413, 23436.340503256382, 92360.55968529698, 187500.0, 0.226, 0.9520000000000001, -0.1, 192.0, 7.0, 16.0, 29.0, 192.0, 252.0, 224.0, 0.0, 0.0, 0.0, 1.7296929996056683E9, 0.0, 2024-10-23 19:46:39.605
116.0, 9816.953220004229, 20424.331179181478, 37293.86327193538, 13756.58229071883, 24199.183189771556, 23474.450227552683, 92324.03693485701, 187500.0, 0.226, 0.9520000000000001, -0.1, 192.0, 0.0, 0.0, 0.0, 0.0, 0.0, 0.0, 0.0, 0.0, 0.0, 1.7296929996096194E9, 0.0, 2024-10-23 19:46:39.609
117.0, 9867.71403166223, 20391.921149721285, 37309.39773433182, 13786.511276544486, 24197.149181026125, 23478.250024110082, 92318.20312955417, 187500.0, 0.226, 0.9520000000000001, -0.1, 192.0, 0.0, 0.0, 0.0, 0.0, 0.0, 0.0, 0.0, 0.0, 0.0, 1.7296929996135936E9, 0.0, 2024-10-23 19:46:39.613
118.0, 9896.547782009577, 20355.443102770223, 37315.76798150158, 13810.472346600574, 24195.673965892074, 23455.36183778785, 92341.22542634314, 187500.0, 0.226, 0.9520000000000001, -0.1, 192.0, 0.0, 0.0, 0.0, 0.0, 0.0, 0.0, 0.0, 0.0, 0.0, 1.7296929996186037E9, 0.0, 2024-10-23 19:46:39.618
119.0, 9879.538104479088, 20349.16226257828, 37296.97016441467, 13806.605494809806, 24173.83631155924, 23424.047043805964, 92358.21275212917, 187500.0, 0.226, 0.9520000000000001, -0.1, 192.0, 0.0, 0.0, 0.0, 0.0, 0.0, 0.0, 0.0, 0.0, 0.0, 1.7296929996216996E9, 0.0, 2024-10-23 19:46:39.621
120.0, 9816.237964181659, 20395.162152667304, 37266.25886753308, 13761.477322754541, 24160.358209652688, 23425.58931417338, 92322.78523716751, 187500.0, 0.226, 0.9520000000000001, -0.1, 192.0, 0.0, 0.0, 0.0, 0.0, 0.0, 0.0, 0.0, 0.0, 0.0, 1.7296929996246965E9, 0.0, 2024-10-23 19:46:39.624
121.0, 9819.858946783417, 20408.059109218015, 37267.71173092267, 13759.778590175938, 24180.899462807116, 23451.852613908366, 92292.96801006413, 187500.0, 0.226, 0.9520000000000001, -0.1, 192.0, 0.0, 0.0, 0.0, 0.0, 0.0, 0.0, 0.0, 0.0, 0.0, 1.7296929996297183E9, 0.0, 2024-10-23 19:46:39.629
122.0, 9870.463296230233, 20373.816236712486, 37282.66504796327, 13778.039965395925, 24188.54375941083, 23466.515358271048, 92286.9330390612, 187500.0, 0.226, 0.9520000000000001, -0.1, 192.0, 0.0, 0.0, 0.0, 0.0, 0.0, 0.0, 0.0, 0.0, 0.0, 1.7296929996336763E9, 0.0, 2024-10-23 19:46:39.633
123.0, 9897.263037832146, 20333.203117037192, 37282.888565407826, 13790.601645779807, 24174.484512148443, 23439.134471313297, 92288.4306059397, 187500.0, 0.226, 0.9520000000000001, -0.1, 192.0, 0.0, 0.0, 0.0, 0.0, 0.0, 0.0, 0.0, 0.0, 0.0, 1.7296929996377127E9, 0.0, 2024-10-23 19:46:39.637
124.0, 9878.308758534045, 20321.781375620532, 37265.14128031031, 13784.611378265785, 24156.35724739519, 23418.459107692135, 92328.1943593257, 187500.0, 0.226, 0.9520000000000001, -0.1, 192.0, 0.0, 0.0, 0.0, 0.0, 0.0, 0.0, 0.0, 0.0, 0.0, 1.7296929996416924E9, 0.0, 2024-10-23 19:46:39.641
125.0, 9816.305019415024, 20363.735599963144, 37244.95765506717, 13737.71741839855, 24158.123035207158, 23422.080090293897, 92314.17981555221, 187500.0, 0.226, 0.9520000000000001, -0.10200000000000001, 192.0, 7.0, 16.0, 29.0, 192.0, 252.0, 208.0, 0.0, 0.0, 0.0, 1.729692999644664E9, 0.0, 2024-10-23 19:46:39.644
126.0, 9825.715103830707, 20378.487751303644, 37254.12187029384, 13731.52598518443, 24175.40093367111, 23434.775881144513, 92272.49381214308, 187500.0, 0.226, 0.9520000000000001, -0.10200000000000001, 192.0, 0.0, 0.0, 0.0, 0.0, 0.0, 0.0, 0.0, 0.0, 0.0, 1.7296929996486628E9, 0.0, 2024-10-23 19:46:39.648
127.0, 9873.681947431796, 20345.854204398896, 37271.04214084651, 13753.564805217364, 24177.457294161, 23446.55525047246, 92248.2198176646, 187500.0, 0.226, 0.9520000000000001, -0.10200000000000001, 192.0, 0.0, 0.0, 0.0, 0.0, 0.0, 0.0, 0.0, 0.0, 0.0, 1.7296929996537788E9, 0.0, 2024-10-23 19:46:39.653
128.0, 9898.537087266099, 20306.135154501815, 37273.9478676257, 13770.52977925894, 24164.292116676825, 23427.44450896317, 92267.64348359627, 187500.0, 0.226, 0.9520000000000001, -0.10200000000000001, 192.0, 0.0, 0.0, 0.0, 0.0, 0.0, 0.0, 0.0, 0.0, 0.0, 1.7296929996577291E9, 0.0, 2024-10-23 19:46:39.657
129.0, 9880.119249834926, 20296.278035197025, 37261.050911074984, 13767.646404224206, 24150.79166302582, 23408.713747109625, 92291.1351670188, 187500.0, 0.226, 0.9520000000000001, -0.10200000000000001, 192.0, 0.0, 0.0, 0.0, 0.0, 0.0, 0.0, 0.0, 0.0, 0.0, 1.7296929996617239E9, 0.0, 2024-10-23 19:46:39.661
130.0, 9810.27004841209, 20331.571439691954, 37239.526181164525, 13725.960400815058, 24160.537023608333, 23421.700110638158, 92288.6317716398, 187500.0, 0.226, 0.9520000000000001, -0.10200000000000001, 192.0, 0.0, 0.0, 0.0, 0.0, 0.0, 0.0, 0.0, 0.0, 0.0, 1.729692999665808E9, 0.0, 2024-10-23 19:46:39.665
131.0, 9814.56158334751, 20341.629724696842, 37244.8905998338, 13719.456043178565, 24167.667230089573, 23426.63984616278, 92245.8728844968, 187500.0, 0.226, 0.9520000000000001, -0.10200000000000001, 192.0, 0.0, 0.0, 0.0, 0.0, 0.0, 0.0, 0.0, 0.0, 0.0, 1.7296929996696427E9, 0.0, 2024-10-23 19:46:39.669
132.0, 9858.885092602384, 20304.905808556774, 37258.88279186282, 13737.71741839855, 24166.571994611266, 23415.665139635224, 92230.29371861146, 187500.0, 0.226, 0.9520000000000001, -0.10200000000000001, 192.0, 0.0, 0.0, 0.0, 0.0, 0.0, 0.0, 0.0, 0.0, 0.0, 1.7296929996726828E9, 0.0, 2024-10-23 19:46:39.672
133.0, 9884.030805114604, 20265.67849703771, 37266.34827451089, 13755.889386640714, 24156.200785184003, 23385.266767176006, 92256.5793700909, 187500.0, 0.226, 0.9520000000000001, -0.10200000000000001, 192.0, 0.0, 0.0, 0.0, 0.0, 0.0, 0.0, 0.0, 0.0, 0.0, 1.7296929996766334E9, 0.0, 2024-10-23 19:46:39.676
134.0, 9879.448697501266, 20265.902014482264, 37276.20539381569, 13769.836875180827, 24167.466064389475, 23428.606799674846, 92271.21976270912, 187500.0, 0.226, 0.9520000000000001, -0.10200000000000001, 192.0, 0.0, 0.0, 0.0, 0.0, 0.0, 0.0, 0.0, 0.0, 0.0, 1.7296929996806576E9, 0.0, 2024-10-23 19:46:39.680
135.0, 9811.432339123767, 20300.92719804373, 37255.66414066126, 13733.112959040756, 24161.341686408723, 23444.45418649366, 92268.00111150756, 187500.0, 0.23, 0.9480000000000001, -0.10200000000000001, 192.0, 7.0, 48.0, 29.0, 160.0, 252.0, 208.0, 0.0, 0.0, 0.0, 1.7296929996857533E9, 0.0, 2024-10-23 19:46:39.685
136.0, 9810.314751901002, 20308.839715580907, 37257.072300561944, 13722.317066468844, 24165.610869599685, 23418.168535014218, 92252.66781481121, 187500.0, 0.23, 0.9480000000000001, -0.10200000000000001, 192.0, 0.0, 0.0, 0.0, 0.0, 0.0, 0.0, 0.0, 0.0, 0.0, 1.7296929996896641E9, 0.0, 2024-10-23 19:46:39.689
137.0, 9862.126095548403, 20283.00109899057, 37282.48623400763, 13751.329630771832, 24182.799361085818, 23452.277297053017, 92238.13918091527, 187500.0, 0.23, 0.9480000000000001, -0.10200000000000001, 192.0, 0.0, 0.0, 0.0, 0.0, 0.0, 0.0, 0.0, 0.0, 0.0, 1.7296929996937132E9, 0.0, 2024-10-23 19:46:39.693
138.0, 9892.524468007621, 20250.546366041468, 37297.70777198169, 13780.141029374723, 24178.97721278396, 23448.6339627068, 92244.77764901849, 187500.0, 0.23, 0.9480000000000001, -0.10200000000000001, 192.0, 0.0, 0.0, 0.0, 0.0, 0.0, 0.0, 0.0, 0.0, 0.0, 1.7296929996977031E9, 0.0, 2024-10-23 19:46:39.697
139.0, 9877.638206200387, 20247.081845650893, 37295.62905974735, 13783.605549765296, 24169.008334756894, 23424.561133928437, 92278.46172791264, 187500.0, 0.23, 0.9480000000000001, -0.10200000000000001, 192.0, 0.0, 0.0, 0.0, 0.0, 0.0, 0.0, 0.0, 0.0, 0.0, 1.7296929997007291E9, 0.0, 2024-10-23 19:46:39.700
140.0, 9816.349722903935, 20298.088526497904, 37283.67087646376, 13756.53758722992, 24173.478683647954, 23454.959506387655, 92277.25473371205, 187500.0, 0.23, 0.9480000000000001, -0.10200000000000001, 192.0, 0.0, 0.0, 0.0, 0.0, 0.0, 0.0, 0.0, 0.0, 0.0, 1.7296929997047312E9, 0.0, 2024-10-23 19:46:39.704
141.0, 9818.495490371644, 20316.5957709069, 37287.13539685433, 13750.882595882726, 24180.474779662465, 23447.337561528395, 92248.84566650935, 187500.0, 0.23, 0.9480000000000001, -0.10200000000000001, 192.0, 0.0, 0.0, 0.0, 0.0, 0.0, 0.0, 0.0, 0.0, 0.0, 1.729692999708762E9, 0.0, 2024-10-23 19:46:39.708
142.0, 9862.506075204145, 20289.81838104944, 37298.601841759904, 13768.607529235785, 24185.459218676, 23432.294837509973, 92248.48803859807, 187500.0, 0.23, 0.9480000000000001, -0.10200000000000001, 192.0, 0.0, 0.0, 0.0, 0.0, 0.0, 0.0, 0.0, 0.0, 0.0, 1.7296929997127757E9, 0.0, 2024-10-23 19:46:39.712
143.0, 9895.161973853346, 20271.422895362724, 37310.492969810126, 13808.01365471049, 24183.425209930567, 23458.714599456143, 92268.31403592993, 187500.0, 0.23, 0.9480000000000001, -0.10200000000000001, 192.0, 0.0, 0.0, 0.0, 0.0, 0.0, 0.0, 0.0, 0.0, 0.0, 1.7296929997177577E9, 0.0, 2024-10-23 19:46:39.717
144.0, 9882.935569636295, 20278.463694866146, 37300.38998131633, 13820.798852538926, 24173.92571853706, 23457.373494788826, 92284.07201577091, 187500.0, 0.23, 0.9480000000000001, -0.10200000000000001, 192.0, 0.0, 0.0, 0.0, 0.0, 0.0, 0.0, 0.0, 0.0, 0.0, 1.7296929997217708E9, 0.0, 2024-10-23 19:46:39.721
145.0, 9820.641257839354, 20333.02430308155, 37281.59216422941, 13788.008843422991, 24188.74492511093, 23473.4891025411, 92271.24211445358, 187500.0, 0.226, 0.9500000000000001, -0.10400000000000001, 192.0, 7.0, 16.0, 29.0, 176.0, 252.0, 192.0, 0.0, 0.0, 0.0, 1.7296929997258267E9, 0.0, 2024-10-23 19:46:39.725
146.0, 9823.65874334082, 20355.398399281312, 37279.80402467299, 13780.67747124165, 24193.058811790805, 23475.344297330892, 92260.75914630403, 187500.0, 0.226, 0.9500000000000001, -0.10400000000000001, 192.0, 0.0, 0.0, 0.0, 0.0, 0.0, 0.0, 0.0, 0.0, 0.0, 1.7296929997298236E9, 0.0, 2024-10-23 19:46:39.729
147.0, 9873.704299176252, 20336.041788583017, 37286.71071370968, 13792.255674869499, 24184.229872730957, 23453.372532531328, 92243.41419260672, 187500.0, 0.226, 0.9500000000000001, -0.10400000000000001, 192.0, 0.0, 0.0, 0.0, 0.0, 0.0, 0.0, 0.0, 0.0, 0.0, 1.729692999733748E9, 0.0, 2024-10-23 19:46:39.733
148.0, 9900.347578566978, 20305.19638123469, 37283.939097397226, 13798.201238894611, 24164.35917191019, 23406.05388951944, 92250.20912292114, 187500.0, 0.226, 0.9500000000000001, -0.10400000000000001, 192.0, 0.0, 0.0, 0.0, 0.0, 0.0, 0.0, 0.0, 0.0, 0.0, 1.729692999736791E9, 0.0, 2024-10-23 19:46:39.736
149.0, 9892.300950563067, 20311.45486968218, 37273.27731529204, 13796.97189294957, 24154.770273538863, 23430.149070042262, 92276.74064358958, 187500.0, 0.226, 0.9500000000000001, -0.10400000000000001, 192.0, 0.0, 0.0, 0.0, 0.0, 0.0, 0.0, 0.0, 0.0, 0.0, 1.7296929997407813E9, 0.0, 2024-10-23 19:46:39.740
