%OpenBCI Raw EXG Data
%Number of channels = 8
%Sample Rate = 250 Hz
%Board = OpenBCI_GUI$BoardCytonSerial
Sample Index, EXG Channel 0, EXG Channel 1, EXG Channel 2, EXG Channel 3, EXG Channel 4, EXG Channel 5, EXG Channel 6, EXG Channel 7, Accel Channel 0, Accel Channel 1, Accel Channel 2, Other, Other, Other, Other, Other, Other, Other, Analog Channel 0, Analog Channel 1, Analog Channel 2, Timestamp, Other, Timestamp (Formatted)
0.0, 0.0, 0.0, 0.0, 0.0, 0.0, 0.0, 0.0, 0.0, 0.096, 0.964, 0.136, 192.0, 3.0, 0.0, 30.0, 32.0, 4.0, 64.0, 0.0, 0.0, 0.0, 1.7297106855124168E9, 0.0, 2024-10-24 00:41:25.512
1.0, -53431.152216333416, -53770.51875239835, -56670.85876117453, -62440.31339172285, -61620.58551556892, -53771.681043110024, -14710.308874882327, 14736.01338100593, 0.096, 0.964, 0.136, 192.0, 0.0, 0.0, 0.0, 0.0, 0.0, 0.0, 0.0, 0.0, 0.0, 1.7297106855294669E9, 0.0, 2024-10-24 00:41:25.529
2.0, -53443.57978625057, -53789.517735185356, -56693.63518877449, -62461.10051406628, -61650.71566709467, -53797.87728761164, -14368.505998671772, 15131.259278209125, 0.096, 0.964, 0.136, 192.0, 0.0, 0.0, 0.0, 0.0, 0.0, 0.0, 0.0, 0.0, 0.0, 1.729710685532424E9, 0.0, 2024-10-24 00:41:25.532
3.0, -53464.568074294104, -53801.78884289132, -56713.79646227318, -62472.43284850512, -61661.511559666586, -53806.97444760495, -14099.949789041257, 15426.90580211947, 0.096, 0.964, 0.136, 192.0, 0.0, 0.0, 0.0, 0.0, 0.0, 0.0, 0.0, 0.0, 0.0, 1.729710685536434E9, 0.0, 2024-10-24 00:41:25.536
4.0, -53466.84795222854, -53786.76847061735, -56705.95099996937, -62453.25505176247, -61633.39306514181, -53780.353519958684, -14338.174681445918, 15140.71406611372, 0.096, 0.964, 0.136, 192.0, 0.0, 0.0, 0.0, 0.0, 0.0, 0.0, 0.0, 0.0, 0.0, 1.729710685539444E9, 0.0, 2024-10-24 00:41:25.539
5.0, -53444.652669984425, -53759.34288017069, -56683.621607258516, -62424.24248745949, -61607.2415241291, -53748.92696725452, -14697.14369739815, 14739.34379092977, 0.096, 0.964, 0.136, 192.0, 0.0, 0.0, 0.0, 0.0, 0.0, 0.0, 0.0, 0.0, 0.0, 1.7297106855434744E9, 0.0, 2024-10-24 00:41:25.543
6.0, -53435.75667569121, -53756.95124351398, -56683.93453168089, -62428.35520843926, -61625.45819586018, -53763.075621494725, -14716.366197629715, 14735.409883905637, 0.096, 0.964, 0.136, 192.0, 0.0, 0.0, 0.0, 0.0, 0.0, 0.0, 0.0, 0.0, 0.0, 1.7297106855474703E9, 0.0, 2024-10-24 00:41:25.547
7.0, -53461.88586495947, -53780.6440926366, -56712.634171561505, -62455.73609539701, -61656.415361930776, -53793.6975113985, -14361.845178824089, 15141.205804491736, 0.096, 0.964, 0.136, 192.0, 0.0, 0.0, 0.0, 0.0, 0.0, 0.0, 0.0, 0.0, 0.0, 1.7297106855519783E9, 0.0, 2024-10-24 00:41:25.551
8.0, -53485.24343791526, -53793.40693872058, -56731.431988648415, -62467.85074089179, -61661.91389106678, -53802.45939522498, -14075.340518395964, 15457.371229812055, 0.10200000000000001, 0.974, 0.088, 192.0, 3.0, 48.0, 30.0, 112.0, 2.0, 192.0, 0.0, 0.0, 0.0, 1.729710685556266E9, 0.0, 2024-10-24 00:41:25.556
9.0, -53479.454336101335, -53779.63826413611, -56716.970409985835, -62449.231737760514, -61631.26964941856, -53772.57511288823, -14324.584820817092, 15161.992926835172, 0.10200000000000001, 0.974, 0.088, 192.0, 0.0, 0.0, 0.0, 0.0, 0.0, 0.0, 0.0, 0.0, 0.0, 1.7297106855596175E9, 0.0, 2024-10-24 00:41:25.559
10.0, -53460.70122250333, -53766.20486571847, -56695.40097658646, -62433.60786838626, -61608.0908904184, -53750.96097599995, -14674.568435498291, 14770.435067467102, 0.10200000000000001, 0.974, 0.088, 192.0, 0.0, 0.0, 0.0, 0.0, 0.0, 0.0, 0.0, 0.0, 0.0, 1.7297106855669453E9, 0.0, 2024-10-24 00:41:25.566
11.0, -53447.42428629688, -53771.345766943195, -56687.91314219393, -62442.257993490464, -61620.76432952456, -53765.06492675125, -14694.640302019156, 14767.194064521083, 0.10200000000000001, 0.974, 0.088, 192.0, 0.0, 0.0, 0.0, 0.0, 0.0, 0.0, 0.0, 0.0, 0.0, 1.7297106855700035E9, 0.0, 2024-10-24 00:41:25.570
12.0, -53461.23766437026, -53798.21256377847, -56709.59433431558, -62470.711764182066, -61651.721495595164, -53797.206735277985, -14345.595460605082, 15166.66444142633, 0.10200000000000001, 0.974, 0.088, 192.0, 0.0, 0.0, 0.0, 0.0, 0.0, 0.0, 0.0, 0.0, 0.0, 1.7297106855716183E9, 0.0, 2024-10-24 00:41:25.571
13.0, -53477.33092037808, -53811.668313940565, -56721.32900015462, -62480.904159653684, -61658.24820497611, -53802.81702313627, -14075.094649206954, 15461.081619391636, 0.10200000000000001, 0.974, 0.088, 192.0, 0.0, 0.0, 0.0, 0.0, 0.0, 0.0, 0.0, 0.0, 0.0, 1.729710685575516E9, 0.0, 2024-10-24 00:41:25.575
14.0, -53474.6710627879, -53799.53131670134, -56706.353331369566, -62462.88865362271, -61629.68267556223, -53776.48666816791, -14306.099928152553, 15181.841275911484, 0.10200000000000001, 0.974, 0.088, 192.0, 0.0, 0.0, 0.0, 0.0, 0.0, 0.0, 0.0, 0.0, 0.0, 1.7297106855796337E9, 0.0, 2024-10-24 00:41:25.579
15.0, -53455.02387941169, -53780.4429269365, -56684.56038052564, -62440.223984745026, -61604.045224671994, -53752.525598111824, -14648.126321807662, 14798.799431180887, 0.10200000000000001, 0.974, 0.088, 192.0, 0.0, 0.0, 0.0, 0.0, 0.0, 0.0, 0.0, 0.0, 0.0, 1.729710685583516E9, 0.0, 2024-10-24 00:41:25.583
16.0, -53433.78972217914, -53775.86081932316, -56672.155162352945, -62438.81582484434, -61613.63412304332, -53759.789915059795, -14684.894941436642, 14778.30288151537, 0.10200000000000001, 0.974, 0.088, 192.0, 0.0, 0.0, 0.0, 0.0, 0.0, 0.0, 0.0, 0.0, 0.0, 1.7297106855885224E9, 0.0, 2024-10-24 00:41:25.588
17.0, -53455.80619046762, -53800.58184869074, -56697.12206090952, -62464.85560713478, -61646.37942867034, -53789.0483485518, -14332.430283120906, 15182.042441611582, 0.10200000000000001, 0.974, 0.088, 192.0, 0.0, 0.0, 0.0, 0.0, 0.0, 0.0, 0.0, 0.0, 0.0, 1.7297106855915585E9, 0.0, 2024-10-24 00:41:25.591
18.0, -53476.190981410866, -53816.02690410935, -56714.48936635129, -62476.61262471827, -61652.548510140005, -53794.971560832455, -14055.045134430544, 15485.266206892278, 0.11, 0.966, 0.068, 192.0, 3.0, 112.0, 30.0, 48.0, 2.0, 32.0, 0.0, 0.0, 0.0, 1.7297106855965312E9, 0.0, 2024-10-24 00:41:25.596
19.0, -53461.72940274828, -53795.93268584403, -56699.46899407733, -62456.07137156384, -61624.4970708486, -53767.434211663516, -14295.862829192023, 15194.917046417839, 0.11, 0.966, 0.068, 192.0, 0.0, 0.0, 0.0, 0.0, 0.0, 0.0, 0.0, 0.0, 0.0, 1.7297106856005387E9, 0.0, 2024-10-24 00:41:25.600
20.0, -53444.920890917885, -53776.017281534354, -56680.64882524596, -62437.720589366036, -61605.69925376168, -53750.02220273283, -14653.7589614104, 14795.469021257046, 0.11, 0.966, 0.068, 192.0, 0.0, 0.0, 0.0, 0.0, 0.0, 0.0, 0.0, 0.0, 0.0, 1.729710685604542E9, 0.0, 2024-10-24 00:41:25.604
21.0, -53432.828597167565, -53777.44779317949, -56677.63133974449, -62445.7895691144, -61622.843041758904, -53769.26705470885, -14665.180702827061, 14801.503992259979, 0.11, 0.966, 0.068, 192.0, 0.0, 0.0, 0.0, 0.0, 0.0, 0.0, 0.0, 0.0, 0.0, 1.7297106856075616E9, 0.0, 2024-10-24 00:41:25.607
22.0, -53450.33001307607, -53799.95599984599, -56700.877153978014, -62470.97998511553, -61653.621393873866, -53801.07358706875, -14311.710216010835, 15206.361139578956, 0.11, 0.966, 0.068, 192.0, 0.0, 0.0, 0.0, 0.0, 0.0, 0.0, 0.0, 0.0, 0.0, 1.7297106856116388E9, 0.0, 2024-10-24 00:41:25.611
23.0, -53476.54860932215, -53814.529337230844, -56721.776035043724, -62484.45808702208, -61665.04313529052, -53812.31651452977, -14032.693389975238, 15509.182573459457, 0.11, 0.966, 0.068, 192.0, 0.0, 0.0, 0.0, 0.0, 0.0, 0.0, 0.0, 0.0, 0.0, 1.7297106856156852E9, 0.0, 2024-10-24 00:41:25.615
24.0, -53468.72549876279, -53790.903543341585, -56707.314456381144, -62458.59711868729, -61635.13650120932, -53779.34769145819, -14276.081535349076, 15217.469956573244, 0.11, 0.966, 0.068, 192.0, 0.0, 0.0, 0.0, 0.0, 0.0, 0.0, 0.0, 0.0, 0.0, 1.7297106856196752E9, 0.0, 2024-10-24 00:41:25.619
25.0, -53448.139542119454, -53766.40603141857, -56686.0802991486, -62433.719627108534, -61608.38146309632, -53752.16797020054, -14641.80077812681, 14808.947123163596, 0.11, 0.966, 0.068, 192.0, 0.0, 0.0, 0.0, 0.0, 0.0, 0.0, 0.0, 0.0, 0.0, 1.729710685623736E9, 0.0, 2024-10-24 00:41:25.623
26.0, -53434.46027451281, -53769.17764773103, -56684.96271192584, -62441.45333069007, -61627.55925983898, -53767.92595004153, -14655.658859689102, 14809.572972008345, 0.11, 0.966, 0.068, 192.0, 0.0, 0.0, 0.0, 0.0, 0.0, 0.0, 0.0, 0.0, 0.0, 1.729710685626546E9, 0.0, 2024-10-24 00:41:25.626
27.0, -53450.374716564984, -53786.90258108408, -56707.02388370322, -62461.480493722025, -61656.21419623068, -53793.20577302048, -14311.754919499746, 15202.315473832545, 0.11, 0.966, 0.068, 192.0, 0.0, 0.0, 0.0, 0.0, 0.0, 0.0, 0.0, 0.0, 0.0, 1.7297106856305826E9, 0.0, 2024-10-24 00:41:25.630
28.0, -53475.05104244364, -53796.26796201086, -56726.62636359053, -62469.54947347039, -61666.27248123557, -53800.98418009093, -14053.525215807584, 15484.997985958815, 0.116, 0.962, 0.054, 192.0, 3.0, 160.0, 30.0, 16.0, 1.0, 176.0, 0.0, 0.0, 0.0, 1.7297106856345577E9, 0.0, 2024-10-24 00:41:25.634
29.0, -53473.57582730959, -53772.105726254675, -56712.924744239426, -62445.5884034143, -61634.06361747547, -53772.999796032884, -14282.518837752204, 15209.19981112478, 0.116, 0.962, 0.054, 192.0, 0.0, 0.0, 0.0, 0.0, 0.0, 0.0, 0.0, 0.0, 0.0, 1.7297106856443417E9, 0.0, 2024-10-24 00:41:25.644
30.0, -53453.660422999914, -53749.26224342135, -56690.03655791719, -62423.035493258896, -61612.60594279837, -53751.31860391124, -14621.08071101674, 14829.801300740399, 0.116, 0.962, 0.054, 192.0, 0.0, 0.0, 0.0, 0.0, 0.0, 0.0, 0.0, 0.0, 0.0, 1.7297106856443632E9, 0.0, 2024-10-24 00:41:25.644
31.0, -53435.57786173557, -53744.92600499702, -56678.9277409229, -62425.270667704426, -61623.334780136924, -53763.3885459171, -14617.03504527033, 14850.32020215037, 0.116, 0.962, 0.054, 192.0, 0.0, 0.0, 0.0, 0.0, 0.0, 0.0, 0.0, 0.0, 0.0, 1.729710685647575E9, 0.0, 2024-10-24 00:41:25.647
32.0, -53448.407763052914, -53759.521694126335, -56692.20467712935, -62444.15789176916, -61643.4513501467, -53784.77916536083, -14269.599529457037, 15245.58845109802, 0.116, 0.962, 0.054, 192.0, 0.0, 0.0, 0.0, 0.0, 0.0, 0.0, 0.0, 0.0, 0.0, 1.7297106856516876E9, 0.0, 2024-10-24 00:41:25.651
33.0, -53465.79742023914, -53771.41282217656, -56704.05110169067, -62455.44552271909, -61648.9498792827, -53793.83162186523, -14000.328064003954, 15536.36229471711, 0.116, 0.962, 0.054, 192.0, 0.0, 0.0, 0.0, 0.0, 0.0, 0.0, 0.0, 0.0, 0.0, 1.7297106856656709E9, 0.0, 2024-10-24 00:41:25.665
34.0, -53456.16381837891, -53753.26320567885, -56684.806249714646, -62434.05490327536, -61614.90817247727, -53761.80157206077, -14276.930901638378, 15210.026825669627, 0.116, 0.962, 0.054, 192.0, 0.0, 0.0, 0.0, 0.0, 0.0, 0.0, 0.0, 0.0, 0.0, 1.729710685665716E9, 0.0, 2024-10-24 00:41:25.665
35.0, -53436.896614658435, -53738.198129915974, -56662.25333955924, -62419.056882745856, -61593.80812571146, -53741.21561541744, -14633.642391400623, 14809.841192941809, 0.116, 0.962, 0.054, 192.0, 0.0, 0.0, 0.0, 0.0, 0.0, 0.0, 0.0, 0.0, 0.0, 1.729710685665732E9, 0.0, 2024-10-24 00:41:25.665
36.0, -53425.00548660821, -53743.786066029796, -56659.30290929114, -62431.52915615191, -61615.2434486441, -53765.042575006795, -14620.544269149814, 14839.636068300733, 0.116, 0.962, 0.054, 192.0, 0.0, 0.0, 0.0, 0.0, 0.0, 0.0, 0.0, 0.0, 0.0, 1.729710685667585E9, 0.0, 2024-10-24 00:41:25.667
37.0, -53444.00446939522, -53769.6917378535, -56675.95495891035, -62458.99945008749, -61643.51840538006, -53795.44094746601, -14252.746314137736, 15259.06655300457, 0.116, 0.962, 0.054, 192.0, 0.0, 0.0, 0.0, 0.0, 0.0, 0.0, 0.0, 0.0, 0.0, 1.7297106856717508E9, 0.0, 2024-10-24 00:41:25.671
38.0, -53459.02484166919, -53782.45458393748, -56685.49915379276, -62468.99067985901, -61648.27932694904, -53801.185345791026, -13984.793601607515, 15553.237861780866, 0.11, 0.966, 0.048, 192.0, 3.0, 112.0, 30.0, 48.0, 1.0, 128.0, 0.0, 0.0, 0.0, 1.7297106856755764E9, 0.0, 2024-10-24 00:41:25.675
39.0, -53447.42428629688, -53763.52265638384, -56666.16489483892, -62445.23077550302, -61615.62342829984, -53767.50126689688, -14237.301258719119, 15251.891643034416, 0.11, 0.966, 0.048, 192.0, 0.0, 0.0, 0.0, 0.0, 0.0, 0.0, 0.0, 0.0, 0.0, 1.7297106856796386E9, 0.0, 2024-10-24 00:41:25.679
40.0, -53427.53123373166, -53745.70831605296, -56646.22713878479, -62427.61760087223, -61594.00929141156, -53745.21657767494, -14585.943768732997, 14859.774990054964, 0.11, 0.966, 0.048, 192.0, 0.0, 0.0, 0.0, 0.0, 0.0, 0.0, 0.0, 0.0, 0.0, 1.7297106856825993E9, 0.0, 2024-10-24 00:41:25.682
41.0, -53410.186280034344, -53742.333202640206, -56639.65572591493, -62431.0374177739, -61603.352320593876, -53755.49838012438, -14605.546248620303, 14854.969364997074, 0.11, 0.966, 0.048, 192.0, 0.0, 0.0, 0.0, 0.0, 0.0, 0.0, 0.0, 0.0, 0.0, 1.729710685686596E9, 0.0, 2024-10-24 00:41:25.686
42.0, -53432.33685878955, -53767.769487830345, -56666.0754878611, -62458.954746598574, -61634.95768725368, -53785.807345605775, -14263.318689265096, 15245.767265053662, 0.11, 0.966, 0.048, 192.0, 0.0, 0.0, 0.0, 0.0, 0.0, 0.0, 0.0, 0.0, 0.0, 1.729710685690666E9, 0.0, 2024-10-24 00:41:25.690
43.0, -53463.316376604605, -53789.07070029625, -56691.087089906585, -62476.746735185, -61651.18505372824, -53798.61489517867, -13983.318386473464, 15550.242728023855, 0.11, 0.966, 0.048, 192.0, 0.0, 0.0, 0.0, 0.0, 0.0, 0.0, 0.0, 0.0, 0.0, 1.7297106856946237E9, 0.0, 2024-10-24 00:41:25.694
44.0, -53457.303757346126, -53771.07754600973, -56679.57594151211, -62455.73609539701, -61623.78181502603, -53769.84820006468, -14222.504403889705, 15262.016983272671, 0.11, 0.966, 0.048, 192.0, 0.0, 0.0, 0.0, 0.0, 0.0, 0.0, 0.0, 0.0, 0.0, 1.729710685699653E9, 0.0, 2024-10-24 00:41:25.699
45.0, -53440.383486793464, -53752.86087427865, -56660.755772680735, -62435.73128410951, -61601.27360835953, -53748.614042832145, -14580.221722152439, 14861.94310926713, 0.11, 0.966, 0.048, 192.0, 0.0, 0.0, 0.0, 0.0, 0.0, 0.0, 0.0, 0.0, 0.0, 1.7297106857036371E9, 0.0, 2024-10-24 00:41:25.703
46.0, -53422.412684251394, -53751.83269403371, -56654.050249344145, -62438.50290042197, -61613.92469572124, -53763.50030463938, -14601.83585904072, 14858.299774920915, 0.11, 0.966, 0.048, 192.0, 0.0, 0.0, 0.0, 0.0, 0.0, 0.0, 0.0, 0.0, 0.0, 1.7297106857076337E9, 0.0, 2024-10-24 00:41:25.707
47.0, -53437.63422222546, -53769.62468262013, -56675.06088913213, -62458.239490776, -61640.27740243405, -53789.38362471863, -14256.322593250585, 15256.473750647754, 0.11, 0.966, 0.048, 192.0, 0.0, 0.0, 0.0, 0.0, 0.0, 0.0, 0.0, 0.0, 0.0, 1.7297106857106173E9, 0.0, 2024-10-24 00:41:25.710
48.0, -53457.32610909058, -53775.48083966743, -56691.377662584506, -62461.07816232183, -61647.49701589311, -53791.77526137534, -14012.688578687737, 15526.192250989945, 0.116, 0.97, 0.042, 192.0, 3.0, 160.0, 30.0, 80.0, 1.0, 80.0, 0.0, 0.0, 0.0, 1.7297106857146623E9, 0.0, 2024-10-24 00:41:25.714
49.0, -53452.05109739913, -53758.24764469238, -56680.961749668335, -62439.64283938919, -61625.86052726037, -53764.10380173967, -14262.20110204233, 15225.315418877057, 0.116, 0.97, 0.042, 192.0, 0.0, 0.0, 0.0, 0.0, 0.0, 0.0, 0.0, 0.0, 0.0, 1.729710685718671E9, 0.0, 2024-10-24 00:41:25.718
50.0, -53438.215367581295, -53741.550891584266, -56664.44381051586, -62421.917906036135, -61608.82849798543, -53745.954185241964, -14598.728966561433, 14844.329934636347, 0.116, 0.97, 0.042, 192.0, 0.0, 0.0, 0.0, 0.0, 0.0, 0.0, 0.0, 0.0, 0.0, 1.7297106857226603E9, 0.0, 2024-10-24 00:41:25.722
51.0, -53425.966611619784, -53744.12134219663, -56660.80047616965, -62430.97036254053, -61624.20649817068, -53766.27192095184, -14607.736719576922, 14852.153045195706, 0.116, 0.97, 0.042, 192.0, 0.0, 0.0, 0.0, 0.0, 0.0, 0.0, 0.0, 0.0, 0.0, 1.7297106857276583E9, 0.0, 2024-10-24 00:41:25.727
52.0, -53444.74207696225, -53764.416726162046, -56682.41461305793, -62454.484397707514, -61654.04607701852, -53795.105671299185, -14271.164151568908, 15239.933459750828, 0.116, 0.97, 0.042, 192.0, 0.0, 0.0, 0.0, 0.0, 0.0, 0.0, 0.0, 0.0, 0.0, 1.7297106857317111E9, 0.0, 2024-10-24 00:41:25.731
53.0, -53468.211408640316, -53776.48666816791, -56698.59727604357, -62464.006240845476, -61660.72924861065, -53801.9006016136, -13981.284377728032, 15554.154283303535, 0.116, 0.97, 0.042, 192.0, 0.0, 0.0, 0.0, 0.0, 0.0, 0.0, 0.0, 0.0, 0.0, 1.729710685735701E9, 0.0, 2024-10-24 00:41:25.735
54.0, -53464.05398417163, -53755.23015919091, -56682.79459271367, -62440.31339172285, -61629.61562032886, -53771.27871170983, -14217.452909642805, 15267.649622875408, 0.116, 0.97, 0.042, 192.0, 0.0, 0.0, 0.0, 0.0, 0.0, 0.0, 0.0, 0.0, 0.0, 1.729710685738796E9, 0.0, 2024-10-24 00:41:25.738
55.0, -53431.97923087826, -53727.04460943277, -56655.436057500374, -62412.97720825401, -61601.83240197092, -53742.55672008476, -14585.094402443696, 14857.94214700963, 0.116, 0.97, 0.042, 192.0, 0.0, 0.0, 0.0, 0.0, 0.0, 0.0, 0.0, 0.0, 0.0, 1.729710685742727E9, 0.0, 2024-10-24 00:41:25.742
56.0, -53418.70229467181, -53724.92119370952, -56649.40108649744, -62418.38633041219, -61616.0928149334, -53759.946377270986, -14589.587103079213, 14871.196731471628, 0.116, 0.97, 0.042, 192.0, 0.0, 0.0, 0.0, 0.0, 0.0, 0.0, 0.0, 0.0, 0.0, 1.7297106857467136E9, 0.0, 2024-10-24 00:41:25.746
57.0, -53434.72849544627, -53740.232138661406, -56667.14837159495, -62437.11709226574, -61637.37167565485, -53780.80055484779, -14251.226395514776, 15261.413486172378, 0.116, 0.97, 0.042, 192.0, 0.0, 0.0, 0.0, 0.0, 0.0, 0.0, 0.0, 0.0, 0.0, 1.729710685752699E9, 0.0, 2024-10-24 00:41:25.752
58.0, -53452.16285612141, -53747.02706897582, -56680.470011290316, -62442.526214423924, -61639.60685010038, -53779.54885715829, -14011.123956575866, 15527.801576590728, 0.114, 0.972, 0.04, 192.0, 3.0, 144.0, 30.0, 96.0, 1.0, 64.0, 0.0, 0.0, 0.0, 1.7297106857557304E9, 0.0, 2024-10-24 00:41:25.755
59.0, -53454.82271371159, -53735.65003104807, -56675.73144146579, -62431.238583474, -61620.71962603565, -53759.76756331534, -14250.824064114579, 15239.933459750828, 0.114, 0.972, 0.04, 192.0, 0.0, 0.0, 0.0, 0.0, 0.0, 0.0, 0.0, 0.0, 0.0, 1.729710685759724E9, 0.0, 2024-10-24 00:41:25.759
60.0, -53437.25424256972, -53721.45667331895, -56661.046345358656, -62416.50878387795, -61601.385367081806, -53740.12037993913, -14580.914626230555, 14866.882844791753, 0.114, 0.972, 0.04, 192.0, 0.0, 0.0, 0.0, 0.0, 0.0, 0.0, 0.0, 0.0, 0.0, 1.7297106857638075E9, 0.0, 2024-10-24 00:41:25.763
61.0, -53422.77031216268, -53722.90953670854, -56655.19018831137, -62421.761443824944, -61611.48835557561, -53751.1844934445, -14593.208085680973, 14871.509655894, 0.114, 0.972, 0.04, 192.0, 0.0, 0.0, 0.0, 0.0, 0.0, 0.0, 0.0, 0.0, 0.0, 1.7297106857667272E9, 0.0, 2024-10-24 00:41:25.766
62.0, -53439.757637948715, -53744.07663870772, -56676.44669728836, -62446.370714470235, -61639.31627742246, -53777.000758290385, -14253.193349026842, 15263.268680962168, 0.114, 0.972, 0.04, 192.0, 0.0, 0.0, 0.0, 0.0, 0.0, 0.0, 0.0, 0.0, 0.0, 1.7297106857709553E9, 0.0, 2024-10-24 00:41:25.770
63.0, -53463.7187080048, -53763.54500812829, -56697.56909579863, -62463.64861293419, -61649.799245572, -53788.71307238496, -13973.125991001843, 15570.404001522542, 0.114, 0.972, 0.04, 192.0, 0.0, 0.0, 0.0, 0.0, 0.0, 0.0, 0.0, 0.0, 0.0, 1.7297106857748215E9, 0.0, 2024-10-24 00:41:25.774
64.0, -53454.59919626704, -53745.79772303077, -56680.24649384576, -62440.91688882314, -61615.2434486441, -53757.01829874734, -14215.061272986088, 15279.227826503256, 0.114, 0.972, 0.04, 192.0, 0.0, 0.0, 0.0, 0.0, 0.0, 0.0, 0.0, 0.0, 0.0, 1.7297106857787893E9, 0.0, 2024-10-24 00:41:25.778
65.0, -53435.80137918012, -53728.20690014445, -56660.24168255826, -62422.901382792166, -61594.83630595641, -53737.572281071225, -14579.037079696309, 14873.700126850621, 0.114, 0.972, 0.04, 192.0, 0.0, 0.0, 0.0, 0.0, 0.0, 0.0, 0.0, 0.0, 0.0, 1.7297106857847874E9, 0.0, 2024-10-24 00:41:25.784
66.0, -53427.62064070948, -53736.365286870634, -56660.71106919183, -62434.8372143313, -61615.62342829984, -53759.76756331534, -14579.148838418585, 14892.430888704168, 0.114, 0.972, 0.04, 192.0, 0.0, 0.0, 0.0, 0.0, 0.0, 0.0, 0.0, 0.0, 0.0, 1.7297106857878084E9, 0.0, 2024-10-24 00:41:25.787
67.0, -53449.83827469806, -53763.142676728094, -56686.79555497117, -62463.38039200073, -61646.602946114894, -53791.90937184208, -14215.709473575293, 15305.088794838048, 0.114, 0.972, 0.04, 192.0, 0.0, 0.0, 0.0, 0.0, 0.0, 0.0, 0.0, 0.0, 0.0, 1.7297106857918515E9, 0.0, 2024-10-24 00:41:25.791
68.0, -53469.261940629716, -53777.85012457969, -56701.368892356026, -62473.41632526116, -61653.42022817377, -53798.90546785659, -13959.804351306482, 15584.440897040475, 0.11800000000000001, 0.974, 0.034, 192.0, 3.0, 176.0, 30.0, 112.0, 1.0, 16.0, 0.0, 0.0, 0.0, 1.7297106857948492E9, 0.0, 2024-10-24 00:41:25.794
69.0, -53455.11328638951, -53756.21363594695, -56680.26884559022, -62447.64476390419, -61620.00437021308, -53765.243740706894, -14223.040845756632, 15272.030564788649, 0.11800000000000001, 0.974, 0.034, 192.0, 0.0, 0.0, 0.0, 0.0, 0.0, 0.0, 0.0, 0.0, 0.0, 1.729710685798768E9, 0.0, 2024-10-24 00:41:25.798
70.0, -53434.929661146365, -53736.20882465945, -56659.079391846586, -62426.61177237175, -61598.032605413515, -53741.81911251773, -14580.512294830358, 14871.196731471628, 0.11800000000000001, 0.974, 0.034, 192.0, 0.0, 0.0, 0.0, 0.0, 0.0, 0.0, 0.0, 0.0, 0.0, 1.7297106858047993E9, 0.0, 2024-10-24 00:41:25.804
71.0, -53423.396161007426, -53738.7345717829, -56655.83838890057, -62432.87026081923, -61615.53402132202, -53755.52073186883, -14585.832010010721, 14881.299719965426, 0.11800000000000001, 0.974, 0.034, 192.0, 0.0, 0.0, 0.0, 0.0, 0.0, 0.0, 0.0, 0.0, 0.0, 1.729710685807803E9, 0.0, 2024-10-24 00:41:25.807
72.0, -53447.580748508066, -53767.30010119678, -56685.856781704046, -62463.53685421191, -61653.42022817377, -53791.194116019506, -14232.182709238854, 15285.195742272825, 0.11800000000000001, 0.974, 0.034, 192.0, 0.0, 0.0, 0.0, 0.0, 0.0, 0.0, 0.0, 0.0, 0.0, 1.7297106858108945E9, 0.0, 2024-10-24 00:41:25.810
73.0, -53468.43492608487, -53776.55372340128, -56701.21243014484, -62470.60000545979, -61658.15879799829, -53798.05610156729, -13982.29020622852, 15559.228129294888, 0.11800000000000001, 0.974, 0.034, 192.0, 0.0, 0.0, 0.0, 0.0, 0.0, 0.0, 0.0, 0.0, 0.0, 1.7297106858157947E9, 0.0, 2024-10-24 00:41:25.815
74.0, -53464.74688824975, -53760.10283948217, -56686.86261020454, -62449.11997903824, -61625.18997492671, -53771.85985706566, -14218.257572443197, 15273.014041544682, 0.11800000000000001, 0.974, 0.034, 192.0, 0.0, 0.0, 0.0, 0.0, 0.0, 0.0, 0.0, 0.0, 0.0, 1.7297106858198016E9, 0.0, 2024-10-24 00:41:25.819
75.0, -53448.51952177519, -53741.34972588417, -56666.65663321694, -62428.623429372725, -61605.00634968357, -53750.17866494402, -14564.150817889074, 14884.630129889267, 0.11800000000000001, 0.974, 0.034, 192.0, 0.0, 0.0, 0.0, 0.0, 0.0, 0.0, 0.0, 0.0, 0.0, 1.7297106858228278E9, 0.0, 2024-10-24 00:41:25.822
76.0, -53434.88495765746, -53739.941565983485, -56661.60513897004, -62432.91496430814, -61620.00437021308, -53762.29331043879, -14566.944785945987, 14900.656330663722, 0.11800000000000001, 0.974, 0.034, 192.0, 0.0, 0.0, 0.0, 0.0, 0.0, 0.0, 0.0, 0.0, 0.0, 1.7297106858267975E9, 0.0, 2024-10-24 00:41:25.826
77.0, -53450.55353052063, -53763.857932550665, -56681.07350839061, -62456.40664773067, -61645.93239378124, -53789.60714216318, -14218.19051720983, 15300.238466291246, 0.11800000000000001, 0.974, 0.034, 192.0, 0.0, 0.0, 0.0, 0.0, 0.0, 0.0, 0.0, 0.0, 0.0, 1.7297106858308227E9, 0.0, 2024-10-24 00:41:25.830
78.0, -53469.44075458536, -53777.44779317949, -56694.797479486166, -62465.23558679051, -61651.18505372824, -53794.479822454436, -13967.180426976733, 15572.303899801243, 0.11800000000000001, 0.974, 0.03, 192.0, 3.0, 176.0, 30.0, 112.0, 0.0, 240.0, 0.0, 0.0, 0.0, 1.7297106858348176E9, 0.0, 2024-10-24 00:41:25.834
79.0, -53467.74202200676, -53760.95220577147, -56681.095860135065, -62446.88480459271, -61624.98880922661, -53767.9930052749, -14220.515098633183, 15269.326003709557, 0.11800000000000001, 0.974, 0.03, 192.0, 0.0, 0.0, 0.0, 0.0, 0.0, 0.0, 0.0, 0.0, 0.0, 1.7297106858388145E9, 0.0, 2024-10-24 00:41:25.838
80.0, -53449.48064678677, -53738.44399910498, -56658.945281379856, -62427.0364555164, -61602.05591941547, -53744.79189453029, -14561.625070765624, 14887.46880143509, 0.11800000000000001, 0.974, 0.03, 192.0, 0.0, 0.0, 0.0, 0.0, 0.0, 0.0, 0.0, 0.0, 0.0, 1.7297106858438358E9, 0.0, 2024-10-24 00:41:25.843
81.0, -53432.60507972301, -53734.95712696995, -56650.5186737202, -62432.37852244121, -61615.42226259974, -53760.572226115735, -14571.50454181487, 14894.6660631497, 0.11800000000000001, 0.974, 0.03, 192.0, 0.0, 0.0, 0.0, 0.0, 0.0, 0.0, 0.0, 0.0, 0.0, 1.7297106858481152E9, 0.0, 2024-10-24 00:41:25.848
82.0, -53452.05109739913, -53757.93472027001, -56673.45156353135, -62460.295851265895, -61645.75357982559, -53792.06583405326, -14226.080683002554, 15289.397870230421, 0.11800000000000001, 0.974, 0.03, 192.0, 0.0, 0.0, 0.0, 0.0, 0.0, 0.0, 0.0, 0.0, 0.0, 1.7297106858508573E9, 0.0, 2024-10-24 00:41:25.850
83.0, -53477.509734333726, -53772.88803731061, -56692.74111899628, -62472.231682805024, -61655.208367730185, -53797.273790511346, -13957.345659416398, 15580.75285920535, 0.11800000000000001, 0.974, 0.03, 192.0, 0.0, 0.0, 0.0, 0.0, 0.0, 0.0, 0.0, 0.0, 0.0, 1.7297106858548489E9, 0.0, 2024-10-24 00:41:25.854
84.0, -53466.82560048409, -53751.72093531143, -56676.22317984381, -62447.35419122627, -61619.490280090606, -53761.66746159404, -14224.225488212764, 15264.073343762559, 0.11800000000000001, 0.974, 0.03, 192.0, 0.0, 0.0, 0.0, 0.0, 0.0, 0.0, 0.0, 0.0, 0.0, 1.7297106858589025E9, 0.0, 2024-10-24 00:41:25.858
85.0, -53452.43107705487, -53738.86868224963, -56661.26986280321, -62434.97132479803, -61600.31248334795, -53745.618909075136, -14569.448181324982, 14876.270577462981, 0.11800000000000001, 0.974, 0.03, 192.0, 0.0, 0.0, 0.0, 0.0, 0.0, 0.0, 0.0, 0.0, 0.0, 1.7297106858628733E9, 0.0, 2024-10-24 00:41:25.862
86.0, -53441.925757160876, -53741.617946817634, -56660.889883147465, -62445.16372026965, -61619.46792834615, -53763.94733952849, -14562.139160888097, 14900.477516708079, 0.11800000000000001, 0.974, 0.03, 192.0, 0.0, 0.0, 0.0, 0.0, 0.0, 0.0, 0.0, 0.0, 0.0, 1.7297106858668709E9, 0.0, 2024-10-24 00:41:25.866
87.0, -53454.06275440011, -53759.789915059795, -56680.87234269051, -62467.157836813676, -61646.24531820361, -53790.07652879674, -14216.469432886772, 15297.422146489876, 0.11800000000000001, 0.974, 0.03, 192.0, 0.0, 0.0, 0.0, 0.0, 0.0, 0.0, 0.0, 0.0, 0.0, 1.729710685871847E9, 0.0, 2024-10-24 00:41:25.871
88.0, -53476.593312811056, -53773.983272788915, -56699.58075279961, -62479.76422068647, -61656.52712065305, -53801.520621957854, -13964.229996708633, 15573.779114935294, 0.116, 0.972, 0.036000000000000004, 192.0, 3.0, 160.0, 30.0, 96.0, 1.0, 32.0, 0.0, 0.0, 0.0, 1.729710685875944E9, 0.0, 2024-10-24 00:41:25.875
89.0, -53468.278463873685, -53753.30790916776, -56682.03463340219, -62457.010144830965, -61625.994637727104, -53772.68687161051, -14236.250726729719, 15252.91982327936, 0.116, 0.972, 0.036000000000000004, 192.0, 0.0, 0.0, 0.0, 0.0, 0.0, 0.0, 0.0, 0.0, 0.0, 1.7297106858791068E9, 0.0, 2024-10-24 00:41:25.879
90.0, -53447.98307990826, -53735.314754881234, -56663.57209248211, -62439.173452755625, -61606.81684098445, -53751.7879905448, -14599.064242728264, 14848.17443468266, 0.116, 0.972, 0.036000000000000004, 192.0, 0.0, 0.0, 0.0, 0.0, 0.0, 0.0, 0.0, 0.0, 0.0, 1.729710685882882E9, 0.0, 2024-10-24 00:41:25.882
91.0, -53432.22510006728, -53737.77344677132, -56659.414668013414, -62446.61658365925, -61621.23371615812, -53768.86472330865, -14617.951466792998, 14849.180263183149, 0.116, 0.972, 0.036000000000000004, 192.0, 0.0, 0.0, 0.0, 0.0, 0.0, 0.0, 0.0, 0.0, 0.0, 1.7297106858869245E9, 0.0, 2024-10-24 00:41:25.886
92.0, -53461.349423092535, -53767.65772910807, -56689.92479919491, -62477.909025896675, -61659.611661387884, -53804.605162692686, -14260.815293886102, 15257.501930892699, 0.116, 0.972, 0.036000000000000004, 192.0, 0.0, 0.0, 0.0, 0.0, 0.0, 0.0, 0.0, 0.0, 0.0, 1.7297106858909187E9, 0.0, 2024-10-24 00:41:25.890
93.0, -53484.01409197022, -53782.00754904837, -56706.04040694719, -62488.101421368294, -61665.57957715745, -53810.57307846226, -13989.979206321146, 15550.756818146327, 0.116, 0.972, 0.036000000000000004, 192.0, 0.0, 0.0, 0.0, 0.0, 0.0, 0.0, 0.0, 0.0, 0.0, 1.7297106858949108E9, 0.0, 2024-10-24 00:41:25.894
94.0, -53474.693414532354, -53761.063964493755, -56688.36017708304, -62464.900310623685, -61633.683637819726, -53778.56538040226, -14229.969886537778, 15260.005326271694, 0.116, 0.972, 0.036000000000000004, 192.0, 0.0, 0.0, 0.0, 0.0, 0.0, 0.0, 0.0, 0.0, 0.0, 1.7297106858999271E9, 0.0, 2024-10-24 00:41:25.899
95.0, -53453.615719511, -53743.27197590733, -56668.377717539996, -62446.236604003505, -61612.96357070966, -53758.180589459014, -14569.090553413696, 14880.875036820775, 0.116, 0.972, 0.036000000000000004, 192.0, 0.0, 0.0, 0.0, 0.0, 0.0, 0.0, 0.0, 0.0, 0.0, 1.7297106859039123E9, 0.0, 2024-10-24 00:41:25.903
96.0, -53440.98698389375, -53745.39539163058, -56665.33788029407, -62453.27740350693, -61628.54273659501, -53773.8938658111, -14553.35492531716, 14916.816641904908, 0.116, 0.972, 0.036000000000000004, 192.0, 0.0, 0.0, 0.0, 0.0, 0.0, 0.0, 0.0, 0.0, 0.0, 1.7297106859079115E9, 0.0, 2024-10-24 00:41:25.907
97.0, -53459.65069051393, -53767.3895081746, -56687.46610730483, -62476.791438673914, -61656.28125146405, -53801.85589812469, -14188.865028484468, 15333.3190480851, 0.116, 0.972, 0.036000000000000004, 192.0, 0.0, 0.0, 0.0, 0.0, 0.0, 0.0, 0.0, 0.0, 0.0, 1.7297106859109547E9, 0.0, 2024-10-24 00:41:25.910
98.0, -53476.72742327779, -53774.07267976674, -56700.22895338881, -62481.194732331605, -61660.99746954411, -53804.538107459324, -13948.315554656454, 15596.823763468716, 0.11800000000000001, 0.976, 0.036000000000000004, 192.0, 3.0, 176.0, 30.0, 128.0, 1.0, 32.0, 0.0, 0.0, 0.0, 1.7297106859149754E9, 0.0, 2024-10-24 00:41:25.914
99.0, -53462.37760333748, -53749.932795755005, -56680.470011290316, -62451.86924360624, -61627.603963327885, -53769.64703436459, -14221.38681666694, 15273.237558989234, 0.11800000000000001, 0.976, 0.036000000000000004, 192.0, 0.0, 0.0, 0.0, 0.0, 0.0, 0.0, 0.0, 0.0, 0.0, 1.7297106859189572E9, 0.0, 2024-10-24 00:41:25.918
100.0, -53444.920890917885, -53733.12428392462, -56659.74994418025, -62432.69144686359, -61604.06757641645, -53749.82103703273, -14571.862169726155, 14877.18699898565, 0.11800000000000001, 0.976, 0.036000000000000004, 192.0, 0.0, 0.0, 0.0, 0.0, 0.0, 0.0, 0.0, 0.0, 0.0, 1.7297106859229603E9, 0.0, 2024-10-24 00:41:25.922
101.0, -53431.9121756449, -53731.40319960156, -56651.92683362089, -62434.36782769774, -61617.65743704527, -53761.57805461622, -14576.220759894939, 14888.362871213303, 0.11800000000000001, 0.976, 0.036000000000000004, 192.0, 0.0, 0.0, 0.0, 0.0, 0.0, 0.0, 0.0, 0.0, 0.0, 1.7297106859270062E9, 0.0, 2024-10-24 00:41:25.927
102.0, -53450.933510176365, -53753.33026091222, -56671.35049955255, -62456.29488900839, -61645.574765869955, -53789.11540378516, -14235.468415673784, 15277.462038691288, 0.11800000000000001, 0.976, 0.036000000000000004, 192.0, 0.0, 0.0, 0.0, 0.0, 0.0, 0.0, 0.0, 0.0, 0.0, 1.729710685932011E9, 0.0, 2024-10-24 00:41:25.932
103.0, -53474.358138365526, -53761.84627554969, -56687.46610730483, -62464.43092399013, -61653.08495200693, -53794.88215385463, -13981.127915516845, 15553.349620503142, 0.11800000000000001, 0.976, 0.036000000000000004, 192.0, 0.0, 0.0, 0.0, 0.0, 0.0, 0.0, 0.0, 0.0, 0.0, 1.7297106859349847E9, 0.0, 2024-10-24 00:41:25.934
104.0, -53470.58069355258, -53741.126208439615, -56673.183342597884, -62442.36975221274, -61625.368788882355, -53765.0872784957, -14230.953363293811, 15251.44460814531, 0.11800000000000001, 0.976, 0.036000000000000004, 192.0, 0.0, 0.0, 0.0, 0.0, 0.0, 0.0, 0.0, 0.0, 0.0, 1.7297106859389951E9, 0.0, 2024-10-24 00:41:25.938
105.0, -53448.67598398638, -53717.18749012798, -56647.85881613002, -62419.392158912684, -61598.50199204707, -53740.500359594866, -14571.951576703976, 14867.016955258485, 0.11800000000000001, 0.976, 0.036000000000000004, 192.0, 0.0, 0.0, 0.0, 0.0, 0.0, 0.0, 0.0, 0.0, 0.0, 1.7297106859429796E9, 0.0, 2024-10-24 00:41:25.942
106.0, -53430.36990527748, -53709.92317318001, -56638.33697299207, -62420.62150485772, -61609.58845729691, -53750.51394111085, -14569.671698769534, 14888.5640369134, 0.11800000000000001, 0.976, 0.036000000000000004, 192.0, 0.0, 0.0, 0.0, 0.0, 0.0, 0.0, 0.0, 0.0, 0.0, 1.7297106859469788E9, 0.0, 2024-10-24 00:41:25.946
107.0, -53446.37375430748, -53728.743342011374, -56661.0239936142, -62444.292002235896, -61639.78566405603, -53777.559551901766, -14217.29644743162, 15293.242370276736, 0.11800000000000001, 0.976, 0.036000000000000004, 192.0, 0.0, 0.0, 0.0, 0.0, 0.0, 0.0, 0.0, 0.0, 0.0, 1.7297106859509845E9, 0.0, 2024-10-24 00:41:25.950
108.0, -53473.642882542954, -53746.222406175424, -56683.55455202515, -62461.88282512222, -61651.945013039716, -53790.38945321911, -13942.213528420154, 15594.409775067543, 0.11800000000000001, 0.976, 0.036000000000000004, 192.0, 0.0, 0.0, 0.0, 0.0, 0.0, 0.0, 0.0, 0.0, 0.0, 1.7297106859550214E9, 0.0, 2024-10-24 00:41:25.955
109.0, -53461.88586495947, -53721.903708208054, -56664.466162260316, -62437.60883064376, -61615.6904835332, -53757.577092358726, -14218.324627676562, 15273.081096778047, 0.12, 0.976, 0.046, 192.0, 3.0, 192.0, 30.0, 128.0, 1.0, 112.0, 0.0, 0.0, 0.0, 1.7297106859603405E9, 0.0, 2024-10-24 00:41:25.960
110.0, -53448.25130084173, -53708.11268187913, -56650.85394988704, -62425.87416480472, -61600.71481474815, -53743.80841777426, -14585.31791988825, 14864.7594290685, 0.12, 0.976, 0.046, 192.0, 0.0, 0.0, 0.0, 0.0, 0.0, 0.0, 0.0, 0.0, 0.0, 1.7297106859634895E9, 0.0, 2024-10-24 00:41:25.963
111.0, -53441.25520482722, -53712.8288999592, -56652.06094408762, -62436.22302248753, -61620.67492254674, -53764.550836628776, -14576.243111639395, 14891.983853815062, 0.12, 0.976, 0.046, 192.0, 0.0, 0.0, 0.0, 0.0, 0.0, 0.0, 0.0, 0.0, 0.0, 1.729710685967059E9, 0.0, 2024-10-24 00:41:25.967
112.0, -53461.43883007036, -53738.756923527355, -56678.25718858924, -62463.38039200073, -61653.464931662675, -53796.37972073314, -14211.753214806702, 15306.161678571902, 0.12, 0.976, 0.046, 192.0, 0.0, 0.0, 0.0, 0.0, 0.0, 0.0, 0.0, 0.0, 0.0, 1.7297106859710093E9, 0.0, 2024-10-24 00:41:25.971
113.0, -53475.542780821655, -53751.16214170005, -56692.09291840708, -62472.41049676067, -61658.67288812076, -53802.235877780426, -13948.740237801105, 15591.280530843798, 0.12, 0.976, 0.046, 192.0, 0.0, 0.0, 0.0, 0.0, 0.0, 0.0, 0.0, 0.0, 0.0, 1.729710685975077E9, 0.0, 2024-10-24 00:41:25.975
114.0, -53464.635129527465, -53730.933812967996, -56672.8257146866, -62447.66711564865, -61625.637009815815, -53769.64703436459, -14236.988334296744, 15251.623422100953, 0.12, 0.976, 0.046, 192.0, 0.0, 0.0, 0.0, 0.0, 0.0, 0.0, 0.0, 0.0, 0.0, 1.7297106859810772E9, 0.0, 2024-10-24 00:41:25.981
115.0, -53451.02291715419, -53722.66366751953, -56659.146447079955, -62436.670057376636, -61611.95774220917, -53756.97359525843, -14577.830085495722, 14868.916853537185, 0.12, 0.976, 0.046, 192.0, 0.0, 0.0, 0.0, 0.0, 0.0, 0.0, 0.0, 0.0, 0.0, 1.7297106859840724E9, 0.0, 2024-10-24 00:41:25.984
116.0, -53444.1162281175, -53732.8337112467, -56660.50990349173, -62448.628240660226, -61634.443597131205, -53777.268979223845, -14546.582346747202, 14921.175232073694, 0.12, 0.976, 0.046, 192.0, 0.0, 0.0, 0.0, 0.0, 0.0, 0.0, 0.0, 0.0, 0.0, 1.7297106859880316E9, 0.0, 2024-10-24 00:41:25.988
117.0, -53461.349423092535, -53757.130057469614, -56681.60995025754, -62471.896406638196, -61661.220986988665, -53803.57698244775, -14212.848450285013, 15304.485297737754, 0.12, 0.976, 0.046, 192.0, 0.0, 0.0, 0.0, 0.0, 0.0, 0.0, 0.0, 0.0, 0.0, 1.729710685991044E9, 0.0, 2024-10-24 00:41:25.991
118.0, -53489.87024901751, -53778.72184261344, -56701.54770631167, -62489.08489812433, -61667.658289391795, -53817.32330528776, -13967.850979310391, 15571.298071300755, 0.12, 0.976, 0.046, 192.0, 0.0, 0.0, 0.0, 0.0, 0.0, 0.0, 0.0, 0.0, 0.0, 1.729710685995058E9, 0.0, 2024-10-24 00:41:25.995
119.0, -53480.34840587955, -53759.231121448414, -56684.78389797019, -62466.55433971338, -61637.1481582103, -53785.2932554833, -14238.86588083099, 15250.237613944724, 0.128, 0.976, 0.046, 192.0, 4.0, 0.0, 30.0, 128.0, 1.0, 112.0, 0.0, 0.0, 0.0, 1.7297106859990785E9, 0.0, 2024-10-24 00:41:25.999
120.0, -53458.91308294691, -53739.71804853893, -56662.54391223716, -62444.761388869454, -61614.461137588165, -53760.773391815834, -14582.546303575791, 14862.591309856334, 0.128, 0.976, 0.046, 192.0, 0.0, 0.0, 0.0, 0.0, 0.0, 0.0, 0.0, 0.0, 0.0, 1.7297106860030353E9, 0.0, 2024-10-24 00:41:26.003
121.0, -53453.12398113299, -53747.36234514265, -56663.39327852646, -62455.06554306335, -61633.30365816399, -53779.07947052473, -14570.632823781112, 14891.648577648233, 0.128, 0.976, 0.046, 192.0, 0.0, 0.0, 0.0, 0.0, 0.0, 0.0, 0.0, 0.0, 0.0, 1.729710686007099E9, 0.0, 2024-10-24 00:41:26.007
122.0, -53469.328995863085, -53770.65286286508, -56683.42044155842, -62477.193770074104, -61660.21515848818, -53805.096901070705, -14228.069988259076, 15282.893512593928, 0.128, 0.976, 0.046, 192.0, 0.0, 0.0, 0.0, 0.0, 0.0, 0.0, 0.0, 0.0, 0.0, 1.7297106860130677E9, 0.0, 2024-10-24 00:41:26.013
123.0, -53489.06558621712, -53782.61104614867, -56696.25034287576, -62486.73796495652, -61668.26178649209, -53812.025941851854, -13984.234807996132, 15548.566347189708, 0.128, 0.976, 0.046, 192.0, 0.0, 0.0, 0.0, 0.0, 0.0, 0.0, 0.0, 0.0, 0.0, 1.7297106860162091E9, 0.0, 2024-10-24 00:41:26.016
124.0, -53479.38728086797, -53764.86376105115, -56677.78780195568, -62465.57086295735, -61634.35419015339, -53782.096956026195, -14256.479055461772, 15227.260020644668, 0.128, 0.976, 0.046, 192.0, 0.0, 0.0, 0.0, 0.0, 0.0, 0.0, 0.0, 0.0, 0.0, 1.7297106860191424E9, 0.0, 2024-10-24 00:41:26.019
125.0, -53464.09868766054, -53751.05038297777, -56657.671231945904, -62449.388199971705, -61613.18708815421, -53762.98621451691, -14609.413100411071, 14834.003428697995, 0.128, 0.976, 0.046, 192.0, 0.0, 0.0, 0.0, 0.0, 0.0, 0.0, 0.0, 0.0, 0.0, 1.7297106860231204E9, 0.0, 2024-10-24 00:41:26.023
126.0, -53455.985004423266, -53754.98429000191, -56656.1736650674, -62456.47370296404, -61633.77304479755, -53777.917179813056, -14590.883504257621, 14872.806057072408, 0.128, 0.976, 0.046, 192.0, 0.0, 0.0, 0.0, 0.0, 0.0, 0.0, 0.0, 0.0, 0.0, 1.7297106860271292E9, 0.0, 2024-10-24 00:41:26.027
127.0, -53479.76726052371, -53778.43126993552, -56680.827639201605, -62480.077145108844, -61663.187940500735, -53806.25919178238, -14211.708511317793, 15302.3618820145, 0.128, 0.976, 0.046, 192.0, 0.0, 0.0, 0.0, 0.0, 0.0, 0.0, 0.0, 0.0, 0.0, 1.7297106860314E9, 0.0, 2024-10-24 00:41:26.031
128.0, -53499.77207181121, -53785.58382816122, -56694.95394169736, -62484.346328299805, -61664.12671376786, -53808.114386572175, -13958.61970885035, 15576.014289380824, 0.128, 0.976, 0.046, 192.0, 0.0, 0.0, 0.0, 0.0, 0.0, 0.0, 0.0, 0.0, 0.0, 1.7297106860351453E9, 0.0, 2024-10-24 00:41:26.035
129.0, -53484.572885581605, -53760.10283948217, -56677.676043233405, -62456.9430895976, -61628.76625403956, -53772.664519866055, -14220.157470721899, 15261.815817572573, 0.124, 0.976, 0.038, 192.0, 3.0, 224.0, 30.0, 128.0, 1.0, 48.0, 0.0, 0.0, 0.0, 1.7297106860391471E9, 0.0, 2024-10-24 00:41:26.039
130.0, -53474.0228621987, -53742.15438868456, -56666.38841228347, -62441.74390336799, -61609.32023636344, -53753.15144695657, -14571.325727859226, 14869.497998893023, 0.124, 0.976, 0.038, 192.0, 0.0, 0.0, 0.0, 0.0, 0.0, 0.0, 0.0, 0.0, 0.0, 1.729710686044128E9, 0.0, 2024-10-24 00:41:26.044
131.0, -53461.8188097261, -53735.65003104807, -56661.98511862578, -62445.85662434777, -61620.38434986882, -53764.70729883997, -14589.251826912383, 14874.035403017451, 0.124, 0.976, 0.038, 192.0, 0.0, 0.0, 0.0, 0.0, 0.0, 0.0, 0.0, 0.0, 0.0, 1.7297106860471892E9, 0.0, 2024-10-24 00:41:26.047
132.0, -53489.64673157296, -53763.74617382839, -56692.94228469638, -62478.75839218598, -61656.43771367523, -53801.252401024394, -14235.15549125141, 15277.97612881376, 0.124, 0.976, 0.038, 192.0, 0.0, 0.0, 0.0, 0.0, 0.0, 0.0, 0.0, 0.0, 0.0, 1.7297106860501728E9, 0.0, 2024-10-24 00:41:26.050
133.0, -53518.324019709115, -53778.744194357896, -56718.490328608794, -62495.92453192765, -61668.999394059116, -53814.328171530746, -13947.957926745168, 15585.1785046075, 0.124, 0.976, 0.038, 192.0, 0.0, 0.0, 0.0, 0.0, 0.0, 0.0, 0.0, 0.0, 0.0, 1.72971068605515E9, 0.0, 2024-10-24 00:41:26.055
134.0, -53494.96644675332, -53747.719973053936, -56696.29504636468, -62466.442580991104, -61633.683637819726, -53778.20775249097, -14212.96020900729, 15269.773038598662, 0.124, 0.976, 0.038, 192.0, 0.0, 0.0, 0.0, 0.0, 0.0, 0.0, 0.0, 0.0, 0.0, 1.729710686059157E9, 0.0, 2024-10-24 00:41:26.059
135.0, -53480.080184946084, -53732.34197286868, -56679.37477581201, -62451.913947095156, -61616.42809110023, -53762.44977264998, -14562.563844032748, 14878.773972841977, 0.124, 0.976, 0.038, 192.0, 0.0, 0.0, 0.0, 0.0, 0.0, 0.0, 0.0, 0.0, 0.0, 1.7297106860631976E9, 0.0, 2024-10-24 00:41:26.063
136.0, -53460.231835869774, -53731.80553100175, -56669.919987907415, -62454.50674945197, -61625.011160971066, -53774.02797627783, -14560.954518431965, 14900.18694403016, 0.124, 0.976, 0.038, 192.0, 0.0, 0.0, 0.0, 0.0, 0.0, 0.0, 0.0, 0.0, 0.0, 1.7297106860671544E9, 0.0, 2024-10-24 00:41:26.067
137.0, -53476.90623723343, -53753.710240567954, -56690.61770327303, -62476.45616250708, -61654.381353185345, -53799.33015100124, -14225.901869046911, 15282.69234689383, 0.124, 0.976, 0.038, 192.0, 0.0, 0.0, 0.0, 0.0, 0.0, 0.0, 0.0, 0.0, 0.0, 1.7297106860721571E9, 0.0, 2024-10-24 00:41:26.072
138.0, -53501.694321834366, -53773.40212743308, -56707.739139525795, -62490.31424406937, -61661.66802187777, -53807.10855807168, -13968.409772921774, 15559.094018828157, 0.124, 0.976, 0.038, 192.0, 0.0, 0.0, 0.0, 0.0, 0.0, 0.0, 0.0, 0.0, 0.0, 1.7297106860751228E9, 0.0, 2024-10-24 00:41:26.075
139.0, -53488.99853098375, -53752.950281256475, -56686.23676135979, -62464.274461778936, -61626.95576273868, -53773.82681057773, -14222.638514356437, 15252.83041630154, 0.124, 0.97, 0.038, 192.0, 3.0, 224.0, 30.0, 80.0, 1.0, 48.0, 0.0, 0.0, 0.0, 1.7297106860781212E9, 0.0, 2024-10-24 00:41:26.078
140.0, -53467.13852490646, -53733.21369090244, -56665.06965936061, -62442.816787101845, -61608.20264914068, -53752.34678415618, -14589.587103079213, 14845.782798025943, 0.124, 0.97, 0.038, 192.0, 0.0, 0.0, 0.0, 0.0, 0.0, 0.0, 0.0, 0.0, 0.0, 1.7297106860831656E9, 0.0, 2024-10-24 00:41:26.083
141.0, -53458.354289335526, -53737.25935664885, -56665.24847331626, -62452.02570581743, -61631.11318720737, -53770.04936576478, -14585.675547799534, 14872.783705327953, 0.124, 0.97, 0.038, 192.0, 0.0, 0.0, 0.0, 0.0, 0.0, 0.0, 0.0, 0.0, 0.0, 1.7297106860871692E9, 0.0, 2024-10-24 00:41:26.087
142.0, -53470.088955174564, -53756.526560369326, -56686.16970612642, -62472.83517990532, -61664.43963819023, -53799.17368879005, -14235.401360440417, 15272.768172355674, 0.124, 0.97, 0.038, 192.0, 0.0, 0.0, 0.0, 0.0, 0.0, 0.0, 0.0, 0.0, 0.0, 1.729710686091207E9, 0.0, 2024-10-24 00:41:26.091
143.0, -53496.46401363183, -53775.70435711198, -56707.42621510342, -62488.36964230176, -61679.39295523083, -53817.88209889914, -13969.326194444442, 15560.926861873491, 0.124, 0.97, 0.038, 192.0, 0.0, 0.0, 0.0, 0.0, 0.0, 0.0, 0.0, 0.0, 0.0, 1.7297106860973077E9, 0.0, 2024-10-24 00:41:26.097
144.0, -53484.81875477061, -53760.080487737716, -56693.25520911875, -62467.51546472496, -61653.397876429306, -53790.7470811304, -14230.595735382527, 15250.863462789472, 0.124, 0.97, 0.038, 192.0, 0.0, 0.0, 0.0, 0.0, 0.0, 0.0, 0.0, 0.0, 0.0, 1.729710686100216E9, 0.0, 2024-10-24 00:41:26.100
145.0, -53469.597216796545, -53747.65291782057, -56676.69256647737, -62452.65155466218, -61636.477605876644, -53774.43030767803, -14585.675547799534, 14854.522330107968, 0.124, 0.97, 0.038, 192.0, 0.0, 0.0, 0.0, 0.0, 0.0, 0.0, 0.0, 0.0, 0.0, 1.7297106861032467E9, 0.0, 2024-10-24 00:41:26.103
146.0, -53461.416478325904, -53754.559606857256, -56674.457392031836, -62461.03345883292, -61651.721495595164, -53789.74125262991, -14558.49582654188, 14902.355063242325, 0.124, 0.97, 0.038, 192.0, 0.0, 0.0, 0.0, 0.0, 0.0, 0.0, 0.0, 0.0, 0.0, 1.7297106861071565E9, 0.0, 2024-10-24 00:41:26.107
147.0, -53477.621493056, -53779.48180192492, -56695.08805216409, -62484.614549233265, -61676.44252496273, -53816.451587254, -14197.023415210655, 15313.425995519878, 0.124, 0.97, 0.038, 192.0, 0.0, 0.0, 0.0, 0.0, 0.0, 0.0, 0.0, 0.0, 0.0, 1.7297106861112225E9, 0.0, 2024-10-24 00:41:26.111
148.0, -53503.68362709089, -53793.295179998306, -56709.52727908221, -62492.70588072609, -61677.87303660787, -53818.82087216627, -13955.33400241542, 15574.024984124302, 0.124, 0.97, 0.038, 192.0, 0.0, 0.0, 0.0, 0.0, 0.0, 0.0, 0.0, 0.0, 0.0, 1.7297106861152563E9, 0.0, 2024-10-24 00:41:26.115
149.0, -53486.85276351604, -53769.73644134241, -56683.26397934723, -62464.766200156955, -61636.81288204347, -53778.20775249097, -14240.788130854145, 15235.06077945957, 0.116, 0.97, 0.038, 192.0, 3.0, 160.0, 30.0, 80.0, 1.0, 48.0, 0.0, 0.0, 0.0, 1.729710686119254E9, 0.0, 2024-10-24 00:41:26.119
150.0, -53469.86543773001, -53754.44784813498, -56661.56043548113, -62447.46594994855, -61614.86346898836, -53756.303042924774, -14592.761050791867, 14839.121978178262, 0.116, 0.97, 0.038, 192.0, 0.0, 0.0, 0.0, 0.0, 0.0, 0.0, 0.0, 0.0, 0.0, 1.7297106861232004E9, 0.0, 2024-10-24 00:41:26.123
151.0, -53463.942225449355, -53757.711202825456, -56659.146447079955, -62453.88090060722, -61627.64866681679, -53771.613987876655, -14562.295623099284, 14891.246246248038, 0.116, 0.97, 0.038, 192.0, 0.0, 0.0, 0.0, 0.0, 0.0, 0.0, 0.0, 0.0, 0.0, 1.7297106861282125E9, 0.0, 2024-10-24 00:41:26.128
152.0, -53485.51165884873, -53778.23010423543, -56681.095860135065, -62474.8468369063, -61653.97902178515, -53796.424424222045, -14204.801822281102, 15300.640797691442, 0.116, 0.97, 0.038, 192.0, 0.0, 0.0, 0.0, 0.0, 0.0, 0.0, 0.0, 0.0, 0.0, 1.7297106861312132E9, 0.0, 2024-10-24 00:41:26.131
153.0, -53509.85270856055, -53792.91520034256, -56699.17842139941, -62485.01688063346, -61661.04217303303, -53803.26405802537, -13956.988031505112, 15569.666393955516, 0.116, 0.97, 0.038, 192.0, 0.0, 0.0, 0.0, 0.0, 0.0, 0.0, 0.0, 0.0, 0.0, 1.7297106861342804E9, 0.0, 2024-10-24 00:41:26.134
154.0, -53499.9285340224, -53773.93856930001, -56683.71101423634, -62461.547548955394, -61631.8954982633, -53774.07267976674, -14225.030151013156, 15252.338677923522, 0.116, 0.97, 0.038, 192.0, 0.0, 0.0, 0.0, 0.0, 0.0, 0.0, 0.0, 0.0, 0.0, 1.7297106861392853E9, 0.0, 2024-10-24 00:41:26.139
155.0, -53484.79640302616, -53753.35261265667, -56664.399107026955, -62441.25216498997, -61610.34841660839, -53753.73259231241, -14577.964195962453, 14858.612699343288, 0.116, 0.97, 0.038, 192.0, 0.0, 0.0, 0.0, 0.0, 0.0, 0.0, 0.0, 0.0, 0.0, 1.7297106861432605E9, 0.0, 2024-10-24 00:41:26.143
156.0, -53475.18515291037, -53754.760772557354, -56662.722726192806, -62450.304621494375, -61628.788605784015, -53772.61981637715, -14564.821370222733, 14892.140316026249, 0.116, 0.97, 0.038, 192.0, 0.0, 0.0, 0.0, 0.0, 0.0, 0.0, 0.0, 0.0, 0.0, 1.7297106861473098E9, 0.0, 2024-10-24 00:41:26.147
157.0, -53491.94896125185, -53779.794726347296, -56689.05308116115, -62478.75839218598, -61661.91389106678, -53805.879212126645, -14203.684235058337, 15301.087832580548, 0.116, 0.97, 0.038, 192.0, 0.0, 0.0, 0.0, 0.0, 0.0, 0.0, 0.0, 0.0, 0.0, 1.7297106861512628E9, 0.0, 2024-10-24 00:41:26.151
158.0, -53516.53588015269, -53792.870496853655, -56709.59433431558, -62491.02949989194, -61672.01687956058, -53815.8033866648, -13948.181444189722, 15575.544902747262, 0.116, 0.97, 0.038, 192.0, 0.0, 0.0, 0.0, 0.0, 0.0, 0.0, 0.0, 0.0, 0.0, 1.729710686155322E9, 0.0, 2024-10-24 00:41:26.155
159.0, -53502.72250207931, -53767.5906738747, -56690.37183408402, -62466.66609843566, -61640.05388498949, -53785.71793862795, -14210.769738050669, 15261.63700361693, 0.114, 0.974, 0.038, 192.0, 3.0, 144.0, 30.0, 112.0, 1.0, 48.0, 0.0, 0.0, 0.0, 1.7297106861593537E9, 0.0, 2024-10-24 00:41:26.159
160.0, -53480.63897855747, -53743.45078986297, -56669.60706348504, -62446.32601098133, -61619.73614927962, -53763.83558080621, -14570.07403016973, 14860.289080177437, 0.114, 0.974, 0.038, 192.0, 0.0, 0.0, 0.0, 0.0, 0.0, 0.0, 0.0, 0.0, 0.0, 1.7297106861623259E9, 0.0, 2024-10-24 00:41:26.162
161.0, -53466.57973129508, -53739.9862694724, -56662.65567095944, -62450.572842427835, -61633.3483616529, -53776.30785421227, -14575.572559305736, 14875.734135596054, 0.114, 0.974, 0.038, 192.0, 0.0, 0.0, 0.0, 0.0, 0.0, 0.0, 0.0, 0.0, 0.0, 1.7297106861663156E9, 0.0, 2024-10-24 00:41:26.166
162.0, -53491.61368508502, -53764.26026395086, -56687.71197649384, -62478.51252299697, -61663.79143760103, -53806.147433060105, -14208.042825227121, 15293.354128999012, 0.114, 0.974, 0.038, 192.0, 0.0, 0.0, 0.0, 0.0, 0.0, 0.0, 0.0, 0.0, 0.0, 1.7297106861713085E9, 0.0, 2024-10-24 00:41:26.171
163.0, -53513.160766739944, -53775.36908094515, -56699.37958709951, -62487.54262775691, -61666.98773705814, -53811.601258707204, -13957.703287327682, 15564.927824130991, 0.114, 0.974, 0.038, 192.0, 0.0, 0.0, 0.0, 0.0, 0.0, 0.0, 0.0, 0.0, 0.0, 1.7297106861782997E9, 0.0, 2024-10-24 00:41:26.178
164.0, -53497.00045549875, -53755.29721442428, -56674.43504028738, -62462.70983966707, -61630.86731801836, -53778.09599376869, -14248.052447802122, 15223.080244431525, 0.114, 0.974, 0.038, 192.0, 0.0, 0.0, 0.0, 0.0, 0.0, 0.0, 0.0, 0.0, 0.0, 1.7297106861813447E9, 0.0, 2024-10-24 00:41:26.181
165.0, -53476.81683025561, -53743.24962416287, -56655.81603715611, -62448.7399993825, -61613.65647478777, -53760.92985402702, -14601.075899729241, 14830.22598388505, 0.114, 0.974, 0.038, 192.0, 0.0, 0.0, 0.0, 0.0, 0.0, 0.0, 0.0, 0.0, 0.0, 1.7297106861843271E9, 0.0, 2024-10-24 00:41:26.184
166.0, -53464.67983301638, -53748.88226376561, -56653.2232347993, -62457.65834542017, -61630.55439359599, -53779.660615880566, -14583.55213207628, 14869.18507447065, 0.114, 0.974, 0.038, 192.0, 0.0, 0.0, 0.0, 0.0, 0.0, 0.0, 0.0, 0.0, 0.0, 1.7297106861883445E9, 0.0, 2024-10-24 00:41:26.188
167.0, -53482.78474602518, -53773.64799662209, -56676.200828099354, -62480.702993953586, -61658.53877765403, -53806.5497644603, -14228.76289233719, 15272.254082233201, 0.114, 0.974, 0.038, 192.0, 0.0, 0.0, 0.0, 0.0, 0.0, 0.0, 0.0, 0.0, 0.0, 1.729710686191332E9, 0.0, 2024-10-24 00:41:26.191
168.0, -53509.85270856055, -53789.56243867427, -56694.46220331934, -62491.27536908095, -61664.90902482379, -53812.40592150759, -13997.064709313478, 15522.951248043926, 0.114, 0.974, 0.038, 192.0, 0.0, 0.0, 0.0, 0.0, 0.0, 0.0, 0.0, 0.0, 0.0, 1.7297106861953096E9, 0.0, 2024-10-24 00:41:26.195
169.0, -53497.8274700436, -53770.3399384427, -56675.865551932526, -62466.80020890239, -61633.124844208345, -53780.68879612551, -14272.72877368078, 15196.727537718718, 0.114, 0.968, 0.034, 192.0, 3.0, 144.0, 30.0, 64.0, 1.0, 16.0, 0.0, 0.0, 0.0, 1.7297106861993332E9, 0.0, 2024-10-24 00:41:26.199
170.0, -53481.264827402214, -53758.56056911476, -56659.03468835768, -62450.304621494375, -61617.07629168944, -53762.98621451691, -14599.131297961629, 14829.018989684462, 0.114, 0.968, 0.034, 192.0, 0.0, 0.0, 0.0, 0.0, 0.0, 0.0, 0.0, 0.0, 0.0, 1.7297106862033863E9, 0.0, 2024-10-24 00:41:26.203
171.0, -53468.18905689586, -53756.25833943586, -56651.36804000951, -62452.539795939905, -61630.1967656847, -53776.03963327881, -14586.256693155372, 14865.385277913247, 0.114, 0.968, 0.034, 192.0, 0.0, 0.0, 0.0, 0.0, 0.0, 0.0, 0.0, 0.0, 0.0, 1.729710686207351E9, 0.0, 2024-10-24 00:41:26.207
172.0, -53486.942170493865, -53779.526505413836, -56674.61385424303, -62476.38910727372, -61661.95859455569, -53805.16395630407, -14246.018439056688, 15258.172483226357, 0.114, 0.968, 0.034, 192.0, 0.0, 0.0, 0.0, 0.0, 0.0, 0.0, 0.0, 0.0, 0.0, 1.7297106862113287E9, 0.0, 2024-10-24 00:41:26.211
173.0, -53511.059702761144, -53799.66542716807, -56695.31156960864, -62489.82250569136, -61672.06158304949, -53813.92584013055, -13983.698366129205, 15541.614954664106, 0.114, 0.968, 0.034, 192.0, 0.0, 0.0, 0.0, 0.0, 0.0, 0.0, 0.0, 0.0, 0.0, 1.7297106862157557E9, 0.0, 2024-10-24 00:41:26.215
174.0, -53502.07430149011, -53779.727671113935, -56680.335900823586, -62467.26959553595, -61642.44552164621, -53785.36031071667, -14235.758988351703, 15243.107407463482, 0.114, 0.968, 0.034, 192.0, 0.0, 0.0, 0.0, 0.0, 0.0, 0.0, 0.0, 0.0, 0.0, 1.7297106862186592E9, 0.0, 2024-10-24 00:41:26.218
175.0, -53472.681757531376, -53751.65388007807, -56653.11147607702, -62439.35226671127, -61613.74588176559, -53755.90071152458, -14601.455879384981, 14840.932469479141, 0.114, 0.968, 0.034, 192.0, 0.0, 0.0, 0.0, 0.0, 0.0, 0.0, 0.0, 0.0, 0.0, 1.7297106862223673E9, 0.0, 2024-10-24 00:41:26.222
176.0, -53457.54962653514, -53750.37983064412, -56648.35055450804, -62443.66615339115, -61628.87801276184, -53769.512923897855, -14593.431603125526, 14871.286138449448, 0.114, 0.968, 0.034, 192.0, 0.0, 0.0, 0.0, 0.0, 0.0, 0.0, 0.0, 0.0, 0.0, 1.7297106862275305E9, 0.0, 2024-10-24 00:41:26.227
177.0, -53478.80613551213, -53774.5420664003, -56672.31162456413, -62469.81769440386, -61657.667059620275, -53798.3466742452, -14235.535470907149, 15278.266701491679, 0.114, 0.968, 0.034, 192.0, 0.0, 0.0, 0.0, 0.0, 0.0, 0.0, 0.0, 0.0, 0.0, 1.7297106862313595E9, 0.0, 2024-10-24 00:41:26.231
178.0, -53505.22589745831, -53788.89188634061, -56692.65171201846, -62480.81475267587, -61667.85945509189, -53804.35929350368, -13989.398060965308, 15546.2194140219, 0.114, 0.968, 0.034, 192.0, 0.0, 0.0, 0.0, 0.0, 0.0, 0.0, 0.0, 0.0, 0.0, 1.729710686235488E9, 0.0, 2024-10-24 00:41:26.235
179.0, -53501.11317647853, -53769.78114483132, -56677.966615911326, -62459.64765067669, -61635.13650120932, -53774.340900700205, -14266.872616633489, 15219.883944974417, 0.11, 0.972, 0.044, 192.0, 3.0, 112.0, 30.0, 96.0, 1.0, 96.0, 0.0, 0.0, 0.0, 1.7297106862393825E9, 0.0, 2024-10-24 00:41:26.239
180.0, -53473.57582730959, -53746.49062710889, -56655.90544413393, -62438.99463879999, -61611.041320686505, -53753.06203997875, -14625.640466885623, 14821.195879125105, 0.11, 0.972, 0.044, 192.0, 0.0, 0.0, 0.0, 0.0, 0.0, 0.0, 0.0, 0.0, 0.0, 1.7297106862435188E9, 0.0, 2024-10-24 00:41:26.243
181.0, -53465.39508883895, -53753.12909521212, -56658.00650811273, -62452.249223261984, -61632.16371919677, -53777.268979223845, -14591.710518802467, 14876.404687929713, 0.11, 0.972, 0.044, 192.0, 0.0, 0.0, 0.0, 0.0, 0.0, 0.0, 0.0, 0.0, 0.0, 1.729710686246499E9, 0.0, 2024-10-24 00:41:26.246
182.0, -53485.84693501556, -53772.955092543976, -56681.252322346256, -62476.50086599599, -61661.44450443322, -53807.28737202733, -14203.036034469133, 15315.817632176595, 0.11, 0.972, 0.044, 192.0, 0.0, 0.0, 0.0, 0.0, 0.0, 0.0, 0.0, 0.0, 0.0, 1.7297106862503805E9, 0.0, 2024-10-24 00:41:26.250
183.0, -53512.5796213841, -53786.18732526152, -56698.23964813229, -62486.17917134514, -61665.46781843517, -53811.64596219611, -13955.468112882152, 15584.262083084832, 0.11, 0.972, 0.044, 192.0, 0.0, 0.0, 0.0, 0.0, 0.0, 0.0, 0.0, 0.0, 0.0, 1.7297106862565064E9, 0.0, 2024-10-24 00:41:26.256
184.0, -53503.97419976881, -53766.45073490748, -56679.66534848993, -62463.715668167555, -61631.85079477439, -53780.46527868096, -14266.15736081092, 15219.3922065964, 0.11, 0.972, 0.044, 192.0, 0.0, 0.0, 0.0, 0.0, 0.0, 0.0, 0.0, 0.0, 0.0, 1.7297106862604277E9, 0.0, 2024-10-24 00:41:26.260
185.0, -53483.61176057003, -53747.20588293146, -56661.0239936142, -62447.55535692637, -61609.54375380799, -53762.807400561265, -14630.490795432424, 14812.45634704308, 0.11, 0.972, 0.044, 192.0, 0.0, 0.0, 0.0, 0.0, 0.0, 0.0, 0.0, 0.0, 0.0, 1.7297106862644453E9, 0.0, 2024-10-24 00:41:26.264
186.0, -53477.35327212254, -53748.8375602767, -56662.65567095944, -62458.73122915402, -61626.620486571854, -53785.248551994395, -14605.36743466466, 14864.155931968206, 0.11, 0.972, 0.044, 192.0, 0.0, 0.0, 0.0, 0.0, 0.0, 0.0, 0.0, 0.0, 0.0, 1.7297106862674105E9, 0.0, 2024-10-24 00:41:26.267
187.0, -53499.9285340224, -53770.11642099815, -56688.76250848323, -62484.01105213298, -61657.06356251998, -53815.28929654232, -14205.628836825948, 15320.958533401315, 0.11, 0.972, 0.044, 192.0, 0.0, 0.0, 0.0, 0.0, 0.0, 0.0, 0.0, 0.0, 0.0, 1.7297106862704265E9, 0.0, 2024-10-24 00:41:26.270
188.0, -53527.0859035356, -53782.11930777065, -56703.961694712845, -62489.8001539469, -61658.44937067621, -53816.8539186542, -13961.659546096273, 15587.41367905303, 0.11, 0.972, 0.044, 192.0, 0.0, 0.0, 0.0, 0.0, 0.0, 0.0, 0.0, 0.0, 0.0, 1.729710686274392E9, 0.0, 2024-10-24 00:41:26.274
189.0, -53516.871156319525, -53763.097973239186, -56685.83442995959, -62465.056772834876, -61627.20163192769, -53784.42153744955, -14267.029078844676, 15227.148261922392, 0.122, 0.978, 0.038, 192.0, 3.0, 208.0, 30.0, 144.0, 1.0, 48.0, 0.0, 0.0, 0.0, 1.7297106862784557E9, 0.0, 2024-10-24 00:41:26.278
190.0, -53497.715711321325, -53745.037763719294, -56667.684813461885, -62448.65059240468, -61608.60498054088, -53766.92012154104, -14625.998094796909, 14824.481585560035, 0.122, 0.978, 0.038, 192.0, 0.0, 0.0, 0.0, 0.0, 0.0, 0.0, 0.0, 0.0, 0.0, 1.7297106862824814E9, 0.0, 2024-10-24 00:41:26.282
191.0, -53484.95286523734, -53747.5858625872, -56664.35440353804, -62457.03249657542, -61625.16762318226, -53785.42736595003, -14621.259524972384, 14855.058771974895, 0.122, 0.978, 0.038, 192.0, 0.0, 0.0, 0.0, 0.0, 0.0, 0.0, 0.0, 0.0, 0.0, 1.729710686287525E9, 0.0, 2024-10-24 00:41:26.287
192.0, -53507.30460969265, -53775.61495013416, -56692.383491085, -62485.28510156693, -61659.49990266561, -53819.424369266555, -14245.392590211939, 15286.22392251777, 0.122, 0.978, 0.038, 192.0, 0.0, 0.0, 0.0, 0.0, 0.0, 0.0, 0.0, 0.0, 0.0, 1.7297106862914433E9, 0.0, 2024-10-24 00:41:26.291
193.0, -53533.8361303611, -53794.85980211018, -56713.79646227318, -62496.17040111666, -61667.81475160298, -53824.27469781336, -13974.444743924707, 15578.964719648924, 0.122, 0.978, 0.038, 192.0, 0.0, 0.0, 0.0, 0.0, 0.0, 0.0, 0.0, 0.0, 0.0, 1.7297106862955265E9, 0.0, 2024-10-24 00:41:26.295
194.0, -53523.19670000037, -53777.87247632414, -56696.56326729814, -62472.723421183044, -61636.05292273199, -53791.77526137534, -14276.036831860165, 15222.230878142223, 0.122, 0.978, 0.038, 192.0, 0.0, 0.0, 0.0, 0.0, 0.0, 0.0, 0.0, 0.0, 0.0, 1.7297106862985048E9, 0.0, 2024-10-24 00:41:26.298
195.0, -53503.59422011307, -53761.84627554969, -56677.58663625558, -62452.539795939905, -61613.20943989867, -53769.17764773103, -14645.51116770639, 14811.159945864672, 0.122, 0.978, 0.038, 192.0, 0.0, 0.0, 0.0, 0.0, 0.0, 0.0, 0.0, 0.0, 0.0, 1.7297106863024914E9, 0.0, 2024-10-24 00:41:26.302
196.0, -53489.4232141284, -53765.51196164035, -56677.00549089975, -62460.0946855658, -61631.180242440736, -53785.181496761026, -14631.787196610832, 14851.862472517787, 0.122, 0.978, 0.038, 192.0, 0.0, 0.0, 0.0, 0.0, 0.0, 0.0, 0.0, 0.0, 0.0, 1.729710686306465E9, 0.0, 2024-10-24 00:41:26.306
197.0, -53506.25407770325, -53791.37292997515, -56701.61476154504, -62487.341462056815, -61661.46685617768, -53816.496290742914, -14249.170035024887, 15287.609730673998, 0.122, 0.978, 0.038, 192.0, 0.0, 0.0, 0.0, 0.0, 0.0, 0.0, 0.0, 0.0, 0.0, 1.7297106863105145E9, 0.0, 2024-10-24 00:41:26.310
198.0, -53532.226804760314, -53808.49436622791, -56720.92666875442, -62496.21510460557, -61669.334670225944, -53820.56430823378, -13976.031717781034, 15579.523513260308, 0.122, 0.978, 0.038, 192.0, 0.0, 0.0, 0.0, 0.0, 0.0, 0.0, 0.0, 0.0, 0.0, 1.72971068631658E9, 0.0, 2024-10-24 00:41:26.316
199.0, -53525.99066805729, -53793.83162186523, -56704.56519181314, -62473.55043572789, -61639.428036144745, -53788.958941573976, -14256.769628139691, 15243.956773752783, 0.12, 0.978, 0.042, 192.0, 3.0, 192.0, 30.0, 144.0, 1.0, 80.0, 0.0, 0.0, 0.0, 1.7297106863195765E9, 0.0, 2024-10-24 00:41:26.319
200.0, -53503.16953696842, -53776.17374374554, -56685.05211890365, -62453.97030758504, -61618.372692867844, -53767.5906738747, -14618.934943549031, 14839.725475278554, 0.12, 0.978, 0.042, 192.0, 0.0, 0.0, 0.0, 0.0, 0.0, 0.0, 0.0, 0.0, 0.0, 1.7297106863235047E9, 0.0, 2024-10-24 00:41:26.323
201.0, -53480.43781285737, -53774.631473378126, -56678.234836844786, -62457.97126984254, -61631.33670465192, -53782.3428252152, -14608.027292254841, 14876.94112979664, 0.12, 0.978, 0.042, 192.0, 0.0, 0.0, 0.0, 0.0, 0.0, 0.0, 0.0, 0.0, 0.0, 1.7297106863264945E9, 0.0, 2024-10-24 00:41:26.326
202.0, -53503.080129990594, -53802.61585743617, -56705.2357441468, -62490.18013360264, -61666.406591702296, -53819.37966577765, -14234.328476706563, 15305.915809382894, 0.12, 0.978, 0.042, 192.0, 0.0, 0.0, 0.0, 0.0, 0.0, 0.0, 0.0, 0.0, 0.0, 1.72971068633051E9, 0.0, 2024-10-24 00:41:26.330
203.0, -53529.946926825876, -53817.52447098785, -56722.781863544216, -62503.16649713117, -61673.51444643908, -53827.26983157037, -13996.595322679917, 15565.330155531188, 0.12, 0.978, 0.042, 192.0, 0.0, 0.0, 0.0, 0.0, 0.0, 0.0, 0.0, 0.0, 0.0, 1.7297106863345664E9, 0.0, 2024-10-24 00:41:26.334
204.0, -53518.99457204278, -53795.55270618829, -56701.994741200775, -62479.384241030726, -61635.2482599316, -53796.06679631076, -14306.278742108196, 15199.275636586624, 0.12, 0.978, 0.042, 192.0, 0.0, 0.0, 0.0, 0.0, 0.0, 0.0, 0.0, 0.0, 0.0, 1.729710686338514E9, 0.0, 2024-10-24 00:41:26.338
205.0, -53494.09472871957, -53781.26994148135, -56682.97340666931, -62465.23558679051, -61615.86929748885, -53778.56538040226, -14661.313851036293, 14799.492335259001, 0.12, 0.978, 0.042, 192.0, 0.0, 0.0, 0.0, 0.0, 0.0, 0.0, 0.0, 0.0, 0.0, 1.7297106863445375E9, 0.0, 2024-10-24 00:41:26.344
206.0, -53477.979120967284, -53784.01920604935, -56680.470011290316, -62475.07035435085, -61635.60588784288, -53798.30197075629, -14626.735702363934, 14859.41736214368, 0.12, 0.978, 0.042, 192.0, 0.0, 0.0, 0.0, 0.0, 0.0, 0.0, 0.0, 0.0, 0.0, 1.729710686347576E9, 0.0, 2024-10-24 00:41:26.347
207.0, -53493.91591476392, -53808.382607505635, -56704.11815692403, -62502.54064828643, -61664.97608005716, -53830.44377928302, -14234.52964240666, 15305.3123122826, 0.12, 0.978, 0.042, 192.0, 0.0, 0.0, 0.0, 0.0, 0.0, 0.0, 0.0, 0.0, 0.0, 1.7297106863515613E9, 0.0, 2024-10-24 00:41:26.351
208.0, -53521.16269125494, -53823.38062803515, -56724.167671700445, -62514.834107736846, -61672.93330108325, -53836.59050900823, -13974.62355788035, 15585.357318563143, 0.12, 0.978, 0.042, 192.0, 0.0, 0.0, 0.0, 0.0, 0.0, 0.0, 0.0, 0.0, 0.0, 1.7297106863545868E9, 0.0, 2024-10-24 00:41:26.354
209.0, -53511.35027543906, -53801.76649114687, -56704.4310813464, -62489.42017429116, -61640.67973383424, -53803.018188836366, -14271.834703902568, 15232.847956758495, 0.114, 0.974, 0.04, 192.0, 3.0, 144.0, 30.0, 112.0, 1.0, 64.0, 0.0, 0.0, 0.0, 1.7297106863585515E9, 0.0, 2024-10-24 00:41:26.358
210.0, -53491.03253972919, -53776.75488910138, -56682.9287031804, -62466.733153669025, -61614.952875966184, -53778.92300831354, -14636.928097835553, 14824.056902415385, 0.114, 0.974, 0.04, 192.0, 0.0, 0.0, 0.0, 0.0, 0.0, 0.0, 0.0, 0.0, 0.0, 1.7297106863625424E9, 0.0, 2024-10-24 00:41:26.362
211.0, -53477.509734333726, -53772.15042974358, -56680.76058396824, -62470.51059848197, -61633.23660293062, -53794.14454628761, -14617.7503010929, 14869.833275059853, 0.114, 0.974, 0.04, 192.0, 0.0, 0.0, 0.0, 0.0, 0.0, 0.0, 0.0, 0.0, 0.0, 1.7297106863665688E9, 0.0, 2024-10-24 00:41:26.366
212.0, -53499.101519477554, -53794.680988154534, -56707.515622081235, -62494.51637202697, -61667.50182718061, -53824.677029213555, -14247.58306116856, 15294.337605755045, 0.114, 0.974, 0.04, 192.0, 0.0, 0.0, 0.0, 0.0, 0.0, 0.0, 0.0, 0.0, 0.0, 1.7297106863715992E9, 0.0, 2024-10-24 00:41:26.371
213.0, -53525.58833665709, -53808.96375286148, -56727.07339847963, -62503.12179364226, -61673.313280738985, -53829.281488571345, -13983.698366129205, 15577.489504514875, 0.114, 0.974, 0.04, 192.0, 0.0, 0.0, 0.0, 0.0, 0.0, 0.0, 0.0, 0.0, 0.0, 1.7297106863755777E9, 0.0, 2024-10-24 00:41:26.375
214.0, -53517.58641214209, -53782.92397057104, -56709.214354659845, -62472.723421183044, -61638.91394602227, -53792.714034642464, -14283.368204041506, 15223.057892687071, 0.114, 0.974, 0.04, 192.0, 0.0, 0.0, 0.0, 0.0, 0.0, 0.0, 0.0, 0.0, 0.0, 1.7297106863795817E9, 0.0, 2024-10-24 00:41:26.379
215.0, -53494.51941186422, -53761.01926100484, -56686.86261020454, -62450.03640056091, -61616.91982947825, -53769.73644134241, -14663.727839437466, 14800.296998059393, 0.114, 0.974, 0.04, 192.0, 0.0, 0.0, 0.0, 0.0, 0.0, 0.0, 0.0, 0.0, 0.0, 1.7297106863835757E9, 0.0, 2024-10-24 00:41:26.383
216.0, -53488.52914435019, -53770.138772742604, -56693.0316916742, -62467.291947280406, -61640.322105922955, -53796.60323817769, -14601.522934618348, 14889.860438091808, 0.114, 0.974, 0.04, 192.0, 0.0, 0.0, 0.0, 0.0, 0.0, 0.0, 0.0, 0.0, 0.0, 1.729710686387628E9, 0.0, 2024-10-24 00:41:26.387
217.0, -53496.9781037543, -53786.83552585072, -56712.85768900606, -62488.257883579485, -61657.1529694978, -53819.290258799825, -14209.33922640553, 15337.074141153591, 0.114, 0.974, 0.04, 192.0, 0.0, 0.0, 0.0, 0.0, 0.0, 0.0, 0.0, 0.0, 0.0, 1.7297106863926225E9, 0.0, 2024-10-24 00:41:26.392
218.0, -53518.83810983159, -53799.017226578864, -56724.8382240341, -62494.22579934905, -61652.36969618437, -53817.79269192132, -13977.462229426174, 15587.123106375111, 0.114, 0.974, 0.04, 192.0, 0.0, 0.0, 0.0, 0.0, 0.0, 0.0, 0.0, 0.0, 0.0, 1.7297106863968098E9, 0.0, 2024-10-24 00:41:26.396
219.0, -53512.62432487301, -53782.76750835985, -56706.5321453252, -62471.91875838266, -61618.372692867844, -53786.142621772604, -14296.600436759049, 15211.05500591457, 0.12, 0.974, 0.046, 192.0, 3.0, 192.0, 30.0, 112.0, 1.0, 112.0, 0.0, 0.0, 0.0, 1.729710686401009E9, 0.0, 2024-10-24 00:41:26.401
220.0, -53499.36974041101, -53767.61302561915, -56690.97533118431, -62455.22200527454, -61599.507820547566, -53767.05423200777, -14666.790028427844, 14799.35822479227, 0.12, 0.974, 0.046, 192.0, 0.0, 0.0, 0.0, 0.0, 0.0, 0.0, 0.0, 0.0, 0.0, 1.7297106864047005E9, 0.0, 2024-10-24 00:41:26.404
221.0, -53484.61758907051, -53768.90942679757, -56690.55064803966, -62463.67096467865, -61621.3454748804, -53786.45554619498, -14609.971894022454, 14881.590292643345, 0.12, 0.974, 0.046, 192.0, 0.0, 0.0, 0.0, 0.0, 0.0, 0.0, 0.0, 0.0, 0.0, 1.7297106864086096E9, 0.0, 2024-10-24 00:41:26.408
222.0, -53505.605877114045, -53796.04444456631, -56717.35038964157, -62493.30937782638, -61653.330821195945, -53819.580831477746, -14201.67257805736, 15341.455083066832, 0.12, 0.974, 0.046, 192.0, 0.0, 0.0, 0.0, 0.0, 0.0, 0.0, 0.0, 0.0, 0.0, 1.7297106864126537E9, 0.0, 2024-10-24 00:41:26.412
223.0, -53529.05285704767, -53812.56238371878, -56731.87902353752, -62503.32295934236, -61653.24141421812, -53822.643020468124, -13956.026906493535, 15606.546772306774, 0.12, 0.974, 0.046, 192.0, 0.0, 0.0, 0.0, 0.0, 0.0, 0.0, 0.0, 0.0, 0.0, 1.7297106864176452E9, 0.0, 2024-10-24 00:41:26.417
224.0, -53513.96542954033, -53795.865630610664, -56711.04719770518, -62482.40172653219, -61616.986884711616, -53790.97059857495, -14271.857055647024, 15234.63609631492, 0.12, 0.974, 0.046, 192.0, 0.0, 0.0, 0.0, 0.0, 0.0, 0.0, 0.0, 0.0, 0.0, 1.7297106864219532E9, 0.0, 2024-10-24 00:41:26.421
225.0, -53490.89842926245, -53779.88413332512, -56690.90827595095, -62468.07425833634, -61594.590436767394, -53772.70922335496, -14641.487853704437, 14820.525326791445, 0.12, 0.974, 0.046, 192.0, 0.0, 0.0, 0.0, 0.0, 0.0, 0.0, 0.0, 0.0, 0.0, 1.7297106864246747E9, 0.0, 2024-10-24 00:41:26.424
226.0, -53475.45337384384, -53782.56634265975, -56690.662406761934, -62480.23360732003, -61616.38338761132, -53795.373892232645, -14600.047719484297, 14889.458106691613, 0.12, 0.974, 0.046, 192.0, 0.0, 0.0, 0.0, 0.0, 0.0, 0.0, 0.0, 0.0, 0.0, 1.7297106864286592E9, 0.0, 2024-10-24 00:41:26.428
227.0, -53495.63699908698, -53807.44383423851, -56716.92570649692, -62508.530915800446, -61650.045114761015, -53828.18625309304, -14211.552049106605, 15332.514385284709, 0.12, 0.974, 0.046, 192.0, 0.0, 0.0, 0.0, 0.0, 0.0, 0.0, 0.0, 0.0, 0.0, 1.7297106864316576E9, 0.0, 2024-10-24 00:41:26.431
228.0, -53521.29680172167, -53824.49821525791, -56733.98008751632, -62518.90212522771, -61654.515463652075, -53834.93647991854, -13971.404906678785, 15594.029795411801, 0.12, 0.974, 0.046, 192.0, 0.0, 0.0, 0.0, 0.0, 0.0, 0.0, 0.0, 0.0, 0.0, 1.729710686435656E9, 0.0, 2024-10-24 00:41:26.435
229.0, -53510.59031612758, -53808.6508284391, -56715.361084385055, -62495.63395924973, -61621.457233602676, -53804.046369081305, -14271.521779480194, 15238.435892872321, 0.12, 0.974, 0.046, 192.0, 0.0, 0.0, 0.0, 0.0, 0.0, 0.0, 0.0, 0.0, 0.0, 1.7297106864386487E9, 0.0, 2024-10-24 00:41:26.438
230.0, -53485.91399024892, -53791.86466835316, -56693.65754051895, -62475.182113073126, -61598.70315774717, -53781.962845559465, -14658.028144601363, 14809.12593711924, 0.12, 0.976, 0.046, 192.0, 3.0, 192.0, 30.0, 128.0, 1.0, 112.0, 0.0, 0.0, 0.0, 1.7297106864429286E9, 0.0, 2024-10-24 00:41:26.442
231.0, -53478.24734190075, -53799.3972062346, -56695.73625275329, -62486.022709133955, -61621.83721325841, -53803.08524406973, -14611.692978345513, 14883.311376966403, 0.12, 0.976, 0.046, 192.0, 0.0, 0.0, 0.0, 0.0, 0.0, 0.0, 0.0, 0.0, 0.0, 1.7297106864468975E9, 0.0, 2024-10-24 00:41:26.446
232.0, -53496.799289798655, -53821.63719196763, -56716.210450674356, -62507.346273344316, -61650.49214965012, -53830.689648472035, -14217.564668365083, 15331.75442597323, 0.12, 0.976, 0.046, 192.0, 0.0, 0.0, 0.0, 0.0, 0.0, 0.0, 0.0, 0.0, 0.0, 1.729710686450672E9, 0.0, 2024-10-24 00:41:26.450
233.0, -53515.50769990775, -53831.78488395034, -56730.40380840348, -62512.174250146665, -61650.98388802814, -53832.008401394894, -13952.875310525336, 15616.42624335602, 0.12, 0.976, 0.046, 192.0, 0.0, 0.0, 0.0, 0.0, 0.0, 0.0, 0.0, 0.0, 0.0, 1.7297106864550247E9, 0.0, 2024-10-24 00:41:26.455
234.0, -53498.94505726636, -53801.967656846966, -56706.0851104361, -62481.30649105388, -61614.97522771064, -53794.92685734354, -14263.20693054282, 15252.070456990059, 0.12, 0.976, 0.046, 192.0, 0.0, 0.0, 0.0, 0.0, 0.0, 0.0, 0.0, 0.0, 0.0, 1.7297106864625685E9, 0.0, 2024-10-24 00:41:26.462
235.0, -53483.67881580339, -53781.202886247986, -56689.768336983725, -62461.16756929965, -61598.54669553599, -53774.139735000106, -14631.541327421824, 14839.524309578457, 0.12, 0.976, 0.046, 192.0, 0.0, 0.0, 0.0, 0.0, 0.0, 0.0, 0.0, 0.0, 0.0, 1.7297106864644067E9, 0.0, 2024-10-24 00:41:26.464
236.0, -53473.240551142764, -53779.437098436014, -56691.7799939847, -62469.14714207019, -61623.826518514936, -53796.6479416666, -14583.261559398361, 14914.402653503736, 0.12, 0.976, 0.046, 192.0, 0.0, 0.0, 0.0, 0.0, 0.0, 0.0, 0.0, 0.0, 0.0, 1.7297106864666812E9, 0.0, 2024-10-24 00:41:26.466
237.0, -53492.887734518976, -53794.36806373216, -56713.2376686618, -62487.25205507899, -61649.262803705074, -53821.36897103417, -14204.734767047736, 15347.355943603034, 0.12, 0.976, 0.046, 192.0, 0.0, 0.0, 0.0, 0.0, 0.0, 0.0, 0.0, 0.0, 0.0, 1.729710686470709E9, 0.0, 2024-10-24 00:41:26.470
238.0, -53510.500909149756, -53799.75483414589, -56725.419369389936, -62487.050889378894, -61649.64278336082, -53818.1503198326, -13959.871406539847, 15611.754728764861, 0.12, 0.976, 0.046, 192.0, 0.0, 0.0, 0.0, 0.0, 0.0, 0.0, 0.0, 0.0, 0.0, 1.7297106864746819E9, 0.0, 2024-10-24 00:41:26.474
239.0, -53504.421234657915, -53780.01824379185, -56711.00249421626, -62463.35804025627, -61618.26093414557, -53787.21550550646, -14268.951328867834, 15245.677858075842, 0.12, 0.976, 0.046, 192.0, 0.0, 0.0, 0.0, 0.0, 0.0, 0.0, 0.0, 0.0, 0.0, 1.7297106864787548E9, 0.0, 2024-10-24 00:41:26.478
240.0, -53488.81971702811, -53763.94733952849, -56694.50690680825, -62447.55535692637, -61597.76438448005, -53769.35646168667, -14640.66083915959, 14829.644838529211, 0.116, 0.972, 0.036000000000000004, 192.0, 3.0, 160.0, 30.0, 96.0, 1.0, 32.0, 0.0, 0.0, 0.0, 1.7297106864827192E9, 0.0, 2024-10-24 00:41:26.482
241.0, -53485.57871408209, -53776.66548212356, -56703.335845868096, -62465.61556644626, -61627.313390649964, -53794.92685734354, -14587.575446078235, 14911.496926724545, 0.116, 0.972, 0.036000000000000004, 192.0, 0.0, 0.0, 0.0, 0.0, 0.0, 0.0, 0.0, 0.0, 0.0, 1.729710686487682E9, 0.0, 2024-10-24 00:41:26.487
242.0, -53496.41931014291, -53797.050273066794, -56724.726465311825, -62487.45322077909, -61650.71566709467, -53818.64205821062, -14214.055444485599, 15339.063446410115, 0.116, 0.972, 0.036000000000000004, 192.0, 0.0, 0.0, 0.0, 0.0, 0.0, 0.0, 0.0, 0.0, 0.0, 1.7297106864927456E9, 0.0, 2024-10-24 00:41:26.492
243.0, -53524.15782501195, -53815.378703520146, -56747.41348593396, -62500.59604651881, -61654.26959446307, -53823.98412513544, -13967.694517099204, 15604.244542627877, 0.116, 0.972, 0.036000000000000004, 192.0, 0.0, 0.0, 0.0, 0.0, 0.0, 0.0, 0.0, 0.0, 0.0, 1.7297106864967647E9, 0.0, 2024-10-24 00:41:26.496
244.0, -53512.467862661826, -53799.3972062346, -56729.80031130318, -62480.05479336438, -61620.98784696911, -53791.328226486236, -14275.656852204425, 15240.916936506861, 0.116, 0.972, 0.036000000000000004, 192.0, 0.0, 0.0, 0.0, 0.0, 0.0, 0.0, 0.0, 0.0, 0.0, 1.7297106864997404E9, 0.0, 2024-10-24 00:41:26.499
245.0, -53492.172478696404, -53787.3943194621, -56711.717750038835, -62468.543644969905, -61604.738128750105, -53776.97840654593, -14646.695810162522, 14828.5496030509, 0.116, 0.972, 0.036000000000000004, 192.0, 0.0, 0.0, 0.0, 0.0, 0.0, 0.0, 0.0, 0.0, 0.0, 1.729710686502731E9, 0.0, 2024-10-24 00:41:26.502
246.0, -53475.81100175512, -53788.042520051305, -56705.883944736, -62476.299700295895, -61620.116128935355, -53794.59158117671, -14615.671588858557, 14888.049946790929, 0.116, 0.972, 0.036000000000000004, 192.0, 0.0, 0.0, 0.0, 0.0, 0.0, 0.0, 0.0, 0.0, 0.0, 1.7297106865067444E9, 0.0, 2024-10-24 00:41:26.506
247.0, -53500.7779003117, -53817.23389830994, -56730.96260201486, -62506.161630888186, -61651.96736478417, -53827.89568041512, -14229.276982459663, 15326.769986959695, 0.116, 0.972, 0.036000000000000004, 192.0, 0.0, 0.0, 0.0, 0.0, 0.0, 0.0, 0.0, 0.0, 0.0, 1.7297106865107665E9, 0.0, 2024-10-24 00:41:26.510
248.0, -53529.656354147955, -53835.11529387418, -56748.10639001208, -62517.76218626049, -61655.11896075237, -53833.72948571795, -13974.668261369261, 15596.622597768617, 0.116, 0.972, 0.036000000000000004, 192.0, 0.0, 0.0, 0.0, 0.0, 0.0, 0.0, 0.0, 0.0, 0.0, 1.7297106865157576E9, 0.0, 2024-10-24 00:41:26.515
249.0, -53517.58641214209, -53814.86461339767, -56727.63219209101, -62494.203447604596, -61619.31146613497, -53801.43121498004, -14283.144686596954, 15229.718712534752, 0.116, 0.972, 0.036000000000000004, 192.0, 0.0, 0.0, 0.0, 0.0, 0.0, 0.0, 0.0, 0.0, 0.0, 1.7297106865228097E9, 0.0, 2024-10-24 00:41:26.522
250.0, -53494.92174326441, -53798.12315680065, -56704.453433090865, -62476.07618285134, -61597.473811802134, -53781.806383348274, -14664.621909215679, 14804.365015550258, 0.112, 0.97, 0.036000000000000004, 192.0, 3.0, 128.0, 30.0, 80.0, 1.0, 32.0, 0.0, 0.0, 0.0, 1.7297106865257924E9, 0.0, 2024-10-24 00:41:26.525
251.0, -53487.41155712742, -53806.08037782674, -56704.587543557594, -62489.21900859106, -61621.43488185822, -53805.253363281896, -14588.916550745555, 14907.80888888942, 0.112, 0.97, 0.036000000000000004, 192.0, 0.0, 0.0, 0.0, 0.0, 0.0, 0.0, 0.0, 0.0, 0.0, 1.7297106865287995E9, 0.0, 2024-10-24 00:41:26.528
252.0, -53500.62143810051, -53824.20764258, -56721.17253794343, -62506.20633437709, -61645.59711761441, -53828.56623274878, -14198.543333833615, 15352.139216916468, 0.112, 0.97, 0.036000000000000004, 192.0, 0.0, 0.0, 0.0, 0.0, 0.0, 0.0, 0.0, 0.0, 0.0, 1.7297106865318463E9, 0.0, 2024-10-24 00:41:26.531
253.0, -53527.3317727246, -53842.82664571126, -56735.61176486156, -62514.34236935883, -61647.36290542637, -53830.84611068322, -13953.590566347906, 15614.124013677123, 0.112, 0.97, 0.036000000000000004, 192.0, 0.0, 0.0, 0.0, 0.0, 0.0, 0.0, 0.0, 0.0, 0.0, 1.7297106865357912E9, 0.0, 2024-10-24 00:41:26.535
254.0, -53511.46203416133, -53826.420465281066, -56716.79159603019, -62490.89538942521, -61618.14917542329, -53800.93947660202, -14252.075761804077, 15258.418352415367, 0.112, 0.97, 0.036000000000000004, 192.0, 0.0, 0.0, 0.0, 0.0, 0.0, 0.0, 0.0, 0.0, 0.0, 1.7297106865387907E9, 0.0, 2024-10-24 00:41:26.538
255.0, -53482.29300764716, -53803.152299303096, -56693.121098652024, -62466.59904320229, -61593.85282920037, -53777.492496668405, -14622.84649882871, 14843.860548002785, 0.112, 0.97, 0.036000000000000004, 192.0, 0.0, 0.0, 0.0, 0.0, 0.0, 0.0, 0.0, 0.0, 0.0, 1.7297106865428312E9, 0.0, 2024-10-24 00:41:26.542
0.0, -53466.57973129508, -53802.81702313627, -56690.03655791719, -62472.879883394235, -61614.81876549945, -53797.631418422636, -14572.510370315358, 14923.276296052492, 0.112, 0.97, 0.036000000000000004, 192.0, 0.0, 0.0, 0.0, 0.0, 0.0, 0.0, 0.0, 0.0, 0.0, 1.7297106865478425E9, 0.0, 2024-10-24 00:41:26.547
1.0, -53483.522353592205, -53821.525433245355, -56712.43300586141, -62493.152915615196, -61645.46300714767, -53822.68772395703, -14183.65707202638, 15366.243167667768, 0.112, 0.97, 0.036000000000000004, 192.0, 0.0, 0.0, 0.0, 0.0, 0.0, 0.0, 0.0, 0.0, 0.0, 1.7297106865517964E9, 0.0, 2024-10-24 00:41:26.551
2.0, -53509.56213588264, -53831.315497316784, -56725.95581125687, -62498.02559590645, -61647.11703623737, -53823.58179373525, -13960.85488329588, 15605.719757761928, 0.112, 0.97, 0.036000000000000004, 192.0, 0.0, 0.0, 0.0, 0.0, 0.0, 0.0, 0.0, 0.0, 0.0, 1.729710686555832E9, 0.0, 2024-10-24 00:41:26.555
3.0, -53513.33958069558, -53816.94332563202, -56717.395093130486, -62483.496962010504, -61627.671018561254, -53803.487575469924, -14248.745351880236, 15260.899396049905, 0.112, 0.97, 0.036000000000000004, 192.0, 0.0, 0.0, 0.0, 0.0, 0.0, 0.0, 0.0, 0.0, 0.0, 1.7297106865598152E9, 0.0, 2024-10-24 00:41:26.559
4.0, -53492.70892056333, -53790.612970663664, -56701.8829824785, -62463.64861293419, -61606.50391656208, -53783.48276418242, -14618.912591804576, 14847.503882349001, 0.12, 0.972, 0.04, 192.0, 3.0, 192.0, 30.0, 96.0, 1.0, 64.0, 0.0, 0.0, 0.0, 1.729710686563824E9, 0.0, 2024-10-24 00:41:26.563
5.0, -53484.05879545913, -53793.38458697613, -56710.64486630498, -62479.585406730825, -61634.75652155358, -53810.17074706206, -14564.374335333627, 14930.205336833638, 0.12, 0.972, 0.04, 192.0, 0.0, 0.0, 0.0, 0.0, 0.0, 0.0, 0.0, 0.0, 0.0, 1.729710686568853E9, 0.0, 2024-10-24 00:41:26.568
6.0, -53504.35417942455, -53810.37191276216, -56735.92468928394, -62504.37349133176, -61665.266652735074, -53837.328116575256, -14185.780487749636, 15364.924414744904, 0.12, 0.972, 0.04, 192.0, 0.0, 0.0, 0.0, 0.0, 0.0, 0.0, 0.0, 0.0, 0.0, 1.7297106865718603E9, 0.0, 2024-10-24 00:41:26.571
7.0, -53536.719505395835, -53822.575965234755, -56760.019869806754, -62517.09163392683, -61674.67673715076, -53843.02781141136, -13943.219356920643, 15626.395121383086, 0.12, 0.972, 0.04, 192.0, 0.0, 0.0, 0.0, 0.0, 0.0, 0.0, 0.0, 0.0, 0.0, 1.7297106865758348E9, 0.0, 2024-10-24 00:41:26.575
8.0, -53527.68940063589, -53798.43608122302, -56740.104465497076, -62490.135430113725, -61631.85079477439, -53805.9015638711, -14251.516968192695, 15263.089867006525, 0.12, 0.972, 0.04, 192.0, 0.0, 0.0, 0.0, 0.0, 0.0, 0.0, 0.0, 0.0, 0.0, 1.7297106865788789E9, 0.0, 2024-10-24 00:41:26.578
9.0, -53510.61266787203, -53779.21358099146, -56718.19975593087, -62470.08591533732, -61607.68855901821, -53783.34865371569, -14627.070978530763, 14845.693391048122, 0.12, 0.972, 0.04, 192.0, 0.0, 0.0, 0.0, 0.0, 0.0, 0.0, 0.0, 0.0, 0.0, 1.7297106865829043E9, 0.0, 2024-10-24 00:41:26.582
10.0, -53507.5281271372, -53791.261171252874, -56722.87127052203, -62484.9498254001, -61632.40958838577, -53807.46618598297, -14551.186806104995, 14951.10421789935, 0.12, 0.972, 0.04, 192.0, 0.0, 0.0, 0.0, 0.0, 0.0, 0.0, 0.0, 0.0, 0.0, 1.729710686586884E9, 0.0, 2024-10-24 00:41:26.586
11.0, -53520.290973221185, -53811.28833428483, -56737.82458756264, -62503.32295934236, -61652.9508415402, -53829.66146822709, -14176.57156903405, 15381.28589168619, 0.12, 0.972, 0.04, 192.0, 0.0, 0.0, 0.0, 0.0, 0.0, 0.0, 0.0, 0.0, 0.0, 1.7297106865908768E9, 0.0, 2024-10-24 00:41:26.590
12.0, -53547.78361890121, -53830.533186260844, -56753.448456936894, -62516.39872984871, -61658.4046671873, -53836.903433430605, -13923.549821799974, 15652.278441462333, 0.12, 0.972, 0.04, 192.0, 0.0, 0.0, 0.0, 0.0, 0.0, 0.0, 0.0, 0.0, 0.0, 1.7297106865949154E9, 0.0, 2024-10-24 00:41:26.594
13.0, -53541.56983394264, -53818.68676169953, -56735.634116606016, -62497.01976740596, -61628.095701705905, -53807.84616563871, -14215.53065961965, 15302.518344225688, 0.12, 0.972, 0.04, 192.0, 0.0, 0.0, 0.0, 0.0, 0.0, 0.0, 0.0, 0.0, 0.0, 1.7297106865988803E9, 0.0, 2024-10-24 00:41:26.598
14.0, -53511.327923694604, -53800.02305507935, -56706.7333110253, -62473.5951392168, -61601.541829293, -53781.806383348274, -14588.044832711797, 14887.558208412911, 0.114, 0.968, 0.044, 192.0, 3.0, 144.0, 30.0, 64.0, 1.0, 96.0, 0.0, 0.0, 0.0, 1.7297106866039002E9, 0.0, 2024-10-24 00:41:26.603
15.0, -53487.63507457198, -53800.11246205717, -56699.53604931069, -62481.46295326507, -61619.91496323526, -53799.35250274569, -14547.655230481058, 14956.513340057534, 0.114, 0.968, 0.044, 192.0, 0.0, 0.0, 0.0, 0.0, 0.0, 0.0, 0.0, 0.0, 0.0, 1.7297106866069336E9, 0.0, 2024-10-24 00:41:26.606
16.0, -53503.571868368614, -53826.26400306988, -56722.98302924431, -62510.36375884578, -61653.1520072403, -53833.10363687321, -14156.186778090809, 15401.916551818438, 0.114, 0.968, 0.044, 192.0, 0.0, 0.0, 0.0, 0.0, 0.0, 0.0, 0.0, 0.0, 0.0, 1.72971068661093E9, 0.0, 2024-10-24 00:41:26.610
17.0, -53527.06355179114, -53842.223148610974, -56736.327020684126, -62518.097462427315, -61652.01206827308, -53834.958831662996, -13937.787883018003, 15637.727455821927, 0.114, 0.968, 0.044, 192.0, 0.0, 0.0, 0.0, 0.0, 0.0, 0.0, 0.0, 0.0, 0.0, 1.7297106866148596E9, 0.0, 2024-10-24 00:41:26.614
18.0, -53517.38524644199, -53830.86846242767, -56719.65261932047, -62497.198581361605, -61622.23954465861, -53804.42634873705, -14253.975660082777, 15262.3522594395, 0.114, 0.968, 0.044, 192.0, 0.0, 0.0, 0.0, 0.0, 0.0, 0.0, 0.0, 0.0, 0.0, 1.7297106866189868E9, 0.0, 2024-10-24 00:41:26.618
19.0, -53493.84885953055, -53816.27277329836, -56699.26782837723, -62477.43963926312, -61603.91111420526, -53784.689758383014, -14625.7522256079, 14847.36977188227, 0.114, 0.968, 0.044, 192.0, 0.0, 0.0, 0.0, 0.0, 0.0, 0.0, 0.0, 0.0, 0.0, 1.729710686622936E9, 0.0, 2024-10-24 00:41:26.622
20.0, -53478.73908027877, -53821.41367452308, -56695.26686611973, -62483.38520328823, -61621.85956500287, -53801.6994359135, -14566.274233612328, 14937.022618892506, 0.114, 0.968, 0.044, 192.0, 0.0, 0.0, 0.0, 0.0, 0.0, 0.0, 0.0, 0.0, 0.0, 1.729710686626974E9, 0.0, 2024-10-24 00:41:26.626
21.0, -53497.80511829915, -53847.72167774697, -56716.92570649692, -62508.15093614471, -61652.32499269545, -53831.71782871697, -14174.939891688811, 15385.912702788437, 0.114, 0.968, 0.044, 192.0, 0.0, 0.0, 0.0, 0.0, 0.0, 0.0, 0.0, 0.0, 0.0, 1.729710686631917E9, 0.0, 2024-10-24 00:41:26.631
22.0, -53523.576679656115, -53864.865465744195, -56732.23665144881, -62516.912819971185, -61658.15879799829, -53836.836378197244, -13927.930763713213, 15652.434903673518, 0.114, 0.968, 0.044, 192.0, 0.0, 0.0, 0.0, 0.0, 0.0, 0.0, 0.0, 0.0, 0.0, 1.7297106866350322E9, 0.0, 2024-10-24 00:41:26.635
23.0, -53512.601973128556, -53842.714886988986, -56712.52241283923, -62488.7496219575, -61625.927582493736, -53803.24170628092, -14230.416921426884, 15294.695233666329, 0.114, 0.968, 0.044, 192.0, 0.0, 0.0, 0.0, 0.0, 0.0, 0.0, 0.0, 0.0, 0.0, 1.729710686637969E9, 0.0, 2024-10-24 00:41:26.637
24.0, -53491.45722287384, -53819.22320356646, -56692.294084107176, -62465.41440074616, -61606.1909921397, -53780.845258336696, -14610.396577167105, 14869.363888426291, 0.11800000000000001, 0.968, 0.044, 192.0, 3.0, 176.0, 30.0, 64.0, 1.0, 96.0, 0.0, 0.0, 0.0, 1.7297106866430852E9, 0.0, 2024-10-24 00:41:26.643
25.0, -53481.01895821321, -53820.11727334467, -56693.8810579635, -62474.39980201719, -61628.788605784015, -53802.302933013794, -14550.02451539332, 14955.462808068134, 0.11800000000000001, 0.968, 0.044, 192.0, 0.0, 0.0, 0.0, 0.0, 0.0, 0.0, 0.0, 0.0, 0.0, 1.7297106866471927E9, 0.0, 2024-10-24 00:41:26.647
26.0, -53503.95184802436, -53841.03850615484, -56722.58069784412, -62500.30547384089, -61662.53973991153, -53835.27175608537, -14141.524033728128, 15416.556944436663, 0.11800000000000001, 0.968, 0.044, 192.0, 0.0, 0.0, 0.0, 0.0, 0.0, 0.0, 0.0, 0.0, 0.0, 1.729710686652969E9, 0.0, 2024-10-24 00:41:26.652
27.0, -53524.895432578975, -53845.37474457917, -56735.67882009492, -62505.46872681007, -61664.14906551231, -53836.67991598605, -13901.354539555854, 15672.931453339035, 0.11800000000000001, 0.968, 0.044, 192.0, 0.0, 0.0, 0.0, 0.0, 0.0, 0.0, 0.0, 0.0, 0.0, 1.729710686656042E9, 0.0, 2024-10-24 00:41:26.656
28.0, -53515.57475514111, -53823.693552457524, -56718.155052441965, -62484.83806667782, -61633.50482386409, -53807.66735168306, -14226.013627769189, 15291.297768509123, 0.11800000000000001, 0.968, 0.044, 192.0, 0.0, 0.0, 0.0, 0.0, 0.0, 0.0, 0.0, 0.0, 0.0, 1.729710686659079E9, 0.0, 2024-10-24 00:41:26.659
29.0, -53498.408615399436, -53807.37677900515, -56700.98891270029, -62472.92458688314, -61616.986884711616, -53791.84231660871, -14630.580202410247, 14844.08406544734, 0.11800000000000001, 0.968, 0.044, 192.0, 0.0, 0.0, 0.0, 0.0, 0.0, 0.0, 0.0, 0.0, 0.0, 1.7297106866630108E9, 0.0, 2024-10-24 00:41:26.663
30.0, -53492.463051374325, -53816.09395934272, -56709.66138954895, -62493.37643305975, -61645.91004203678, -53822.866537912676, -14570.319899358738, 14935.726217714098, 0.11800000000000001, 0.968, 0.044, 192.0, 0.0, 0.0, 0.0, 0.0, 0.0, 0.0, 0.0, 0.0, 0.0, 1.7297106866659715E9, 0.0, 2024-10-24 00:41:26.665
31.0, -53517.854633075556, -53838.937442176044, -56736.57288987314, -62523.43952935214, -61671.72630688266, -53855.54478830633, -14176.638624267414, 15384.61630161003, 0.11800000000000001, 0.968, 0.044, 192.0, 0.0, 0.0, 0.0, 0.0, 0.0, 0.0, 0.0, 0.0, 0.0, 1.7297106866709757E9, 0.0, 2024-10-24 00:41:26.670
32.0, -53543.916767110444, -53845.33004109026, -56749.42514293494, -62529.27333465497, -61668.842931847925, -53853.89075921664, -13938.525490585029, 15639.962630267459, 0.11800000000000001, 0.968, 0.044, 192.0, 0.0, 0.0, 0.0, 0.0, 0.0, 0.0, 0.0, 0.0, 0.0, 1.7297106866750944E9, 0.0, 2024-10-24 00:41:26.675
33.0, -53531.9362320824, -53812.718845929965, -56724.793520545194, -62495.99158716102, -61626.88870750531, -53811.69066568502, -14279.300186550641, 15241.408674884877, 0.11800000000000001, 0.968, 0.044, 192.0, 0.0, 0.0, 0.0, 0.0, 0.0, 0.0, 0.0, 0.0, 0.0, 1.729710686678991E9, 0.0, 2024-10-24 00:41:26.678
34.0, -53522.30263022216, -53798.391377734115, -56710.89073549399, -62482.93816839912, -61612.18125965372, -53796.49147945541, -14662.610252214701, 14814.624466255245, 0.116, 0.966, 0.038, 192.0, 3.0, 160.0, 30.0, 48.0, 1.0, 48.0, 0.0, 0.0, 0.0, 1.7297106866830697E9, 0.0, 2024-10-24 00:41:26.683
35.0, -53513.96542954033, -53808.248497038905, -56713.43883436189, -62496.72919472805, -61634.8459285314, -53820.07256985576, -14586.949597233486, 14919.543554728456, 0.116, 0.966, 0.038, 192.0, 0.0, 0.0, 0.0, 0.0, 0.0, 0.0, 0.0, 0.0, 0.0, 1.729710686687101E9, 0.0, 2024-10-24 00:41:26.687
36.0, -53536.652450162466, -53839.25036659842, -56739.679782352425, -62524.64652355272, -61668.88763533684, -53851.36501209319, -14173.598787021494, 15387.343214433577, 0.116, 0.966, 0.038, 192.0, 0.0, 0.0, 0.0, 0.0, 0.0, 0.0, 0.0, 0.0, 0.0, 1.7297106866899903E9, 0.0, 2024-10-24 00:41:26.689
37.0, -53562.088735352605, -53854.22603538347, -56751.23563423582, -62528.245154410026, -61668.5076556811, -53847.00642192441, -13937.027923706524, 15638.800339555783, 0.116, 0.966, 0.038, 192.0, 0.0, 0.0, 0.0, 0.0, 0.0, 0.0, 0.0, 0.0, 0.0, 1.7297106866941552E9, 0.0, 2024-10-24 00:41:26.694
38.0, -53543.24621477678, -53828.92386066006, -56721.82073853264, -62493.06350863737, -61624.944105737704, -53802.81702313627, -14271.320613780095, 15247.756570310185, 0.116, 0.966, 0.038, 192.0, 0.0, 0.0, 0.0, 0.0, 0.0, 0.0, 0.0, 0.0, 0.0, 1.7297106866989949E9, 0.0, 2024-10-24 00:41:26.698
39.0, -53521.050932532664, -53815.42340700906, -56698.88784872149, -62473.148104327694, -61601.20655312617, -53779.34769145819, -14654.273051532871, 14822.089948903316, 0.116, 0.966, 0.038, 192.0, 0.0, 0.0, 0.0, 0.0, 0.0, 0.0, 0.0, 0.0, 0.0, 1.7297106867031872E9, 0.0, 2024-10-24 00:41:26.703
40.0, -53504.912973035935, -53822.866537912676, -56696.54091555368, -62483.83223817733, -61623.46889060365, -53799.91129635707, -14585.921416988544, 14919.588258217367, 0.116, 0.966, 0.038, 192.0, 0.0, 0.0, 0.0, 0.0, 0.0, 0.0, 0.0, 0.0, 0.0, 1.7297106867071512E9, 0.0, 2024-10-24 00:41:26.707
41.0, -53517.273487719714, -53845.35239283471, -56714.62347681803, -62505.379319832246, -61650.96153628368, -53825.727561202955, -14204.24302866972, 15351.826292494094, 0.116, 0.966, 0.038, 192.0, 0.0, 0.0, 0.0, 0.0, 0.0, 0.0, 0.0, 0.0, 0.0, 1.7297106867112606E9, 0.0, 2024-10-24 00:41:26.711
42.0, -53541.52513045372, -53861.89268373164, -56731.34258167059, -62514.27531412546, -61656.37065844186, -53830.488482771936, -13957.032734994023, 15611.330045620209, 0.116, 0.966, 0.038, 192.0, 0.0, 0.0, 0.0, 0.0, 0.0, 0.0, 0.0, 0.0, 0.0, 1.7297106867141118E9, 0.0, 2024-10-24 00:41:26.714
43.0, -53532.42797046041, -53839.54093927633, -56711.11425293854, -62487.497924268006, -61623.51359409256, -53798.36902598966, -14278.964910383811, 15231.529203835631, 0.116, 0.966, 0.038, 192.0, 0.0, 0.0, 0.0, 0.0, 0.0, 0.0, 0.0, 0.0, 0.0, 1.729710686718046E9, 0.0, 2024-10-24 00:41:26.718
44.0, -53513.89837430696, -53823.98412513544, -56695.579790542106, -62471.047040348894, -61610.16960265274, -53783.706281626975, -14634.827033856754, 14833.243469386516, 0.124, 0.968, 0.04, 192.0, 3.0, 224.0, 30.0, 64.0, 1.0, 64.0, 0.0, 0.0, 0.0, 1.7297106867220967E9, 0.0, 2024-10-24 00:41:26.722
45.0, -53494.631170586494, -53825.794616436324, -56692.495249807274, -62477.350232285295, -61629.32504765094, -53802.571153947254, -14582.12162043114, 14916.213144804615, 0.124, 0.968, 0.04, 192.0, 0.0, 0.0, 0.0, 0.0, 0.0, 0.0, 0.0, 0.0, 0.0, 1.7297106867271166E9, 0.0, 2024-10-24 00:41:26.727
46.0, -53519.039275531686, -53857.13176216266, -56719.51850885374, -62506.51925879947, -61664.506693423595, -53836.88108168615, -14206.925238004356, 15348.22766163679, 0.124, 0.968, 0.04, 192.0, 0.0, 0.0, 0.0, 0.0, 0.0, 0.0, 0.0, 0.0, 0.0, 1.7297106867320807E9, 0.0, 2024-10-24 00:41:26.732
47.0, -53550.86815963604, -53879.72937580698, -56741.4455701644, -62520.824375250864, -61673.179170272255, -53845.37474457917, -13944.873386010337, 15627.289191161299, 0.124, 0.968, 0.04, 192.0, 0.0, 0.0, 0.0, 0.0, 0.0, 0.0, 0.0, 0.0, 0.0, 1.7297106867351196E9, 0.0, 2024-10-24 00:41:26.735
48.0, -53535.22193851733, -53853.44372432753, -56716.45631986336, -62491.20831384759, -61633.795396542, -53806.39330224911, -14283.25644531923, 15230.255154401679, 0.124, 0.968, 0.04, 192.0, 0.0, 0.0, 0.0, 0.0, 0.0, 0.0, 0.0, 0.0, 0.0, 1.7297106867393236E9, 0.0, 2024-10-24 00:41:26.739
49.0, -53520.96152555484, -53834.19887235152, -56699.60310454406, -62478.02078461895, -61616.24927714459, -53791.395281719604, -14682.548008268835, 14788.763497920454, 0.124, 0.968, 0.04, 192.0, 0.0, 0.0, 0.0, 0.0, 0.0, 0.0, 0.0, 0.0, 0.0, 1.7297106867431688E9, 0.0, 2024-10-24 00:41:26.743
50.0, -53510.12092949402, -53840.680878243555, -56705.95099996937, -62497.17622961715, -61646.133559481335, -53820.78782567833, -14606.350911420694, 14893.727289882576, 0.124, 0.968, 0.04, 192.0, 0.0, 0.0, 0.0, 0.0, 0.0, 0.0, 0.0, 0.0, 0.0, 1.7297106867462063E9, 0.0, 2024-10-24 00:41:26.746
51.0, -53524.80602560115, -53861.11037267571, -56727.386322902006, -62526.90404974271, -61675.52610344006, -53855.88006447316, -14206.522906604161, 15346.461873824821, 0.124, 0.968, 0.04, 192.0, 0.0, 0.0, 0.0, 0.0, 0.0, 0.0, 0.0, 0.0, 0.0, 1.729710686750157E9, 0.0, 2024-10-24 00:41:26.750
52.0, -53552.231616047815, -53874.92375074908, -56741.66908760895, -62540.829186538365, -61677.940091841236, -53865.73718377796, -13964.162941475266, 15602.635217027095, 0.124, 0.968, 0.04, 192.0, 0.0, 0.0, 0.0, 0.0, 0.0, 0.0, 0.0, 0.0, 0.0, 1.7297106867551372E9, 0.0, 2024-10-24 00:41:26.755
53.0, -53536.428932717914, -53845.26298585689, -56715.80811927416, -62513.89533446972, -61642.02083850156, -53833.14834036212, -14302.300131595151, 15206.562305279054, 0.124, 0.968, 0.04, 192.0, 0.0, 0.0, 0.0, 0.0, 0.0, 0.0, 0.0, 0.0, 0.0, 1.729710686759204E9, 0.0, 2024-10-24 00:41:26.759
54.0, -53519.77688309871, -53822.866537912676, -56699.71486326634, -62499.54551452941, -61627.22398367214, -53820.18432857804, -14678.278825077872, 14787.78002116442, 0.122, 0.972, 0.038, 192.0, 3.0, 208.0, 30.0, 96.0, 1.0, 48.0, 0.0, 0.0, 0.0, 1.7297106867643168E9, 0.0, 2024-10-24 00:41:26.764
55.0, -53512.378455684004, -53822.866537912676, -56705.05693019115, -62513.38124434725, -61652.23558571763, -53846.917014946586, -14589.944730990497, 14906.132508055272, 0.122, 0.972, 0.038, 192.0, 0.0, 0.0, 0.0, 0.0, 0.0, 0.0, 0.0, 0.0, 0.0, 1.7297106867692633E9, 0.0, 2024-10-24 00:41:26.769
56.0, -53536.093656551086, -53843.29603234483, -56734.36006717206, -62541.54444236094, -61685.87496112287, -53880.62344558519, -14169.575473019539, 15380.637691096985, 0.122, 0.972, 0.038, 192.0, 0.0, 0.0, 0.0, 0.0, 0.0, 0.0, 0.0, 0.0, 0.0, 1.729710686772354E9, 0.0, 2024-10-24 00:41:26.772
57.0, -53561.686403952415, -53848.52634054737, -56751.54855865819, -62544.62898309577, -61687.21606579019, -53878.365919395204, -13932.177595159721, 15633.391217397597, 0.122, 0.972, 0.038, 192.0, 0.0, 0.0, 0.0, 0.0, 0.0, 0.0, 0.0, 0.0, 0.0, 1.7297106867751648E9, 0.0, 2024-10-24 00:41:26.775
58.0, -53549.50470322427, -53820.765473933876, -56732.66133459346, -62512.33071235785, -61649.32985893844, -53837.41752355308, -14249.214738513798, 15256.518454136665, 0.122, 0.972, 0.038, 192.0, 0.0, 0.0, 0.0, 0.0, 0.0, 0.0, 0.0, 0.0, 0.0, 1.729710686779172E9, 0.0, 2024-10-24 00:41:26.779
59.0, -53527.711752380346, -53798.950171345496, -56710.041369204686, -62488.36964230176, -61624.54177433751, -53810.95305811799, -14633.061246044785, 14829.018989684462, 0.122, 0.972, 0.038, 192.0, 0.0, 0.0, 0.0, 0.0, 0.0, 0.0, 0.0, 0.0, 0.0, 1.729710686783212E9, 0.0, 2024-10-24 00:41:26.783
60.0, -53518.54753715367, -53807.488537727426, -56709.4378721044, -62496.97506391705, -61644.74775132511, -53828.23095658195, -14564.530797544814, 14927.277258309992, 0.122, 0.972, 0.038, 192.0, 0.0, 0.0, 0.0, 0.0, 0.0, 0.0, 0.0, 0.0, 0.0, 1.7297106867871425E9, 0.0, 2024-10-24 00:41:26.787
61.0, -53533.25498500526, -53833.41656129558, -56726.201680445876, -62515.95169495961, -61670.63107140435, -53849.42041032558, -14175.677499255837, 15371.004089236749, 0.122, 0.972, 0.038, 192.0, 0.0, 0.0, 0.0, 0.0, 0.0, 0.0, 0.0, 0.0, 0.0, 1.7297106867911167E9, 0.0, 2024-10-24 00:41:26.791
62.0, -53554.93617712691, -53850.202721381516, -56736.8411108066, -62517.91864847168, -61669.200559759214, -53845.84413121273, -13936.625592306327, 15624.986961482402, 0.122, 0.972, 0.038, 192.0, 0.0, 0.0, 0.0, 0.0, 0.0, 0.0, 0.0, 0.0, 0.0, 1.7297106867951467E9, 0.0, 2024-10-24 00:41:26.795
63.0, -53545.01200258875, -53835.67408748557, -56715.31638089614, -62492.437659792624, -61637.63989658832, -53810.349561017705, -14274.136933581465, 15230.098692190491, 0.122, 0.972, 0.038, 192.0, 0.0, 0.0, 0.0, 0.0, 0.0, 0.0, 0.0, 0.0, 0.0, 1.7297106867982323E9, 0.0, 2024-10-24 00:41:26.798
64.0, -53523.48727267829, -53823.917069902076, -56695.66919751993, -62475.673851451145, -61619.087948690416, -53792.53522068683, -14656.463522489492, 14803.962684150063, 0.122, 0.972, 0.036000000000000004, 192.0, 3.0, 208.0, 30.0, 96.0, 1.0, 32.0, 0.0, 0.0, 0.0, 1.7297106868021393E9, 0.0, 2024-10-24 00:41:26.802
65.0, -53506.41053991444, -53830.93551766104, -56694.238685874785, -62484.212217833076, -61639.562146611475, -53812.31651452977, -14573.896178471588, 14917.174269816194, 0.122, 0.972, 0.036000000000000004, 192.0, 0.0, 0.0, 0.0, 0.0, 0.0, 0.0, 0.0, 0.0, 0.0, 1.7297106868063445E9, 0.0, 2024-10-24 00:41:26.806
66.0, -53528.71758088083, -53858.584625552256, -56720.21141293185, -62508.30739835589, -61668.39589695882, -53839.69740148752, -14166.535635773616, 15382.51523763123, 0.122, 0.972, 0.036000000000000004, 192.0, 0.0, 0.0, 0.0, 0.0, 0.0, 0.0, 0.0, 0.0, 0.0, 1.729710686810268E9, 0.0, 2024-10-24 00:41:26.810
67.0, -53562.13343884152, -53881.47281187449, -56742.965488787355, -62519.86325023929, -61675.92843484026, -53843.832474211755, -13925.114443911845, 15643.33774368021, 0.122, 0.972, 0.036000000000000004, 192.0, 0.0, 0.0, 0.0, 0.0, 0.0, 0.0, 0.0, 0.0, 0.0, 1.7297106868152225E9, 0.0, 2024-10-24 00:41:26.815
68.0, -53554.042107348694, -53867.16769542309, -56724.81587228965, -62499.18788661813, -61640.67973383424, -53812.025941851854, -14245.929032078868, 15267.046125775114, 0.122, 0.972, 0.036000000000000004, 192.0, 0.0, 0.0, 0.0, 0.0, 0.0, 0.0, 0.0, 0.0, 0.0, 1.729710686819132E9, 0.0, 2024-10-24 00:41:26.819
69.0, -53532.00328731576, -53847.14053239114, -56701.63711328949, -62478.244302063504, -61616.60690505587, -53788.73542412942, -14625.685170374534, 14841.6030218128, 0.122, 0.972, 0.036000000000000004, 192.0, 0.0, 0.0, 0.0, 0.0, 0.0, 0.0, 0.0, 0.0, 0.0, 1.7297106868231905E9, 0.0, 2024-10-24 00:41:26.823
70.0, -53523.66608663394, -53849.68863125904, -56704.162860412944, -62491.610645247776, -61640.76914081206, -53813.74702617491, -14566.989489434898, 14930.09357811136, 0.122, 0.972, 0.036000000000000004, 192.0, 0.0, 0.0, 0.0, 0.0, 0.0, 0.0, 0.0, 0.0, 0.0, 1.729710686826228E9, 0.0, 2024-10-24 00:41:26.826
71.0, -53535.57956642861, -53869.58168382427, -56722.55834609966, -62519.19269790563, -61669.58053941495, -53848.39223008064, -14183.500609815195, 15365.863188012027, 0.122, 0.972, 0.036000000000000004, 192.0, 0.0, 0.0, 0.0, 0.0, 0.0, 0.0, 0.0, 0.0, 0.0, 1.7297106868302784E9, 0.0, 2024-10-24 00:41:26.830
72.0, -53560.52411324074, -53886.1666782101, -56740.26092770827, -62533.65427656821, -61676.330766240455, -53858.964605208, -13940.313630141454, 15622.729435292416, 0.122, 0.972, 0.036000000000000004, 192.0, 0.0, 0.0, 0.0, 0.0, 0.0, 0.0, 0.0, 0.0, 0.0, 1.7297106868362885E9, 0.0, 2024-10-24 00:41:26.836
73.0, -53548.49887472378, -53860.57393080878, -56717.864479764045, -62509.87202046777, -61641.663210590275, -53828.74504670442, -14273.086401592065, 15231.126872435436, 0.122, 0.972, 0.036000000000000004, 192.0, 0.0, 0.0, 0.0, 0.0, 0.0, 0.0, 0.0, 0.0, 0.0, 1.7297106868393075E9, 0.0, 2024-10-24 00:41:26.839
74.0, -53525.655391890454, -53837.28341308635, -56693.90340970796, -62492.50471502599, -61616.67396028924, -53811.06481684027, -14659.928042880065, 14799.179410836627, 0.124, 0.974, 0.038, 192.0, 3.0, 224.0, 30.0, 112.0, 1.0, 48.0, 0.0, 0.0, 0.0, 1.7297106868431957E9, 0.0, 2024-10-24 00:41:26.843
75.0, -53515.86532781903, -53839.786808465346, -56698.37375859902, -62510.67668326815, -61645.86533854787, -53841.61965151068, -14601.142954962606, 14888.407574702213, 0.124, 0.974, 0.038, 192.0, 0.0, 0.0, 0.0, 0.0, 0.0, 0.0, 0.0, 0.0, 0.0, 1.7297106868472152E9, 0.0, 2024-10-24 00:41:26.847
76.0, -53542.97799384332, -53865.24544539994, -56730.33675317011, -62543.354933661816, -61683.41626923279, -53880.75755605192, -14199.012720467177, 15345.679562768884, 0.124, 0.974, 0.038, 192.0, 0.0, 0.0, 0.0, 0.0, 0.0, 0.0, 0.0, 0.0, 0.0, 1.7297106868512092E9, 0.0, 2024-10-24 00:41:26.851
77.0, -53572.19172384641, -53878.65649207312, -56749.22397723484, -62552.85442505532, -61686.14318205633, -53885.071442731794, -13957.435066394219, 15602.255237371355, 0.124, 0.974, 0.038, 192.0, 0.0, 0.0, 0.0, 0.0, 0.0, 0.0, 0.0, 0.0, 0.0, 1.7297106868541772E9, 0.0, 2024-10-24 00:41:26.854
78.0, -53559.27241555124, -53849.53216904786, -56726.87223277953, -62522.165479918185, -61648.88282404934, -53849.17454113657, -14279.702517950836, 15221.470918830744, 0.124, 0.974, 0.038, 192.0, 0.0, 0.0, 0.0, 0.0, 0.0, 0.0, 0.0, 0.0, 0.0, 1.7297106868583145E9, 0.0, 2024-10-24 00:41:26.858
79.0, -53531.5339006822, -53821.12310184516, -56699.42429058842, -62495.455145294094, -61622.12778593633, -53821.19015707853, -14679.15054311163, 14781.968567606042, 0.124, 0.974, 0.038, 192.0, 0.0, 0.0, 0.0, 0.0, 0.0, 0.0, 0.0, 0.0, 0.0, 1.7297106868621995E9, 0.0, 2024-10-24 00:41:26.862
80.0, -53521.94500231087, -53825.88402341414, -56701.8829824785, -62507.547439044414, -61648.77106532706, -53843.050163155815, -14605.45684164248, 14886.731193868065, 0.124, 0.974, 0.038, 192.0, 0.0, 0.0, 0.0, 0.0, 0.0, 0.0, 0.0, 0.0, 0.0, 1.7297106868662348E9, 0.0, 2024-10-24 00:41:26.866
81.0, -53544.54261595519, -53845.21828236798, -56725.66523857895, -62529.31803814388, -61676.64369066283, -53868.173523923586, -14190.809630252079, 15355.335516373578, 0.124, 0.974, 0.038, 192.0, 0.0, 0.0, 0.0, 0.0, 0.0, 0.0, 0.0, 0.0, 0.0, 1.7297106868711977E9, 0.0, 2024-10-24 00:41:26.871
82.0, -53570.962377901364, -53854.18133189456, -56737.80223581818, -62532.04495096743, -61673.805019117004, -53863.77023026589, -13956.51864487155, 15604.17748739451, 0.124, 0.974, 0.038, 192.0, 0.0, 0.0, 0.0, 0.0, 0.0, 0.0, 0.0, 0.0, 0.0, 1.7297106868752491E9, 0.0, 2024-10-24 00:41:26.875
83.0, -53555.47261899384, -53828.856805426694, -56712.768282028235, -62498.98672091803, -61635.58353609843, -53821.704247201, -14296.153401869942, 15205.265904100646, 0.124, 0.974, 0.038, 192.0, 0.0, 0.0, 0.0, 0.0, 0.0, 0.0, 0.0, 0.0, 0.0, 1.7297106868793654E9, 0.0, 2024-10-24 00:41:26.879
84.0, -53540.16167404195, -53817.345657032216, -56694.77512774171, -62480.36771778676, -61619.423224857244, -53801.36415974667, -14668.309947050804, 14788.584683964811, 0.122, 0.976, 0.04, 192.0, 3.0, 208.0, 30.0, 128.0, 1.0, 64.0, 0.0, 0.0, 0.0, 1.7297106868833017E9, 0.0, 2024-10-24 00:41:26.883
85.0, -53526.14713026847, -53824.878194913654, -56693.76929924123, -62484.905121911186, -61638.33280066643, -53816.33982853172, -14607.55790562128, 14880.740926354043, 0.122, 0.976, 0.04, 192.0, 0.0, 0.0, 0.0, 0.0, 0.0, 0.0, 0.0, 0.0, 0.0, 1.729710686886265E9, 0.0, 2024-10-24 00:41:26.886
86.0, -53541.41337173145, -53848.54869229182, -56716.00928497426, -62504.060566909386, -61665.423114946265, -53839.87621544316, -14222.616162611981, 15320.802071190128, 0.122, 0.976, 0.04, 192.0, 0.0, 0.0, 0.0, 0.0, 0.0, 0.0, 0.0, 0.0, 0.0, 1.7297106868902385E9, 0.0, 2024-10-24 00:41:26.890
87.0, -53571.40941279047, -53869.53698033535, -56735.12002648354, -62512.598933291316, -61668.17237951427, -53840.211491609996, -13985.19593300771, 15573.89087365757, 0.122, 0.976, 0.04, 192.0, 0.0, 0.0, 0.0, 0.0, 0.0, 0.0, 0.0, 0.0, 0.0, 1.7297106868962696E9, 0.0, 2024-10-24 00:41:26.896
88.0, -53562.088735352605, -53852.30378536032, -56715.11521519604, -62487.25205507899, -61632.16371919677, -53805.11925281516, -14318.438091091883, 15180.746040433174, 0.122, 0.976, 0.04, 192.0, 0.0, 0.0, 0.0, 0.0, 0.0, 0.0, 0.0, 0.0, 0.0, 1.729710686901477E9, 0.0, 2024-10-24 00:41:26.901
89.0, -53548.09654332358, -53841.574948021764, -56702.7323487678, -62477.23847356302, -61618.99854171259, -53792.13288928663, -14685.543142025846, 14768.892797099687, 0.122, 0.976, 0.04, 192.0, 0.0, 0.0, 0.0, 0.0, 0.0, 0.0, 0.0, 0.0, 0.0, 1.7297106869032807E9, 0.0, 2024-10-24 00:41:26.903
90.0, -53534.86431060604, -53848.6604510141, -56706.04040694719, -62497.198581361605, -61643.607812357885, -53821.86070941218, -14620.946600550009, 14867.061658747394, 0.122, 0.976, 0.04, 192.0, 0.0, 0.0, 0.0, 0.0, 0.0, 0.0, 0.0, 0.0, 0.0, 1.729710686907321E9, 0.0, 2024-10-24 00:41:26.907
91.0, -53558.78067717322, -53877.248332172436, -56734.67299159444, -62534.525994601965, -61679.54941744202, -53864.06080294381, -14221.744444578224, 15323.238411335757, 0.122, 0.976, 0.04, 192.0, 0.0, 0.0, 0.0, 0.0, 0.0, 0.0, 0.0, 0.0, 0.0, 1.7297106869103284E9, 0.0, 2024-10-24 00:41:26.910
92.0, -53587.949703687395, -53893.36393992471, -56751.66031738047, -62549.05462849792, -61684.26563552209, -53873.33677689276, -13988.995729565113, 15569.55463523324, 0.122, 0.976, 0.04, 192.0, 0.0, 0.0, 0.0, 0.0, 0.0, 0.0, 0.0, 0.0, 0.0, 1.729710686915346E9, 0.0, 2024-10-24 00:41:26.915
93.0, -53565.1956278319, -53868.307634390316, -56723.45241587787, -62523.17130841867, -61646.93822228172, -53839.6079945097, -14338.174681445918, 15159.981269834194, 0.122, 0.976, 0.04, 192.0, 0.0, 0.0, 0.0, 0.0, 0.0, 0.0, 0.0, 0.0, 0.0, 1.729710686919282E9, 0.0, 2024-10-24 00:41:26.919
94.0, -53541.949813598374, -53851.32030860428, -56702.68764527889, -62508.396805333716, -61628.20746042818, -53824.76643619138, -14712.611104561223, 14741.601317119756, 0.122, 0.976, 0.04, 192.0, 0.0, 0.0, 0.0, 0.0, 0.0, 0.0, 0.0, 0.0, 0.0, 1.729710686925583E9, 0.0, 2024-10-24 00:41:26.925
95.0, -53524.001362800765, -53851.47677081547, -56695.780956242204, -62517.538668815934, -61642.132597223834, -53846.84995971322, -14644.684153161545, 14841.535966579435, 0.122, 0.976, 0.042, 192.0, 3.0, 208.0, 30.0, 128.0, 1.0, 80.0, 0.0, 0.0, 0.0, 1.729710686928283E9, 0.0, 2024-10-24 00:41:26.928
96.0, -53547.64950843448, -53876.33191064977, -56720.50198560977, -62545.52305287398, -61673.98383307265, -53879.95289325153, -14227.377084180962, 15313.98478913126, 0.122, 0.976, 0.042, 192.0, 0.0, 0.0, 0.0, 0.0, 0.0, 0.0, 0.0, 0.0, 0.0, 1.7297106869333303E9, 0.0, 2024-10-24 00:41:26.933
97.0, -53573.04109013571, -53886.1666782101, -56734.42712240543, -62549.12168373128, -61672.19569351622, -53876.84600077224, -14005.737186162138, 15551.136797802068, 0.122, 0.976, 0.042, 192.0, 0.0, 0.0, 0.0, 0.0, 0.0, 0.0, 0.0, 0.0, 0.0, 1.7297106869373312E9, 0.0, 2024-10-24 00:41:26.937
98.0, -53560.635871963015, -53863.32319537678, -56714.310552395655, -62521.33846537334, -61640.255050689586, -53841.865520699685, -14330.195108675374, 15168.51963621612, 0.122, 0.976, 0.042, 192.0, 0.0, 0.0, 0.0, 0.0, 0.0, 0.0, 0.0, 0.0, 0.0, 1.729710686940313E9, 0.0, 2024-10-24 00:41:26.940
99.0, -53542.75447639877, -53844.391267823135, -56697.99377894328, -62502.92062794216, -61628.31921915046, -53824.878194913654, -14679.105839622718, 14778.504047215469, 0.122, 0.976, 0.042, 192.0, 0.0, 0.0, 0.0, 0.0, 0.0, 0.0, 0.0, 0.0, 0.0, 1.7297106869434295E9, 0.0, 2024-10-24 00:41:26.943
100.0, -53527.711752380346, -53837.99866890892, -56694.171630641424, -62506.13927914373, -61652.01206827308, -53844.03363991185, -14597.387861894114, 14893.213199760105, 0.122, 0.976, 0.042, 192.0, 0.0, 0.0, 0.0, 0.0, 0.0, 0.0, 0.0, 0.0, 0.0, 1.7297106869473217E9, 0.0, 2024-10-24 00:41:26.947
101.0, -53544.09558106609, -53849.979203936964, -56712.88004075051, -62521.96431421809, -61680.21996977568, -53870.09577394674, -14218.48108988775, 15327.12761487098, 0.122, 0.976, 0.042, 192.0, 0.0, 0.0, 0.0, 0.0, 0.0, 0.0, 0.0, 0.0, 0.0, 1.7297106869502966E9, 0.0, 2024-10-24 00:41:26.950
102.0, -53577.15381111549, -53866.072459944786, -56733.08601773811, -62530.837956766845, -61691.4628972367, -53877.9188845061, -14017.404796767807, 15541.570251175197, 0.122, 0.976, 0.042, 192.0, 0.0, 0.0, 0.0, 0.0, 0.0, 0.0, 0.0, 0.0, 0.0, 1.7297106869543371E9, 0.0, 2024-10-24 00:41:26.954
103.0, -53563.25102606428, -53846.11235214619, -56711.27071514973, -62503.72529074256, -61657.08591426443, -53841.530244532856, -14364.169760247441, 15136.847214322952, 0.122, 0.976, 0.042, 192.0, 0.0, 0.0, 0.0, 0.0, 0.0, 0.0, 0.0, 0.0, 0.0, 1.7297106869593432E9, 0.0, 2024-10-24 00:41:26.959
104.0, -53539.78169438621, -53825.61580248068, -56688.40488057195, -62480.36771778676, -61630.37557964034, -53815.870441898165, -14739.835529307788, 14720.210697676028, 0.122, 0.976, 0.042, 192.0, 0.0, 0.0, 0.0, 0.0, 0.0, 0.0, 0.0, 0.0, 0.0, 1.7297106869633641E9, 0.0, 2024-10-24 00:41:26.963
105.0, -53534.66314490594, -53832.298974072815, -56695.69154926438, -62491.32007256986, -61657.3541351979, -53839.071552642774, -14645.08648456174, 14848.152082938204, 0.112, 0.974, 0.046, 192.0, 3.0, 128.0, 30.0, 112.0, 1.0, 112.0, 0.0, 0.0, 0.0, 1.7297106869674065E9, 0.0, 2024-10-24 00:41:26.967
106.0, -53554.08681083761, -53850.62740452617, -56719.11617745354, -62506.161630888186, -61683.9080076108, -53859.88102673066, -14239.648191886925, 15306.228733805268, 0.112, 0.974, 0.046, 192.0, 0.0, 0.0, 0.0, 0.0, 0.0, 0.0, 0.0, 0.0, 0.0, 1.7297106869704535E9, 0.0, 2024-10-24 00:41:26.970
107.0, -53581.110069884075, -53860.28335813086, -56733.35423867157, -62503.72529074256, -61676.55428368501, -53847.29699460232, -14016.77894792306, 15540.36325697461, 0.112, 0.974, 0.046, 192.0, 0.0, 0.0, 0.0, 0.0, 0.0, 0.0, 0.0, 0.0, 0.0, 1.7297106869744148E9, 0.0, 2024-10-24 00:41:26.974
108.0, -53558.08777309511, -53832.500139772914, -56707.40386335896, -62470.04121184841, -61631.35905639637, -53801.185345791026, -14366.404934692971, 15130.409911919824, 0.112, 0.974, 0.046, 192.0, 0.0, 0.0, 0.0, 0.0, 0.0, 0.0, 0.0, 0.0, 0.0, 1.729710686978476E9, 0.0, 2024-10-24 00:41:26.978
109.0, -53542.46390372085, -53820.87723265615, -56691.9811596848, -62458.73122915402, -61614.43878584371, -53785.15914501657, -14747.613936378233, 14704.899752724143, 0.112, 0.974, 0.046, 192.0, 0.0, 0.0, 0.0, 0.0, 0.0, 0.0, 0.0, 0.0, 0.0, 1.7297106869824576E9, 0.0, 2024-10-24 00:41:26.982
110.0, -53537.99355482979, -53836.12112237467, -56701.05596793366, -62482.49113351001, -61643.02666700205, -53816.67510469855, -14667.304118550315, 14817.93252443463, 0.112, 0.974, 0.046, 192.0, 0.0, 0.0, 0.0, 0.0, 0.0, 0.0, 0.0, 0.0, 0.0, 1.729710686987454E9, 0.0, 2024-10-24 00:41:26.987
111.0, -53562.73693594181, -53864.48548608846, -56728.70507582487, -62516.75635776, -61677.53776044104, -53853.64489002763, -14273.354622525529, 15268.16371299788, 0.112, 0.974, 0.046, 192.0, 0.0, 0.0, 0.0, 0.0, 0.0, 0.0, 0.0, 0.0, 0.0, 1.7297106869914837E9, 0.0, 2024-10-24 00:41:26.991
112.0, -53589.782546732735, -53881.33870140776, -56743.457227165374, -62530.972067233575, -61683.28215876605, -53861.155076164614, -14037.074331888478, 15518.123271241579, 0.112, 0.974, 0.046, 192.0, 0.0, 0.0, 0.0, 0.0, 0.0, 0.0, 0.0, 0.0, 0.0, 1.7297106869943593E9, 0.0, 2024-10-24 00:41:26.994
113.0, -53569.35305230058, -53855.857712728706, -56714.89169775149, -62502.83122096434, -61643.4513501467, -53825.14641584711, -14380.441830210904, 15113.4672896227, 0.112, 0.974, 0.046, 192.0, 0.0, 0.0, 0.0, 0.0, 0.0, 0.0, 0.0, 0.0, 0.0, 1.7297106869984E9, 0.0, 2024-10-24 00:41:26.998
114.0, -53551.85163639208, -53843.92188118958, -56698.26199987674, -62494.94105517162, -61630.330876151434, -53815.66927619807, -14756.979317305007, 14691.265188606405, 0.112, 0.974, 0.046, 192.0, 0.0, 0.0, 0.0, 0.0, 0.0, 0.0, 0.0, 0.0, 0.0, 1.7297106870034533E9, 0.0, 2024-10-24 00:41:27.003
115.0, -53538.37353448552, -53852.147323149125, -56699.22312488832, -62511.99543619102, -61653.889614807325, -53842.46901779998, -14677.47416227748, 14804.566181250357, 0.11800000000000001, 0.972, 0.042, 192.0, 3.0, 176.0, 30.0, 96.0, 1.0, 80.0, 0.0, 0.0, 0.0, 1.7297106870084386E9, 0.0, 2024-10-24 00:41:27.008
116.0, -53555.874950394034, -53875.46019261601, -56715.785767529705, -62538.28108767046, -61680.06350756449, -53869.93931173555, -14287.145648854454, 15250.841111045018, 0.11800000000000001, 0.972, 0.042, 192.0, 0.0, 0.0, 0.0, 0.0, 0.0, 0.0, 0.0, 0.0, 0.0, 1.7297106870114293E9, 0.0, 2024-10-24 00:41:27.011
117.0, -53585.312197841675, -53892.51457363541, -56729.64384909199, -62550.70865758761, -61681.20344653171, -53873.94027399305, -14052.92171870729, 15499.16899194348, 0.11800000000000001, 0.972, 0.042, 192.0, 0.0, 0.0, 0.0, 0.0, 0.0, 0.0, 0.0, 0.0, 0.0, 1.7297106870154564E9, 0.0, 2024-10-24 00:41:27.015
118.0, -53570.73886045681, -53868.48644834595, -56705.503965080265, -62523.32777062986, -61643.96544026917, -53838.579814264755, -14387.169705291952, 15105.107737196415, 0.11800000000000001, 0.972, 0.042, 192.0, 0.0, 0.0, 0.0, 0.0, 0.0, 0.0, 0.0, 0.0, 0.0, 1.7297106870196044E9, 0.0, 2024-10-24 00:41:27.019
119.0, -53550.8905113805, -53846.38057307966, -56682.79459271367, -62502.94297968662, -61619.75850102407, -53818.57500297725, -14772.06674481234, 14675.306043065315, 0.11800000000000001, 0.972, 0.042, 192.0, 0.0, 0.0, 0.0, 0.0, 0.0, 0.0, 0.0, 0.0, 0.0, 1.7297106870224607E9, 0.0, 2024-10-24 00:41:27.022
120.0, -53538.77586588572, -53845.39709632363, -56682.86164794704, -62510.900200712706, -61639.38333265583, -53838.9597939205, -14704.855049235231, 14774.100753557774, 0.11800000000000001, 0.972, 0.042, 192.0, 0.0, 0.0, 0.0, 0.0, 0.0, 0.0, 0.0, 0.0, 0.0, 1.7297106870265348E9, 0.0, 2024-10-24 00:41:27.026
121.0, -53558.400697517485, -53867.97235822349, -56707.381511614505, -62534.77186379098, -61671.32397548247, -53868.0617652013, -14298.9250181824, 15235.239593415214, 0.11800000000000001, 0.972, 0.042, 192.0, 0.0, 0.0, 0.0, 0.0, 0.0, 0.0, 0.0, 0.0, 0.0, 1.7297106870304027E9, 0.0, 2024-10-24 00:41:27.030
122.0, -53585.62512226405, -53880.109355462715, -56719.29499140919, -62537.118796958785, -61670.27344349307, -53865.60307331122, -14098.720443096214, 15450.397485541998, 0.11800000000000001, 0.972, 0.042, 192.0, 0.0, 0.0, 0.0, 0.0, 0.0, 0.0, 0.0, 0.0, 0.0, 1.7297106870344658E9, 0.0, 2024-10-24 00:41:27.034
123.0, -53572.012909890764, -53856.058878428805, -56693.188153885385, -62507.614494277776, -61633.48247211963, -53829.99674439392, -14445.53011006476, 15045.49563473411, 0.11800000000000001, 0.972, 0.042, 192.0, 0.0, 0.0, 0.0, 0.0, 0.0, 0.0, 0.0, 0.0, 0.0, 1.7297106870384223E9, 0.0, 2024-10-24 00:41:27.038
124.0, -53547.895377623485, -53837.17165436407, -56673.205694342345, -62487.81084869038, -61616.87512598934, -53811.377741262644, -14808.790660952409, 14637.621001913669, 0.11800000000000001, 0.972, 0.042, 192.0, 0.0, 0.0, 0.0, 0.0, 0.0, 0.0, 0.0, 0.0, 0.0, 1.729710687042455E9, 0.0, 2024-10-24 00:41:27.042
125.0, -53534.327868739114, -53837.75279971991, -56672.781011197694, -62493.93522667113, -61635.02474248705, -53830.17555834956, -14740.684895597089, 14739.388494418681, 0.122, 0.974, 0.042, 192.0, 3.0, 208.0, 30.0, 112.0, 1.0, 80.0, 0.0, 0.0, 0.0, 1.7297106870474632E9, 0.0, 2024-10-24 00:41:27.047
126.0, -53553.12568582603, -53854.91893946158, -56696.00447368676, -62511.28018036845, -61664.73021086815, -53855.790657495345, -14342.533271614704, 15192.212485338747, 0.122, 0.974, 0.042, 192.0, 0.0, 0.0, 0.0, 0.0, 0.0, 0.0, 0.0, 0.0, 0.0, 1.7297106870504491E9, 0.0, 2024-10-24 00:41:27.050
127.0, -53579.23252334983, -53860.4621720865, -56714.243497162286, -62512.151898402204, -61668.37354521437, -53852.907282460605, -14111.192716502275, 15436.986438868815, 0.122, 0.974, 0.042, 192.0, 0.0, 0.0, 0.0, 0.0, 0.0, 0.0, 0.0, 0.0, 0.0, 1.7297106870545397E9, 0.0, 2024-10-24 00:41:27.054
128.0, -53572.50464826878, -53826.152244347606, -56696.67502602041, -62481.328842798335, -61633.97421049765, -53816.630401209644, -14452.973240968377, 15035.079721817938, 0.122, 0.974, 0.042, 192.0, 0.0, 0.0, 0.0, 0.0, 0.0, 0.0, 0.0, 0.0, 0.0, 1.7297106870585065E9, 0.0, 2024-10-24 00:41:27.058
129.0, -53548.09654332358, -53802.794671391806, -56680.87234269051, -62466.06260133536, -61619.28911439051, -53802.03471208033, -14819.094815146305, 14626.109853519185, 0.122, 0.974, 0.042, 192.0, 0.0, 0.0, 0.0, 0.0, 0.0, 0.0, 0.0, 0.0, 0.0, 1.7297106870626023E9, 0.0, 2024-10-24 00:41:27.062
130.0, -53538.12766529652, -53805.40982549308, -56684.113345636535, -62480.16655208666, -61643.36194316888, -53824.878194913654, -14742.473035153513, 14734.158186216138, 0.122, 0.974, 0.042, 192.0, 0.0, 0.0, 0.0, 0.0, 0.0, 0.0, 0.0, 0.0, 0.0, 1.729710687066439E9, 0.0, 2024-10-24 00:41:27.066
131.0, -53565.75442144328, -53839.004497409405, -56712.88004075051, -62518.097462427315, -61680.28702500904, -53862.786753509856, -14353.306812442162, 15177.348575275968, 0.122, 0.974, 0.042, 192.0, 0.0, 0.0, 0.0, 0.0, 0.0, 0.0, 0.0, 0.0, 0.0, 1.7297106870705411E9, 0.0, 2024-10-24 00:41:27.070
132.0, -53589.89430545501, -53861.75857326491, -56730.56027061466, -62535.24125042454, -61684.82442913347, -53868.41939311259, -14124.60376317546, 15420.33438924961, 0.122, 0.974, 0.042, 192.0, 0.0, 0.0, 0.0, 0.0, 0.0, 0.0, 0.0, 0.0, 0.0, 1.7297106870756767E9, 0.0, 2024-10-24 00:41:27.075
133.0, -53578.62902624953, -53848.21341612499, -56707.582677314604, -62515.5046600705, -61649.73219033864, -53836.23288109695, -14459.544653838237, 15027.480128703133, 0.122, 0.974, 0.042, 192.0, 0.0, 0.0, 0.0, 0.0, 0.0, 0.0, 0.0, 0.0, 0.0, 1.729710687079832E9, 0.0, 2024-10-24 00:41:27.079
134.0, -53557.26075855026, -53840.63617475465, -56686.01324391524, -62503.7029389981, -61632.0966639634, -53818.999686121904, -14819.005408168485, 14627.629772142145, 0.122, 0.974, 0.042, 192.0, 0.0, 0.0, 0.0, 0.0, 0.0, 0.0, 0.0, 0.0, 0.0, 1.7297106870826533E9, 0.0, 2024-10-24 00:41:27.082
135.0, -53544.9896508443, -53846.67114575758, -56683.7780694697, -62515.68347402615, -61651.095646750415, -53840.23384335445, -14726.268020423417, 14754.25240448146, 0.12, 0.974, 0.042, 192.0, 3.0, 192.0, 30.0, 112.0, 1.0, 80.0, 0.0, 0.0, 0.0, 1.7297106870865057E9, 0.0, 2024-10-24 00:41:27.086
136.0, -53567.341395299605, -53875.66135831611, -56706.84506974758, -62544.07018948439, -61678.65534766381, -53871.2133611695, -14341.818015792134, 15192.301892316567, 0.12, 0.974, 0.042, 192.0, 0.0, 0.0, 0.0, 0.0, 0.0, 0.0, 0.0, 0.0, 0.0, 1.72971068709059E9, 0.0, 2024-10-24 00:41:27.090
137.0, -53594.83404097963, -53892.0228352574, -56719.36204664255, -62550.35102967633, -61677.87303660787, -53870.85573325822, -14138.081865082011, 15407.124508276524, 0.12, 0.974, 0.042, 192.0, 0.0, 0.0, 0.0, 0.0, 0.0, 0.0, 0.0, 0.0, 0.0, 1.7297106870945537E9, 0.0, 2024-10-24 00:41:27.094
138.0, -53584.30636934118, -53874.49906760443, -56697.05500567616, -62526.03233170895, -61642.80314955749, -53838.22218635347, -14465.311403907706, 15023.032131556527, 0.12, 0.974, 0.042, 192.0, 0.0, 0.0, 0.0, 0.0, 0.0, 0.0, 0.0, 0.0, 0.0, 1.7297106870985107E9, 0.0, 2024-10-24 00:41:27.098
139.0, -53563.0945638531, -53860.551579064326, -56674.457392031836, -62509.53674430094, -61621.81486151396, -53817.680933199044, -14835.568050809867, 14610.351873678193, 0.12, 0.974, 0.042, 192.0, 0.0, 0.0, 0.0, 0.0, 0.0, 0.0, 0.0, 0.0, 0.0, 1.7297106871035562E9, 0.0, 2024-10-24 00:41:27.103
140.0, -53554.891473637996, -53869.067593701795, -56675.999662399256, -62524.62417180827, -61643.71957108016, -53842.73723873344, -14756.755799860455, 14718.869593008709, 0.12, 0.974, 0.042, 192.0, 0.0, 0.0, 0.0, 0.0, 0.0, 0.0, 0.0, 0.0, 0.0, 1.729710687106527E9, 0.0, 2024-10-24 00:41:27.106
141.0, -53575.32096807015, -53895.39794867015, -56698.306703365655, -62551.110988987806, -61673.13446678335, -53875.214323427004, -14352.32333568613, 15176.074525842016, 0.12, 0.974, 0.042, 192.0, 0.0, 0.0, 0.0, 0.0, 0.0, 0.0, 0.0, 0.0, 0.0, 1.7297106871105192E9, 0.0, 2024-10-24 00:41:27.110
142.0, -53599.1032241706, -53909.680713377085, -56708.45439534836, -62556.36364893481, -61672.86624584988, -53877.09186996125, -14125.497832953673, 15416.199316525379, 0.12, 0.974, 0.042, 192.0, 0.0, 0.0, 0.0, 0.0, 0.0, 0.0, 0.0, 0.0, 0.0, 1.729710687114679E9, 0.0, 2024-10-24 00:41:27.114
143.0, -53585.580418775135, -53881.00342524093, -56681.83346770209, -62522.27723864046, -61636.58936459892, -53839.6079945097, -14451.341563623138, 15032.933954350228, 0.12, 0.974, 0.042, 192.0, 0.0, 0.0, 0.0, 0.0, 0.0, 0.0, 0.0, 0.0, 0.0, 1.7297106871186264E9, 0.0, 2024-10-24 00:41:27.118
144.0, -53558.64656670649, -53849.55452079231, -56654.83256040008, -62490.80598244739, -61611.10837591987, -53811.958886618486, -14831.209460641083, 14611.737681834422, 0.12, 0.974, 0.042, 192.0, 0.0, 0.0, 0.0, 0.0, 0.0, 0.0, 0.0, 0.0, 0.0, 1.7297106871226225E9, 0.0, 2024-10-24 00:41:27.122
145.0, -53546.93425261191, -53848.05695391381, -56656.44188600086, -62497.86913369526, -61635.47177737615, -53834.601203751714, -14736.996857761964, 14738.762645573932, 0.12, 0.98, 0.044, 192.0, 3.0, 192.0, 30.0, 160.0, 1.0, 96.0, 0.0, 0.0, 0.0, 1.729710687126548E9, 0.0, 2024-10-24 00:41:27.126
146.0, -53568.05665112218, -53866.78771576735, -56679.26301708973, -62518.745663016525, -61664.88667307934, -53862.27266338738, -14350.915175785445, 15177.929720631806, 0.12, 0.98, 0.044, 192.0, 0.0, 0.0, 0.0, 0.0, 0.0, 0.0, 0.0, 0.0, 0.0, 1.7297106871315663E9, 0.0, 2024-10-24 00:41:27.131
147.0, -53593.78350899024, -53880.869314774194, -56695.19981088636, -62525.026503208464, -61664.75256261261, -53863.23378839896, -14143.669801195838, 15397.960293049848, 0.12, 0.98, 0.044, 192.0, 0.0, 0.0, 0.0, 0.0, 0.0, 0.0, 0.0, 0.0, 0.0, 1.729710687134596E9, 0.0, 2024-10-24 00:41:27.134
