%OpenBCI Raw EXG Data
%Number of channels = 8
%Sample Rate = 250 Hz
%Board = OpenBCI_GUI$BoardCytonSerial
Sample Index, EXG Channel 0, EXG Channel 1, EXG Channel 2, EXG Channel 3, EXG Channel 4, EXG Channel 5, EXG Channel 6, EXG Channel 7, Accel Channel 0, Accel Channel 1, Accel Channel 2, Other, Other, Other, Other, Other, Other, Other, Analog Channel 0, Analog Channel 1, Analog Channel 2, Timestamp, Other, Timestamp (Formatted)
0.0, 0.0, 0.0, 0.0, 0.0, 0.0, 0.0, 0.0, 0.0, 0.0, 0.0, 0.0, 192.0, 0.0, 0.0, 0.0, 0.0, 0.0, 0.0, 0.0, 0.0, 0.0, 1.7297104500336685E9, 0.0, 2024-10-24 00:37:30.033
1.0, -59061.377830669626, -59855.91529082243, -61100.5721808162, -65431.490889965404, -67746.48341494601, -57932.972363587905, -31977.634963707325, -120.49825435856037, 0.068, 0.9540000000000001, 0.2, 192.0, 2.0, 32.0, 29.0, 208.0, 6.0, 64.0, 0.0, 0.0, 0.0, 1.72971045005581E9, 0.0, 2024-10-24 00:37:30.055
2.0, -59035.24864140137, -59838.346819680555, -61078.689822994456, -65415.352930468674, -67736.60394389677, -57921.215346004414, -32187.763713331668, -339.9253296763098, 0.068, 0.9540000000000001, 0.2, 192.0, 0.0, 0.0, 0.0, 0.0, 0.0, 0.0, 0.0, 0.0, 0.0, 1.7297104500593083E9, 0.0, 2024-10-24 00:37:30.059
3.0, -59034.57808906771, -59853.03191578769, -61086.04354692025, -65435.782424900826, -67757.50282496247, -57954.072410353714, -32016.281129870553, -133.9093010317446, 0.068, 0.9540000000000001, 0.2, 192.0, 0.0, 0.0, 0.0, 0.0, 0.0, 0.0, 0.0, 0.0, 0.0, 1.729710450061669E9, 0.0, 2024-10-24 00:37:30.061
4.0, -59055.1863974555, -59872.20971253035, -61109.490526853864, -65459.18470134553, -67793.37737481325, -57979.84397171068, -31756.553859299882, 151.34366170688412, 0.068, 0.9540000000000001, 0.2, 192.0, 0.0, 0.0, 0.0, 0.0, 0.0, 0.0, 0.0, 0.0, 0.0, 1.7297104500648596E9, 0.0, 2024-10-24 00:37:30.064
5.0, -59063.054211503775, -59863.98427057079, -61108.61880882011, -65447.40533201759, -67769.19278731261, -57956.62050922162, -31737.063138134858, 153.98116755261034, 0.068, 0.9540000000000001, 0.2, 192.0, 0.0, 0.0, 0.0, 0.0, 0.0, 0.0, 0.0, 0.0, 0.0, 1.729710450069278E9, 0.0, 2024-10-24 00:37:30.069
6.0, -59054.7393625664, -59848.24864247425, -61091.050337678236, -65429.970971342445, -67739.91200207615, -57937.04038107877, -31988.028524879042, -127.27083292851842, 0.068, 0.9540000000000001, 0.2, 192.0, 0.0, 0.0, 0.0, 0.0, 0.0, 0.0, 0.0, 0.0, 0.0, 1.729710450072723E9, 0.0, 2024-10-24 00:37:30.072
7.0, -59037.05913270225, -59839.62086911451, -61076.924035182485, -65421.70082589398, -67729.85371707127, -57928.70318039694, -32188.098989498496, -336.88549243038807, 0.068, 0.9540000000000001, 0.2, 192.0, 0.0, 0.0, 0.0, 0.0, 0.0, 0.0, 0.0, 0.0, 0.0, 1.729710450075524E9, 0.0, 2024-10-24 00:37:30.075
8.0, -59037.08148444671, -59855.043572788665, -61082.936654440964, -65438.33052376873, -67749.56795568085, -57951.43490450799, -32004.501760542604, -118.50894910203804, 0.06, 0.96, 0.198, 192.0, 1.0, 224.0, 30.0, 0.0, 6.0, 48.0, 0.0, 0.0, 0.0, 1.729710450078751E9, 0.0, 2024-10-24 00:37:30.078
9.0, -59038.28847864729, -59870.10864855155, -61093.68784352396, -65453.105026853686, -67773.57372922584, -57971.01503265084, -31723.786201928404, 187.10645283537542, 0.06, 0.96, 0.198, 192.0, 0.0, 0.0, 0.0, 0.0, 0.0, 0.0, 0.0, 0.0, 0.0, 1.729710450081845E9, 0.0, 2024-10-24 00:37:30.081
10.0, -59061.31077543626, -59878.08822132209, -61108.68586405348, -65450.82514891925, -67764.87890063273, -57959.34742204517, -31700.27216676142, 194.19195582770777, 0.06, 0.96, 0.198, 192.0, 0.0, 0.0, 0.0, 0.0, 0.0, 0.0, 0.0, 0.0, 0.0, 1.729710450085836E9, 0.0, 2024-10-24 00:37:30.085
11.0, -59052.280670676315, -59858.44103794588, -61092.12322141209, -65427.40052073009, -67740.62725789873, -57932.03359032078, -31967.71078916917, -100.11346341532034, 0.06, 0.96, 0.198, 192.0, 0.0, 0.0, 0.0, 0.0, 0.0, 0.0, 0.0, 0.0, 0.0, 1.7297104500890665E9, 0.0, 2024-10-24 00:37:30.089
12.0, -59036.343876879684, -59848.85213957455, -61078.868636950094, -65420.449128204484, -67735.08402527381, -57926.46800595141, -32165.590782832, -305.57069844850287, 0.06, 0.96, 0.198, 192.0, 0.0, 0.0, 0.0, 0.0, 0.0, 0.0, 0.0, 0.0, 0.0, 1.7297104500927343E9, 0.0, 2024-10-24 00:37:30.092
13.0, -59026.37499885262, -59851.89197682047, -61079.5168375393, -65430.55211669829, -67753.30069700489, -57946.27165153881, -31990.75543770259, -98.01239943652146, 0.06, 0.96, 0.198, 192.0, 0.0, 0.0, 0.0, 0.0, 0.0, 0.0, 0.0, 0.0, 0.0, 1.729710450096742E9, 0.0, 2024-10-24 00:37:30.096
14.0, -59029.52659482081, -59861.39146821397, -61089.306901610726, -65443.98551511592, -67767.31524077836, -57966.097648870666, -31694.75128588096, 219.20355787319636, 0.06, 0.96, 0.198, 192.0, 0.0, 0.0, 0.0, 0.0, 0.0, 0.0, 0.0, 0.0, 0.0, 1.7297104501007345E9, 0.0, 2024-10-24 00:37:30.100
15.0, -59063.88122604862, -59870.62273867402, -61111.65864606603, -65450.51222449687, -67765.92943262213, -57964.71184071444, -31663.168270965612, 232.21227314618508, 0.06, 0.96, 0.198, 192.0, 0.0, 0.0, 0.0, 0.0, 0.0, 0.0, 0.0, 0.0, 0.0, 1.7297104501063783E9, 0.0, 2024-10-24 00:37:30.106
16.0, -59059.54498762429, -59855.669421633414, -61100.7733465163, -65437.05647433478, -67743.9353160781, -57944.41645674902, -31913.485457120594, -47.87743662326773, 0.06, 0.96, 0.198, 192.0, 0.0, 0.0, 0.0, 0.0, 0.0, 0.0, 0.0, 0.0, 0.0, 1.7297104501087785E9, 0.0, 2024-10-24 00:37:30.108
17.0, -59027.9843244534, -59837.005715013234, -61077.840456705155, -65421.09732879369, -67724.60105712427, -57927.38442747408, -32119.21091308724, -262.23066594966247, 0.06, 0.96, 0.198, 192.0, 0.0, 0.0, 0.0, 0.0, 0.0, 0.0, 0.0, 0.0, 0.0, 1.729710450112757E9, 0.0, 2024-10-24 00:37:30.112
18.0, -59025.12330116312, -59844.8735290615, -61080.29914859524, -65432.7425876549, -67743.82355735583, -57944.37175326011, -31945.60491390287, -53.13009657026489, 0.054, 0.964, 0.192, 192.0, 1.0, 176.0, 30.0, 32.0, 6.0, 0.0, 0.0, 0.0, 0.0, 1.7297104501167471E9, 0.0, 2024-10-24 00:37:30.116
19.0, -59036.36622862414, -59860.452694946856, -61095.05129993574, -65449.752265185394, -67767.94108962311, -57966.61173899314, -31660.955448264536, 257.04506123603124, 0.054, 0.964, 0.192, 192.0, 0.0, 0.0, 0.0, 0.0, 0.0, 0.0, 0.0, 0.0, 0.0, 1.7297104501215494E9, 0.0, 2024-10-24 00:37:30.121
20.0, -59059.09795273518, -59863.157256025945, -61105.06488145172, -65445.10310233869, -67758.53100520742, -57955.45821850994, -31636.72615727498, 263.14708747233004, 0.054, 0.964, 0.192, 192.0, 0.0, 0.0, 0.0, 0.0, 0.0, 0.0, 0.0, 0.0, 0.0, 1.7297104501247752E9, 0.0, 2024-10-24 00:37:30.124
21.0, -59050.15725495306, -59840.67140110391, -61089.23984637736, -65423.75718638387, -67735.41930144063, -57931.60890717613, -31917.821695544924, -49.35265175731799, 0.054, 0.964, 0.192, 192.0, 0.0, 0.0, 0.0, 0.0, 0.0, 0.0, 0.0, 0.0, 0.0, 1.729710450129747E9, 0.0, 2024-10-24 00:37:30.129
22.0, -59034.71219953444, -59823.81818578461, -61071.60432000212, -65410.815526344246, -67714.05103374136, -57920.36597971511, -32123.83772418949, -267.61743636339145, 0.054, 0.964, 0.192, 192.0, 0.0, 0.0, 0.0, 0.0, 0.0, 0.0, 0.0, 0.0, 0.0, 1.729710450133776E9, 0.0, 2024-10-24 00:37:30.133
23.0, -59033.751074522865, -59836.2234039573, -61075.582930515164, -65427.51227945236, -67737.81093809736, -57946.69633468346, -31919.207503701153, -28.20790150259751, 0.054, 0.964, 0.192, 192.0, 0.0, 0.0, 0.0, 0.0, 0.0, 0.0, 0.0, 0.0, 0.0, 1.72971045013796E9, 0.0, 2024-10-24 00:37:30.137
24.0, -59049.03966773029, -59856.54113966718, -61095.163058658014, -65446.71242793947, -67765.39299075521, -57965.49415177038, -31619.02357566638, 296.3617797329163, 0.054, 0.964, 0.192, 192.0, 0.0, 0.0, 0.0, 0.0, 0.0, 0.0, 0.0, 0.0, 0.0, 1.7297104501407928E9, 0.0, 2024-10-24 00:37:30.140
25.0, -59053.28649917681, -59850.305002964145, -61094.06782317971, -65433.77076789985, -67741.40956895467, -57941.80130264775, -31595.889520155135, 300.25098326813975, 0.054, 0.964, 0.192, 192.0, 0.0, 0.0, 0.0, 0.0, 0.0, 0.0, 0.0, 0.0, 0.0, 1.729710450145848E9, 0.0, 2024-10-24 00:37:30.145
26.0, -59047.72091480743, -59831.909517277425, -61080.67912825097, -65414.8388403462, -67720.35422567776, -57920.07540703719, -31855.147404092244, 10.639430360726163, 0.054, 0.964, 0.192, 192.0, 0.0, 0.0, 0.0, 0.0, 0.0, 0.0, 0.0, 0.0, 0.0, 1.729710450149824E9, 0.0, 2024-10-24 00:37:30.149
27.0, -59021.099987161164, -59814.586915324566, -61053.90173839352, -65397.873866304624, -67704.41743188113, -57907.513726653306, -32085.191558026265, -230.89352022332196, 0.054, 0.964, 0.192, 192.0, 0.0, 0.0, 0.0, 0.0, 0.0, 0.0, 0.0, 0.0, 0.0, 1.7297104501548324E9, 0.0, 2024-10-24 00:37:30.154
28.0, -59020.96587669443, -59826.70156081934, -61060.13787509655, -65414.81648860175, -67734.39112119569, -57934.98402058888, -31934.1384689973, -43.94352959913368, 0.052000000000000005, 0.964, 0.188, 192.0, 1.0, 160.0, 30.0, 32.0, 5.0, 224.0, 0.0, 0.0, 0.0, 1.7297104501591253E9, 0.0, 2024-10-24 00:37:30.159
29.0, -59025.4809290744, -59840.93962203737, -61071.49256127985, -65431.2450207764, -67756.04996157289, -57953.29009929778, -31642.895238744648, 273.49594515513724, 0.052000000000000005, 0.964, 0.188, 192.0, 0.0, 0.0, 0.0, 0.0, 0.0, 0.0, 0.0, 0.0, 0.0, 1.729710450162818E9, 0.0, 2024-10-24 00:37:30.162
30.0, -59049.59846134168, -59846.661668617926, -61085.95413994243, -65431.13326205412, -67741.74484512149, -57945.332878271685, -31604.137313859144, 294.3501227319387, 0.052000000000000005, 0.964, 0.188, 192.0, 0.0, 0.0, 0.0, 0.0, 0.0, 0.0, 0.0, 0.0, 0.0, 1.7297104501658244E9, 0.0, 2024-10-24 00:37:30.165
31.0, -59034.84631000118, -59823.84053752906, -61067.58100600017, -65405.987549541904, -67712.75463256295, -57917.34849421364, -31879.93548869318, -11.80172107240213, 0.052000000000000005, 0.964, 0.188, 192.0, 0.0, 0.0, 0.0, 0.0, 0.0, 0.0, 0.0, 0.0, 0.0, 1.7297104501698744E9, 0.0, 2024-10-24 00:37:30.169
32.0, -59015.579106280704, -59814.7657292802, -61052.04654360373, -65395.61634011464, -67711.32412091782, -57904.1162614961, -32105.933976880788, -248.4172878762827, 0.052000000000000005, 0.964, 0.188, 192.0, 0.0, 0.0, 0.0, 0.0, 0.0, 0.0, 0.0, 0.0, 0.0, 1.7297104501728487E9, 0.0, 2024-10-24 00:37:30.172
33.0, -59013.969780679916, -59832.08833123307, -61062.305994308714, -65417.319883980745, -67738.68265613112, -57936.79451188976, -31928.572884627927, -37.707392896103016, 0.052000000000000005, 0.964, 0.188, 192.0, 0.0, 0.0, 0.0, 0.0, 0.0, 0.0, 0.0, 0.0, 0.0, 1.7297104501768675E9, 0.0, 2024-10-24 00:37:30.176
34.0, -59016.58493478119, -59848.13688375198, -61075.27000609279, -65432.80964288827, -67754.08300806081, -57957.022840621816, -31635.899142730137, 277.5192591570925, 0.052000000000000005, 0.964, 0.188, 192.0, 0.0, 0.0, 0.0, 0.0, 0.0, 0.0, 0.0, 0.0, 0.0, 1.729710450183892E9, 0.0, 2024-10-24 00:37:30.183
35.0, -59039.40606587006, -59848.4274564299, -61088.14461089905, -65428.54045969731, -67744.69527538959, -57941.46602648092, -31621.25875011191, 273.83122132196684, 0.052000000000000005, 0.964, 0.188, 192.0, 0.0, 0.0, 0.0, 0.0, 0.0, 0.0, 0.0, 0.0, 0.0, 1.7297104501868837E9, 0.0, 2024-10-24 00:37:30.186
36.0, -59029.280725631805, -59829.60728759853, -61075.20295085943, -65411.62018914464, -67725.40571992466, -57921.505918682335, -31875.442788057662, -11.153520483198225, 0.052000000000000005, 0.964, 0.188, 192.0, 0.0, 0.0, 0.0, 0.0, 0.0, 0.0, 0.0, 0.0, 0.0, 1.729710450190884E9, 0.0, 2024-10-24 00:37:30.190
37.0, -59014.23800161338, -59822.52178460619, -61059.17675008497, -65405.71932860844, -67722.25412395646, -57916.00738954633, -32066.796072339544, -213.14623512580815, 0.052000000000000005, 0.964, 0.188, 192.0, 0.0, 0.0, 0.0, 0.0, 0.0, 0.0, 0.0, 0.0, 0.0, 1.7297104501954665E9, 0.0, 2024-10-24 00:37:30.195
38.0, -59007.55483002125, -59835.374037668, -61062.48480826436, -65422.79606137229, -67747.44453995759, -57941.913061370025, -31876.426264813694, 10.88529954973454, 0.048, 0.96, 0.194, 192.0, 1.0, 128.0, 30.0, 0.0, 6.0, 16.0, 0.0, 0.0, 0.0, 1.7297104501968932E9, 0.0, 2024-10-24 00:37:30.196
39.0, -59014.97560918041, -59845.87935756199, -61077.16990437149, -65440.99038135891, -67767.11407507827, -57965.60591049265, -31602.43858128054, 307.3811897493827, 0.048, 0.96, 0.194, 192.0, 0.0, 0.0, 0.0, 0.0, 0.0, 0.0, 0.0, 0.0, 0.0, 1.7297104502009163E9, 0.0, 2024-10-24 00:37:30.200
40.0, -59045.418685128534, -59850.9755552978, -61093.486677823865, -65441.772692414845, -67753.5465661939, -57953.69243069797, -31575.370618745164, 316.56775672051396, 0.048, 0.96, 0.194, 192.0, 0.0, 0.0, 0.0, 0.0, 0.0, 0.0, 0.0, 0.0, 0.0, 1.7297104502056131E9, 0.0, 2024-10-24 00:37:30.205
41.0, -59034.242812900884, -59830.568412610104, -61070.151456612526, -65420.247962504385, -67718.54373437689, -57927.74205538536, -31837.869505628292, 24.43045668965062, 0.048, 0.96, 0.194, 192.0, 0.0, 0.0, 0.0, 0.0, 0.0, 0.0, 0.0, 0.0, 0.0, 1.729710450209067E9, 0.0, 2024-10-24 00:37:30.209
42.0, -59013.50039404636, -59817.20206942583, -61049.14081682454, -65407.95450305397, -67709.96066450604, -57917.97434305839, -32053.094452988444, -200.45044427519375, 0.048, 0.96, 0.194, 192.0, 0.0, 0.0, 0.0, 0.0, 0.0, 0.0, 0.0, 0.0, 0.0, 1.7297104502129214E9, 0.0, 2024-10-24 00:37:30.212
43.0, -59008.85123119965, -59826.27687767469, -61053.74527618233, -65418.8398026037, -67738.90617357567, -57939.61083169113, -31879.89078520427, 8.560718126382605, 0.048, 0.96, 0.194, 192.0, 0.0, 0.0, 0.0, 0.0, 0.0, 0.0, 0.0, 0.0, 0.0, 1.7297104502179148E9, 0.0, 2024-10-24 00:37:30.217
44.0, -59014.39446382457, -59838.905613291936, -61063.155360598015, -65430.57446844274, -67753.30069700489, -57954.72061094292, -31590.458046252497, 322.02158236760886, 0.048, 0.96, 0.194, 192.0, 0.0, 0.0, 0.0, 0.0, 0.0, 0.0, 0.0, 0.0, 0.0, 1.7297104502210808E9, 0.0, 2024-10-24 00:37:30.221
45.0, -59043.407028127556, -59849.098008763554, -61077.14755262704, -65429.27806726433, -67741.00723755447, -57944.03647709328, -31543.38527242962, 349.3354140919941, 0.048, 0.96, 0.194, 192.0, 0.0, 0.0, 0.0, 0.0, 0.0, 0.0, 0.0, 0.0, 0.0, 1.729710450224022E9, 0.0, 2024-10-24 00:37:30.224
46.0, -59024.98919069638, -59821.94063925036, -61052.7617994263, -65399.0361570163, -67703.99274873648, -57910.106529010125, -31800.117409243278, 63.657768208714515, 0.048, 0.96, 0.194, 192.0, 0.0, 0.0, 0.0, 0.0, 0.0, 0.0, 0.0, 0.0, 0.0, 1.7297104502289004E9, 0.0, 2024-10-24 00:37:30.228
47.0, -59007.64423699907, -59807.657874543416, -61034.67923816195, -65387.65911908855, -67693.44272535357, -57901.27758995028, -32002.870083197366, -148.3708796943283, 0.048, 0.96, 0.194, 192.0, 0.0, 0.0, 0.0, 0.0, 0.0, 0.0, 0.0, 0.0, 0.0, 1.7297104502328956E9, 0.0, 2024-10-24 00:37:30.232
48.0, -59000.58108575119, -59814.9668949803, -61037.8084823857, -65401.47249716193, -67724.01991176842, -57926.110378040124, -31832.281569514464, 55.72289892708051, 0.05, 0.966, 0.196, 192.0, 1.0, 144.0, 30.0, 48.0, 6.0, 32.0, 0.0, 0.0, 0.0, 1.7297104502369778E9, 0.0, 2024-10-24 00:37:30.236
49.0, -59010.482908544895, -59831.39542715495, -61052.71709593738, -65419.219782259446, -67742.2365834995, -57949.75852367384, -31555.611676646673, 355.5044955616588, 0.05, 0.966, 0.196, 192.0, 0.0, 0.0, 0.0, 0.0, 0.0, 0.0, 0.0, 0.0, 0.0, 1.729710450240946E9, 0.0, 2024-10-24 00:37:30.240
50.0, -59032.92405997802, -59837.45274990234, -61067.24572983334, -65416.537572924804, -67734.81580434034, -57935.207538033435, -31528.744879811395, 361.18183865330684, 0.05, 0.966, 0.196, 192.0, 0.0, 0.0, 0.0, 0.0, 0.0, 0.0, 0.0, 0.0, 0.0, 1.7297104502449727E9, 0.0, 2024-10-24 00:37:30.244
51.0, -59021.74818775037, -59817.55969733712, -61055.28754654975, -65396.063375003745, -67713.73810931899, -57906.954933041925, -31757.98437094502, 98.68295177018068, 0.05, 0.966, 0.196, 192.0, 0.0, 0.0, 0.0, 0.0, 0.0, 0.0, 0.0, 0.0, 0.0, 1.729710450248968E9, 0.0, 2024-10-24 00:37:30.248
52.0, -58997.69771071646, -59793.9115517034, -61031.99702882732, -65375.8797497606, -67694.42620210961, -57886.14545895404, -31955.886716352314, -110.4623210981275, 0.05, 0.966, 0.196, 192.0, 0.0, 0.0, 0.0, 0.0, 0.0, 0.0, 0.0, 0.0, 0.0, 1.7297104502519352E9, 0.0, 2024-10-24 00:37:30.251
53.0, -58986.7230041889, -59796.92903720487, -61029.515985192775, -65385.80392429876, -67714.74393781948, -57909.21245923191, -31804.25248196751, 74.74423345854682, 0.05, 0.966, 0.196, 192.0, 0.0, 0.0, 0.0, 0.0, 0.0, 0.0, 0.0, 0.0, 0.0, 1.729710450256926E9, 0.0, 2024-10-24 00:37:30.256
54.0, -58996.15544034904, -59812.35174087903, -61049.856072647104, -65407.99920654288, -67751.82548187084, -57940.88488112508, -31513.411583115052, 387.86982153294343, 0.05, 0.966, 0.196, 192.0, 0.0, 0.0, 0.0, 0.0, 0.0, 0.0, 0.0, 0.0, 0.0, 1.729710450260949E9, 0.0, 2024-10-24 00:37:30.260
55.0, -59019.89299296057, -59813.02229321269, -61067.40219204452, -65409.67558737702, -67744.71762713404, -57939.43201773549, -31482.36501006663, 398.93393503832044, 0.05, 0.966, 0.196, 192.0, 0.0, 0.0, 0.0, 0.0, 0.0, 0.0, 0.0, 0.0, 0.0, 1.729710450264962E9, 0.0, 2024-10-24 00:37:30.264
56.0, -59002.41392879652, -59790.961121435306, -61051.86772964808, -65391.07893599021, -67719.01312101044, -57920.50009018184, -31728.770640941937, 120.09592295836485, 0.05, 0.966, 0.196, 192.0, 0.0, 0.0, 0.0, 0.0, 0.0, 0.0, 0.0, 0.0, 0.0, 1.7297104502689676E9, 0.0, 2024-10-24 00:37:30.268
57.0, -58988.86877165661, -59784.74733647673, -61044.31284002219, -65386.94386326598, -67722.92467629012, -57913.97338080089, -31941.80511734547, -104.96379196212196, 0.05, 0.966, 0.196, 192.0, 0.0, 0.0, 0.0, 0.0, 0.0, 0.0, 0.0, 0.0, 0.0, 1.7297104502730136E9, 0.0, 2024-10-24 00:37:30.273
58.0, -58988.51114374532, -59803.20987739681, -61051.44304650343, -65410.43554668851, -67750.93141209261, -57946.09283758317, -31773.205908919088, 95.2631348685187, 0.046, 0.974, 0.194, 192.0, 1.0, 112.0, 30.0, 112.0, 6.0, 16.0, 0.0, 0.0, 0.0, 1.7297104502769725E9, 0.0, 2024-10-24 00:37:30.276
59.0, -59004.6267514976, -59829.40612189843, -61073.168942113996, -65439.202241802486, -67775.33951703782, -57976.871189698126, -31485.42719905701, 405.25947871917236, 0.046, 0.974, 0.194, 192.0, 0.0, 0.0, 0.0, 0.0, 0.0, 0.0, 0.0, 0.0, 0.0, 1.729710450280048E9, 0.0, 2024-10-24 00:37:30.280
60.0, -59029.81716749873, -59837.31863943561, -61089.84334347765, -65442.08561683722, -67763.47074073205, -57966.81290469324, -31444.679968914985, 428.7958656306107, 0.046, 0.974, 0.194, 192.0, 0.0, 0.0, 0.0, 0.0, 0.0, 0.0, 0.0, 0.0, 0.0, 1.72971045028497E9, 0.0, 2024-10-24 00:37:30.284
61.0, -59013.23217311289, -59818.54317409315, -61069.95029091243, -65420.404424715576, -67728.78083333741, -57934.24641302186, -31697.54525393787, 143.20762672515235, 0.046, 0.974, 0.194, 192.0, 0.0, 0.0, 0.0, 0.0, 0.0, 0.0, 0.0, 0.0, 0.0, 1.729710450289014E9, 0.0, 2024-10-24 00:37:30.289
62.0, -59001.96689390742, -59813.58108682407, -61058.34973554013, -65415.39763395758, -67719.50485938846, -57928.211442018925, -31901.03553545899, -75.05715788092111, 0.046, 0.974, 0.194, 192.0, 0.0, 0.0, 0.0, 0.0, 0.0, 0.0, 0.0, 0.0, 0.0, 1.7297104502930412E9, 0.0, 2024-10-24 00:37:30.293
63.0, -58984.66664369901, -59817.80556652613, -61048.02322960177, -65419.30918923726, -67732.20065023907, -57937.82269213471, -31712.81149540085, 145.15222849276407, 0.046, 0.974, 0.194, 192.0, 0.0, 0.0, 0.0, 0.0, 0.0, 0.0, 0.0, 0.0, 0.0, 1.7297104502970612E9, 0.0, 2024-10-24 00:37:30.297
64.0, -58995.306074059736, -59837.788026069175, -61060.89783440803, -65435.558907456274, -67742.57185966634, -57951.16668357452, -31435.046367054747, 445.8278949055547, 0.046, 0.974, 0.194, 192.0, 0.0, 0.0, 0.0, 0.0, 0.0, 0.0, 0.0, 0.0, 0.0, 1.729710450300054E9, 0.0, 2024-10-24 00:37:30.300
65.0, -59025.32446686322, -59848.09218026307, -61076.05231714873, -65435.491852222905, -67731.46304267205, -57937.934450856985, -31384.576128074663, 477.2320958652611, 0.046, 0.974, 0.194, 192.0, 0.0, 0.0, 0.0, 0.0, 0.0, 0.0, 0.0, 0.0, 0.0, 1.7297104503042667E9, 0.0, 2024-10-24 00:37:30.304
66.0, -59013.679208002, -59824.35462765153, -61055.399305272025, -65407.105136764665, -67700.90820800164, -57904.92092429649, -31640.101270687734, 191.1297668373307, 0.046, 0.974, 0.194, 192.0, 0.0, 0.0, 0.0, 0.0, 0.0, 0.0, 0.0, 0.0, 0.0, 1.7297104503080416E9, 0.0, 2024-10-24 00:37:30.308
67.0, -58998.56942875021, -59811.74824377874, -61039.0601800752, -65393.24705520237, -67691.96751021952, -57896.539020125754, -31831.54396194744, -12.718142595069718, 0.046, 0.974, 0.194, 192.0, 0.0, 0.0, 0.0, 0.0, 0.0, 0.0, 0.0, 0.0, 0.0, 1.7297104503130713E9, 0.0, 2024-10-24 00:37:30.313
68.0, -58984.77840242129, -59814.74337753575, -61035.7074184069, -65398.23149421591, -67709.29011217238, -57914.82274709019, -31657.088596473768, 193.3425895384061, 0.048, 0.968, 0.194, 192.0, 1.0, 128.0, 30.0, 64.0, 6.0, 16.0, 0.0, 0.0, 0.0, 1.7297104503170495E9, 0.0, 2024-10-24 00:37:30.317
69.0, -58986.29832104425, -59823.237040428765, -61041.340058009635, -65406.680453620014, -67724.0869670018, -57931.65361066504, -31370.695694767917, 500.0308752096743, 0.048, 0.968, 0.194, 192.0, 0.0, 0.0, 0.0, 0.0, 0.0, 0.0, 0.0, 0.0, 0.0, 1.7297104503210423E9, 0.0, 2024-10-24 00:37:30.321
70.0, -59014.7297399914, -59827.61798234201, -61057.27685180627, -65406.054604775265, -67714.3863099082, -57920.27657273729, -31303.52870267972, 546.1201722765175, 0.048, 0.968, 0.194, 192.0, 0.0, 0.0, 0.0, 0.0, 0.0, 0.0, 0.0, 0.0, 0.0, 1.7297104503250442E9, 0.0, 2024-10-24 00:37:30.325
71.0, -59004.93967591997, -59802.65108378543, -61042.43529348794, -65381.19946494097, -67684.18910314907, -57889.475868877875, -31555.835194091225, 260.91191302679937, 0.048, 0.968, 0.194, 192.0, 0.0, 0.0, 0.0, 0.0, 0.0, 0.0, 0.0, 0.0, 0.0, 1.72971045032803E9, 0.0, 2024-10-24 00:37:30.328
72.0, -58990.29928330175, -59790.29056910164, -61029.71715089287, -65371.096476447165, -67678.26589086842, -57878.74703153933, -31770.635458306726, 30.711296881591903, 0.048, 0.968, 0.194, 192.0, 0.0, 0.0, 0.0, 0.0, 0.0, 0.0, 0.0, 0.0, 0.0, 1.7297104503320384E9, 0.0, 2024-10-24 00:37:30.332
73.0, -58984.08549834317, -59799.49948781723, -61037.45085447441, -65385.37924115411, -67709.71479531704, -57904.78681382976, -31593.4084765206, 238.00137496010962, 0.048, 0.968, 0.194, 192.0, 0.0, 0.0, 0.0, 0.0, 0.0, 0.0, 0.0, 0.0, 0.0, 1.7297104503360574E9, 0.0, 2024-10-24 00:37:30.336
74.0, -58984.37607102109, -59807.434357098864, -61048.85024414662, -65398.41030817155, -67728.87024031523, -57925.52923268429, -31307.28379574821, 546.231930998794, 0.048, 0.968, 0.194, 192.0, 0.0, 0.0, 0.0, 0.0, 0.0, 0.0, 0.0, 0.0, 0.0, 1.7297104503410676E9, 0.0, 2024-10-24 00:37:30.341
75.0, -59012.49456554587, -59811.88235424547, -61065.30112806572, -65398.790287827294, -67711.34647266228, -57919.49426168136, -31240.56383854912, 592.9917803992963, 0.048, 0.968, 0.194, 192.0, 0.0, 0.0, 0.0, 0.0, 0.0, 0.0, 0.0, 0.0, 0.0, 1.7297104503450754E9, 0.0, 2024-10-24 00:37:30.345
76.0, -58995.35077754865, -59787.47424930028, -61049.453741246914, -65374.13631369309, -67689.44176309607, -57892.38159565707, -31485.60601301265, 314.2878787860726, 0.048, 0.968, 0.194, 192.0, 0.0, 0.0, 0.0, 0.0, 0.0, 0.0, 0.0, 0.0, 0.0, 1.729710450349074E9, 0.0, 2024-10-24 00:37:30.349
77.0, -58981.15741981953, -59782.5121620312, -61040.60245044261, -65373.26459565933, -67691.18519916358, -57893.23096194637, -31703.73668715199, 82.54499227344898, 0.048, 0.968, 0.194, 192.0, 0.0, 0.0, 0.0, 0.0, 0.0, 0.0, 0.0, 0.0, 0.0, 1.7297104503531327E9, 0.0, 2024-10-24 00:37:30.353
78.0, -58973.088440071166, -59793.0621854141, -61043.709342921895, -65391.0342325013, -67711.23471394, -57921.1706425155, -31527.13555421061, 290.30445698552813, 0.046, 0.966, 0.19, 192.0, 1.0, 112.0, 30.0, 48.0, 5.0, 240.0, 0.0, 0.0, 0.0, 1.729710450357192E9, 0.0, 2024-10-24 00:37:30.357
79.0, -58985.784230921774, -59809.2672001442, -61059.40026752953, -65410.48025017742, -67734.81580434034, -57942.89653812606, -31225.878742441982, 611.2978591081928, 0.046, 0.966, 0.19, 192.0, 0.0, 0.0, 0.0, 0.0, 0.0, 0.0, 0.0, 0.0, 0.0, 1.729710450360211E9, 0.0, 2024-10-24 00:37:30.360
80.0, -59013.16511787953, -59817.090310703556, -61075.739392726355, -65412.17898275602, -67727.0373972699, -57927.295020496254, -31180.951736086816, 636.644737320511, 0.046, 0.966, 0.19, 192.0, 0.0, 0.0, 0.0, 0.0, 0.0, 0.0, 0.0, 0.0, 0.0, 1.7297104503641276E9, 0.0, 2024-10-24 00:37:30.364
81.0, -58995.84251592666, -59795.25265637072, -61054.95227038292, -65388.19556095548, -67692.57100731981, -57895.4661363919, -31447.40688173853, 337.86896918642157, 0.046, 0.966, 0.19, 192.0, 0.0, 0.0, 0.0, 0.0, 0.0, 0.0, 0.0, 0.0, 0.0, 1.729710450368193E9, 0.0, 2024-10-24 00:37:30.368
82.0, -58982.722041931396, -59792.413984824896, -61041.65298243201, -65383.79226729778, -67683.20562639304, -57890.392290400545, -31655.054587728333, 114.93266998918891, 0.046, 0.966, 0.19, 192.0, 0.0, 0.0, 0.0, 0.0, 0.0, 0.0, 0.0, 0.0, 0.0, 1.7297104503732033E9, 0.0, 2024-10-24 00:37:30.373
83.0, -58982.096193086654, -59811.94940947884, -61047.44208424594, -65403.86413381865, -67708.86542902773, -57918.622543647594, -31477.00059139736, 324.34616379096076, 0.046, 0.966, 0.19, 192.0, 0.0, 0.0, 0.0, 0.0, 0.0, 0.0, 0.0, 0.0, 0.0, 1.7297104503771672E9, 0.0, 2024-10-24 00:37:30.377
84.0, -58998.90470491704, -59836.26810744621, -61066.75399145532, -65426.61820967415, -67735.30754271836, -57941.778950903295, -31170.93815457084, 653.4756008953573, 0.046, 0.966, 0.19, 192.0, 0.0, 0.0, 0.0, 0.0, 0.0, 0.0, 0.0, 0.0, 0.0, 1.7297104503812203E9, 0.0, 2024-10-24 00:37:30.381
85.0, -59021.25644937235, -59842.23602321578, -61078.265139849806, -65424.315979995255, -67722.20942046755, -57925.059846050724, -31134.907142508884, 671.5134586707901, 0.046, 0.966, 0.19, 192.0, 0.0, 0.0, 0.0, 0.0, 0.0, 0.0, 0.0, 0.0, 0.0, 1.7297104503852165E9, 0.0, 2024-10-24 00:37:30.385
86.0, -59013.120414390614, -59827.77444455319, -61064.407058287514, -65406.211066986456, -67701.39994637966, -57900.3164649387, -31393.650936323516, 379.04088247309716, 0.046, 0.966, 0.19, 192.0, 0.0, 0.0, 0.0, 0.0, 0.0, 0.0, 0.0, 0.0, 0.0, 1.7297104503893151E9, 0.0, 2024-10-24 00:37:30.389
87.0, -58995.39548103756, -59819.21372642681, -61044.71517142239, -65396.39865117057, -67681.88687347018, -57892.15807821252, -31594.39195327663, 162.25131300107398, 0.046, 0.966, 0.19, 192.0, 0.0, 0.0, 0.0, 0.0, 0.0, 0.0, 0.0, 0.0, 0.0, 1.7297104503943455E9, 0.0, 2024-10-24 00:37:30.394
88.0, -58986.34302453316, -59830.63546784347, -61040.80361614271, -65409.09444202119, -67698.60597832274, -57915.64976163504, -31414.639224367053, 372.84944925897713, 0.046, 0.966, 0.19, 192.0, 0.0, 0.0, 0.0, 0.0, 0.0, 0.0, 0.0, 0.0, 0.0, 1.729710450398196E9, 0.0, 2024-10-24 00:37:30.398
89.0, -59007.465423043424, -59854.95416581085, -61065.36818329909, -65429.345122497696, -67733.51940316193, -57937.59917469015, -31110.431982330323, 697.5755927056781, 0.048, 0.966, 0.182, 192.0, 1.0, 128.0, 30.0, 48.0, 5.0, 176.0, 0.0, 0.0, 0.0, 1.7297104504021573E9, 0.0, 2024-10-24 00:37:30.402
90.0, -59016.51787954783, -59851.5790523981, -61072.23016884687, -65418.23630550341, -67723.12584199022, -57916.90145932454, -31050.126975789903, 740.2674246153146, 0.048, 0.966, 0.182, 192.0, 0.0, 0.0, 0.0, 0.0, 0.0, 0.0, 0.0, 0.0, 0.0, 1.7297104504061527E9, 0.0, 2024-10-24 00:37:30.406
91.0, -59008.33714107718, -59829.89786027645, -61055.533415738755, -65391.97300576842, -67695.29792014336, -57888.1124124661, -31288.32951645011, 471.3088835846047, 0.048, 0.966, 0.182, 192.0, 0.0, 0.0, 0.0, 0.0, 0.0, 0.0, 0.0, 0.0, 0.0, 1.729710450411193E9, 0.0, 2024-10-24 00:37:30.411
92.0, -58988.6229024676, -59813.49167984625, -61036.5567846962, -65373.130485192596, -67683.20562639304, -57874.05316520372, -31500.604033542164, 244.14810468531905, 0.048, 0.966, 0.182, 192.0, 0.0, 0.0, 0.0, 0.0, 0.0, 0.0, 0.0, 0.0, 0.0, 1.7297104504141824E9, 0.0, 2024-10-24 00:37:30.414
93.0, -58974.407192994026, -59812.91053449042, -61030.141834037524, -65376.25972941634, -67692.63806255317, -57892.09102297915, -31346.131127611534, 426.9183190963649, 0.048, 0.966, 0.182, 192.0, 0.0, 0.0, 0.0, 0.0, 0.0, 0.0, 0.0, 0.0, 0.0, 1.729710450417218E9, 0.0, 2024-10-24 00:37:30.417
94.0, -58996.066033371215, -59839.44205515886, -61053.90173839352, -65402.1877529845, -67721.96355127855, -57920.67890413749, -31040.403966951846, 753.1196776771162, 0.048, 0.966, 0.182, 192.0, 0.0, 0.0, 0.0, 0.0, 0.0, 0.0, 0.0, 0.0, 0.0, 1.7297104504201696E9, 0.0, 2024-10-24 00:37:30.420
95.0, -59025.90561221905, -59845.76759883972, -61074.10771538111, -65403.79707858528, -67710.13947846169, -57909.14540399855, -30988.100884926425, 785.2391344593924, 0.048, 0.966, 0.182, 192.0, 0.0, 0.0, 0.0, 0.0, 0.0, 0.0, 0.0, 0.0, 0.0, 1.7297104504241855E9, 0.0, 2024-10-24 00:37:30.424
96.0, -59017.70252200396, -59824.08640671807, -61061.03194487476, -65385.55805510975, -67690.33583287428, -57886.480735120866, -31232.98659717877, 506.62463982398987, 0.048, 0.966, 0.182, 192.0, 0.0, 0.0, 0.0, 0.0, 0.0, 0.0, 0.0, 0.0, 0.0, 1.729710450432224E9, 0.0, 2024-10-24 00:37:30.432
97.0, -58997.80946943873, -59807.70257803233, -61043.75404641081, -65376.0809154607, -67683.20562639304, -57878.299996650225, -31432.252398997833, 292.0925965419527, 0.048, 0.966, 0.182, 192.0, 0.0, 0.0, 0.0, 0.0, 0.0, 0.0, 0.0, 0.0, 0.0, 1.7297104504352193E9, 0.0, 2024-10-24 00:37:30.435
98.0, -58993.54028624777, -59814.63161881347, -61046.19038655644, -65394.76697382534, -67697.980129478, -57909.99477028785, -31250.93504797638, 499.9638199763084, 0.048, 0.966, 0.182, 192.0, 0.0, 0.0, 0.0, 0.0, 0.0, 0.0, 0.0, 0.0, 0.0, 1.7297104504382496E9, 0.0, 2024-10-24 00:37:30.438
99.0, -59008.47125154392, -59834.41291265642, -61066.731639710866, -65421.365549727154, -67732.02183628343, -57942.8741863816, -30953.187460087236, 816.4868732079117, 0.046, 0.968, 0.186, 192.0, 1.0, 112.0, 30.0, 64.0, 5.0, 208.0, 0.0, 0.0, 0.0, 1.7297104504422383E9, 0.0, 2024-10-24 00:37:30.442
100.0, -59022.75401625085, -59831.52953762169, -61076.83462820466, -65416.671683391534, -67724.46694665754, -57931.631258920585, -30908.48397117662, 842.92898689854, 0.046, 0.968, 0.186, 192.0, 0.0, 0.0, 0.0, 0.0, 0.0, 0.0, 0.0, 0.0, 0.0, 1.7297104504452121E9, 0.0, 2024-10-24 00:37:30.445
101.0, -59008.046568399266, -59805.2662378867, -61060.33904079664, -65395.21400871444, -67704.57389409232, -57910.374749943585, -31164.4561486788, 553.6303584135006, 0.046, 0.968, 0.186, 192.0, 0.0, 0.0, 0.0, 0.0, 0.0, 0.0, 0.0, 0.0, 0.0, 1.7297104504482312E9, 0.0, 2024-10-24 00:37:30.448
102.0, -58990.05341411274, -59790.871714457484, -61044.31284002219, -65385.20042719846, -67697.95777773354, -57900.517630638795, -31362.313790597178, 340.95350992125395, 0.046, 0.968, 0.186, 192.0, 0.0, 0.0, 0.0, 0.0, 0.0, 0.0, 0.0, 0.0, 0.0, 1.7297104504522443E9, 0.0, 2024-10-24 00:37:30.452
103.0, -58983.213780309416, -59806.92026697639, -61044.37989525556, -65403.752375096374, -67714.98980700849, -57922.355284971636, -31188.864253623993, 543.4156111974253, 0.046, 0.968, 0.186, 192.0, 0.0, 0.0, 0.0, 0.0, 0.0, 0.0, 0.0, 0.0, 0.0, 1.7297104504562364E9, 0.0, 2024-10-24 00:37:30.456
104.0, -58994.05437637024, -59829.964915509816, -61059.869654163085, -65427.46757596345, -67736.67099913013, -57949.62441320711, -30880.186662696204, 871.5839232902435, 0.046, 0.968, 0.186, 192.0, 0.0, 0.0, 0.0, 0.0, 0.0, 0.0, 0.0, 0.0, 0.0, 1.729710450461248E9, 0.0, 2024-10-24 00:37:30.461
105.0, -59024.184527895995, -59838.637392358476, -61076.722869482386, -65427.40052073009, -67728.37850193722, -57936.07925606719, -30812.974967119095, 919.5284151468773, 0.046, 0.968, 0.186, 192.0, 0.0, 0.0, 0.0, 0.0, 0.0, 0.0, 0.0, 0.0, 0.0, 1.729710450465299E9, 0.0, 2024-10-24 00:37:30.465
106.0, -59007.398367810056, -59815.480985102775, -61051.912433137, -65400.17609598352, -67698.71773704502, -57904.3174271962, -31048.67411240031, 650.7263363273545, 0.046, 0.968, 0.186, 192.0, 0.0, 0.0, 0.0, 0.0, 0.0, 0.0, 0.0, 0.0, 0.0, 1.7297104504692483E9, 0.0, 2024-10-24 00:37:30.469
107.0, -58984.71134718792, -59803.72396751928, -61029.06895030367, -65384.865151031634, -67683.85382698225, -57889.69938632243, -31251.404434609944, 432.79682788811067, 0.046, 0.968, 0.186, 192.0, 0.0, 0.0, 0.0, 0.0, 0.0, 0.0, 0.0, 0.0, 0.0, 1.72971045047326E9, 0.0, 2024-10-24 00:37:30.473
108.0, -58980.19629480795, -59811.18945016736, -61026.36438922458, -65391.52597087932, -67697.89072250017, -57905.61382837461, -31076.032647613603, 634.8342460196312, 0.046, 0.968, 0.186, 192.0, 0.0, 0.0, 0.0, 0.0, 0.0, 0.0, 0.0, 0.0, 0.0, 1.729710450477276E9, 0.0, 2024-10-24 00:37:30.477
109.0, -58990.36633853512, -59828.82497654259, -61034.72394165087, -65406.61339838665, -67710.38534765069, -57921.1706425155, -30762.862356050297, 965.9082848916394, 0.052000000000000005, 0.968, 0.19, 192.0, 1.0, 160.0, 30.0, 64.0, 5.0, 240.0, 0.0, 0.0, 0.0, 1.729710450482278E9, 0.0, 2024-10-24 00:37:30.482
110.0, -59023.9833621959, -59847.73455235178, -61053.8123314157, -65412.31309322275, -67705.31150165934, -57915.068616279204, -30665.11817754724, 1042.083029995326, 0.052000000000000005, 0.968, 0.19, 192.0, 0.0, 0.0, 0.0, 0.0, 0.0, 0.0, 0.0, 0.0, 0.0, 1.7297104504863055E9, 0.0, 2024-10-24 00:37:30.486
111.0, -59006.1243183761, -59821.87358401699, -61027.95136308091, -65380.46185737394, -67672.3203268433, -57879.59639782863, -30909.55685491048, 762.0380237147837, 0.052000000000000005, 0.968, 0.19, 192.0, 0.0, 0.0, 0.0, 0.0, 0.0, 0.0, 0.0, 0.0, 0.0, 1.729710450490276E9, 0.0, 2024-10-24 00:37:30.490
112.0, -58979.235169796375, -59805.15447916443, -61001.64335985701, -65362.11107517613, -67657.83639643627, -57863.614900543085, -31124.4465261038, 530.7645238357215, 0.052000000000000005, 0.968, 0.19, 192.0, 0.0, 0.0, 0.0, 0.0, 0.0, 0.0, 0.0, 0.0, 0.0, 1.7297104504934263E9, 0.0, 2024-10-24 00:37:30.493
113.0, -58969.154533047025, -59817.31382814811, -61002.403319168494, -65375.18684568249, -67681.7751147479, -57888.13476421056, -30946.034901861538, 737.0487734137504, 0.052000000000000005, 0.968, 0.19, 192.0, 0.0, 0.0, 0.0, 0.0, 0.0, 0.0, 0.0, 0.0, 0.0, 1.7297104504974327E9, 0.0, 2024-10-24 00:37:30.497
114.0, -58980.66568144151, -59835.46344464582, -61021.290543233226, -65393.64938660257, -67711.480583129, -57916.92381106899, -30648.533183161402, 1053.5494749008983, 0.052000000000000005, 0.968, 0.19, 192.0, 0.0, 0.0, 0.0, 0.0, 0.0, 0.0, 0.0, 0.0, 0.0, 1.729710450500435E9, 0.0, 2024-10-24 00:37:30.500
115.0, -59009.18650736648, -59846.393447684466, -61040.289526020235, -65395.4822296479, -67703.27749291391, -57911.09000576616, -30568.938621156052, 1112.9827634075598, 0.052000000000000005, 0.968, 0.19, 192.0, 0.0, 0.0, 0.0, 0.0, 0.0, 0.0, 0.0, 0.0, 0.0, 1.729710450504336E9, 0.0, 2024-10-24 00:37:30.504
116.0, -58987.550018733746, -59819.7725200382, -61014.94264780792, -65365.307374633245, -67667.71586748552, -57871.75093552482, -30796.27821401098, 851.9143881695734, 0.052000000000000005, 0.968, 0.19, 192.0, 0.0, 0.0, 0.0, 0.0, 0.0, 0.0, 0.0, 0.0, 0.0, 1.7297104505084229E9, 0.0, 2024-10-24 00:37:30.508
117.0, -58957.91160558601, -59799.5665430506, -60993.797897553195, -65344.475548800896, -67659.75864645942, -57850.31561259218, -31018.007519007628, 612.5048533087794, 0.052000000000000005, 0.968, 0.19, 192.0, 0.0, 0.0, 0.0, 0.0, 0.0, 0.0, 0.0, 0.0, 0.0, 1.729710450512463E9, 0.0, 2024-10-24 00:37:30.512
118.0, -58961.756105632325, -59812.79877576814, -61005.37610118105, -65364.882691488594, -67681.21632113651, -57882.50212460782, -30838.366548820326, 817.7385708974089, 0.052000000000000005, 0.968, 0.19, 192.0, 0.0, 0.0, 0.0, 0.0, 0.0, 0.0, 0.0, 0.0, 0.0, 1.7297104505173466E9, 0.0, 2024-10-24 00:37:30.517
119.0, -58972.2167220374, -59827.997961997746, -61018.38481645403, -65384.88750277609, -67701.13172544619, -57908.3183894537, -30535.634521917647, 1137.8379032418613, 0.05, 0.9580000000000001, 0.194, 192.0, 1.0, 144.0, 29.0, 240.0, 6.0, 16.0, 0.0, 0.0, 0.0, 1.7297104505213497E9, 0.0, 2024-10-24 00:37:30.521
120.0, -59001.20693459594, -59837.296287691155, -61039.0601800752, -65391.436563901494, -67700.12589694571, -57903.98215102937, -30457.470471557437, 1194.3207614804223, 0.05, 0.9580000000000001, 0.194, 192.0, 0.0, 0.0, 0.0, 0.0, 0.0, 0.0, 0.0, 0.0, 0.0, 1.7297104505243895E9, 0.0, 2024-10-24 00:37:30.524
121.0, -58984.599588465644, -59812.4187961124, -61023.101034534106, -65371.252938658356, -67674.39903907765, -57880.378708884564, -30691.582642982325, 925.9433658055503, 0.05, 0.9580000000000001, 0.194, 192.0, 0.0, 0.0, 0.0, 0.0, 0.0, 0.0, 0.0, 0.0, 0.0, 1.729710450528498E9, 0.0, 2024-10-24 00:37:30.528
122.0, -58971.90379761503, -59804.97566520878, -61015.7026071194, -65370.71649679143, -67667.8723296967, -57881.384537385056, -30892.547177379987, 711.545432990245, 0.05, 0.9580000000000001, 0.194, 192.0, 0.0, 0.0, 0.0, 0.0, 0.0, 0.0, 0.0, 0.0, 0.0, 1.7297104505324855E9, 0.0, 2024-10-24 00:37:30.532
123.0, -58961.57729167668, -59811.52472633419, -61018.98831355433, -65389.04492724478, -67691.96751021952, -57908.296037709246, -30710.045183902406, 923.2388047264582, 0.05, 0.9580000000000001, 0.194, 192.0, 0.0, 0.0, 0.0, 0.0, 0.0, 0.0, 0.0, 0.0, 0.0, 1.7297104505363965E9, 0.0, 2024-10-24 00:37:30.536
124.0, -58971.680280170476, -59828.89203177596, -61037.33909575213, -65411.866058333646, -67712.5758186073, -57929.84311936416, -30409.83890412318, 1243.427544048732, 0.05, 0.9580000000000001, 0.194, 192.0, 0.0, 0.0, 0.0, 0.0, 0.0, 0.0, 0.0, 0.0, 0.0, 1.729710450540409E9, 0.0, 2024-10-24 00:37:30.540
125.0, -59001.98924565187, -59838.056247002634, -61055.98045062786, -65415.151764768576, -67705.64677782617, -57919.829537848185, -30368.465825136405, 1264.5722943034523, 0.05, 0.9580000000000001, 0.194, 192.0, 0.0, 0.0, 0.0, 0.0, 0.0, 0.0, 0.0, 0.0, 0.0, 1.7297104505454712E9, 0.0, 2024-10-24 00:37:30.545
126.0, -58980.21864655241, -59814.47515660229, -61034.79099688423, -65389.11198247814, -67675.7177920005, -57886.972473498885, -30620.951130503552, 978.469965275522, 0.05, 0.9580000000000001, 0.194, 192.0, 0.0, 0.0, 0.0, 0.0, 0.0, 0.0, 0.0, 0.0, 0.0, 1.7297104505493703E9, 0.0, 2024-10-24 00:37:30.549
127.0, -58969.28864351376, -59805.489755331255, -61020.865860088576, -65381.49003761888, -67660.16097785962, -57882.345662396634, -30834.700862729653, 749.2528258863481, 0.05, 0.9580000000000001, 0.194, 192.0, 0.0, 0.0, 0.0, 0.0, 0.0, 0.0, 0.0, 0.0, 0.0, 1.7297104505524733E9, 0.0, 2024-10-24 00:37:30.552
128.0, -58970.80856213672, -59824.68990381836, -61026.945534580416, -65402.79125008479, -67688.25712063994, -57908.65366562053, -30621.755793303942, 987.4106630576448, 0.05, 0.9580000000000001, 0.194, 192.0, 0.0, 0.0, 0.0, 0.0, 0.0, 0.0, 0.0, 0.0, 0.0, 1.7297104505564368E9, 0.0, 2024-10-24 00:37:30.556
129.0, -58976.19533255045, -59841.476063904294, -61038.680200419454, -65416.671683391534, -67705.7808882929, -57922.44469194945, -30316.542722766728, 1311.2874402150442, 0.048, 0.9560000000000001, 0.194, 192.0, 1.0, 128.0, 29.0, 224.0, 6.0, 16.0, 0.0, 0.0, 0.0, 1.7297104505605178E9, 0.0, 2024-10-24 00:37:30.560
130.0, -59001.050472384755, -59849.90267156395, -61052.58298547065, -65414.592971157195, -67695.49908584346, -57910.26299122131, -30256.058902270666, 1352.0793738459795, 0.048, 0.9560000000000001, 0.194, 192.0, 0.0, 0.0, 0.0, 0.0, 0.0, 0.0, 0.0, 0.0, 0.0, 1.7297104505644765E9, 0.0, 2024-10-24 00:37:30.564
131.0, -58987.9747018784, -59829.383770153974, -61031.59469742712, -65386.049793487764, -67665.45834129553, -57872.82381925867, -30493.90381501959, 1080.013940335982, 0.048, 0.9560000000000001, 0.194, 192.0, 0.0, 0.0, 0.0, 0.0, 0.0, 0.0, 0.0, 0.0, 0.0, 1.7297104505683997E9, 0.0, 2024-10-24 00:37:30.568
132.0, -58970.830913881175, -59815.32452289159, -61013.869764074065, -65368.995412468365, -67650.68383821056, -57858.295185362724, -30705.619538500257, 852.6743474810538, 0.048, 0.9560000000000001, 0.194, 192.0, 0.0, 0.0, 0.0, 0.0, 0.0, 0.0, 0.0, 0.0, 0.0, 1.7297104505734112E9, 0.0, 2024-10-24 00:37:30.573
133.0, -58967.902835357534, -59826.29922941914, -61019.72592112135, -65381.84766553017, -67679.60699553574, -57884.33496765316, -30512.902797806597, 1072.1014227988032, 0.048, 0.9560000000000001, 0.194, 192.0, 0.0, 0.0, 0.0, 0.0, 0.0, 0.0, 0.0, 0.0, 0.0, 1.7297104505775385E9, 0.0, 2024-10-24 00:37:30.577
134.0, -58981.64915819754, -59842.30307844914, -61035.819177129175, -65396.10807849265, -67695.58849282128, -57903.57981962917, -30209.27670112571, 1394.838260988982, 0.048, 0.9560000000000001, 0.194, 192.0, 0.0, 0.0, 0.0, 0.0, 0.0, 0.0, 0.0, 0.0, 0.0, 1.7297104505804408E9, 0.0, 2024-10-24 00:37:30.580
135.0, -59011.10875738964, -59849.56739539712, -61053.8123314157, -65394.521104636326, -67685.1278764162, -57893.387424157554, -30139.271037491686, 1445.9790523027245, 0.048, 0.9560000000000001, 0.194, 192.0, 0.0, 0.0, 0.0, 0.0, 0.0, 0.0, 0.0, 0.0, 0.0, 1.7297104505845487E9, 0.0, 2024-10-24 00:37:30.584
136.0, -58999.82112643971, -59828.132072464476, -61038.56844169718, -65370.1800549245, -67668.81110296382, -57868.53228432325, -30379.082903752675, 1171.7678513250175, 0.048, 0.9560000000000001, 0.194, 192.0, 0.0, 0.0, 0.0, 0.0, 0.0, 0.0, 0.0, 0.0, 0.0, 1.7297104505896463E9, 0.0, 2024-10-24 00:37:30.589
137.0, -58966.89700685704, -59803.41104309691, -61009.62293262756, -65348.252993613845, -67646.0123236194, -57851.723772492864, -30576.13588287066, 955.7829446533854, 0.048, 0.9560000000000001, 0.194, 192.0, 0.0, 0.0, 0.0, 0.0, 0.0, 0.0, 0.0, 0.0, 0.0, 1.7297104505925956E9, 0.0, 2024-10-24 00:37:30.592
138.0, -58956.32463172968, -59809.44601409984, -61004.03499651373, -65358.49009257437, -67660.58566100427, -57865.47009533288, -30395.511435927325, 1161.0166622420147, 0.048, 0.9560000000000001, 0.194, 192.0, 0.0, 0.0, 0.0, 0.0, 0.0, 0.0, 0.0, 0.0, 0.0, 1.7297104505965457E9, 0.0, 2024-10-24 00:37:30.596
139.0, -58963.7677626333, -59824.913421262914, -61016.395511197516, -65377.06439221674, -67686.4242775946, -57894.28149393577, -30110.9066737779, 1463.1898955333108, 0.05, 0.9560000000000001, 0.196, 192.0, 1.0, 144.0, 29.0, 224.0, 6.0, 32.0, 0.0, 0.0, 0.0, 1.7297104506005912E9, 0.0, 2024-10-24 00:37:30.600
140.0, -58989.62873096809, -59835.50814813473, -61035.394493984524, -65380.23833992939, -67683.36208860423, -57892.85098229063, -30045.013731123658, 1510.6202972674726, 0.05, 0.9560000000000001, 0.196, 192.0, 0.0, 0.0, 0.0, 0.0, 0.0, 0.0, 0.0, 0.0, 0.0, 1.7297104506055987E9, 0.0, 2024-10-24 00:37:30.605
141.0, -58980.57627446369, -59817.33617989257, -61023.88334559004, -65360.43469434199, -67661.52443427138, -57871.393307613536, -30263.613791896558, 1259.6549105232848, 0.05, 0.9560000000000001, 0.196, 192.0, 0.0, 0.0, 0.0, 0.0, 0.0, 0.0, 0.0, 0.0, 0.0, 1.7297104506084907E9, 0.0, 2024-10-24 00:37:30.608
142.0, -58958.112771286105, -59802.78519425216, -61008.72886284934, -65346.442502312966, -67654.12600685669, -57859.99391794133, -30460.376198336628, 1048.855608565284, 0.05, 0.9560000000000001, 0.196, 192.0, 0.0, 0.0, 0.0, 0.0, 0.0, 0.0, 0.0, 0.0, 0.0, 1.729710450612557E9, 0.0, 2024-10-24 00:37:30.612
143.0, -58950.75904736031, -59815.771557780696, -61011.58988613962, -65362.289889131775, -67674.73431524448, -57880.73633679585, -30290.704106176392, 1248.3672795733548, 0.05, 0.9560000000000001, 0.196, 192.0, 0.0, 0.0, 0.0, 0.0, 0.0, 0.0, 0.0, 0.0, 0.0, 1.72971045061647E9, 0.0, 2024-10-24 00:37:30.616
144.0, -58966.82995162367, -59833.00475275573, -61029.4042264705, -65385.49099987638, -67693.7332980315, -57905.1667934855, -29992.35302118695, 1567.8631148175139, 0.05, 0.9560000000000001, 0.196, 192.0, 0.0, 0.0, 0.0, 0.0, 0.0, 0.0, 0.0, 0.0, 0.0, 1.7297104506205823E9, 0.0, 2024-10-24 00:37:30.620
145.0, -58998.14474560556, -59843.71123834983, -61050.303107536216, -65392.0847644907, -67688.05595493985, -57899.198877715935, -29921.900322663823, 1619.6744584649157, 0.05, 0.9560000000000001, 0.196, 192.0, 0.0, 0.0, 0.0, 0.0, 0.0, 0.0, 0.0, 0.0, 0.0, 1.7297104506245024E9, 0.0, 2024-10-24 00:37:30.624
146.0, -58973.96015810492, -59820.39836888294, -61029.180709025946, -65373.51046484834, -67666.66533549612, -57873.85199950362, -30165.31081978212, 1341.3728882518874, 0.05, 0.9560000000000001, 0.196, 192.0, 0.0, 0.0, 0.0, 0.0, 0.0, 0.0, 0.0, 0.0, 0.0, 1.7297104506286323E9, 0.0, 2024-10-24 00:37:30.628
147.0, -58955.54232067375, -59809.334255377566, -61003.99029302482, -65369.911833991035, -67657.43406503607, -57871.48271459135, -30357.357008142117, 1132.0935049168475, 0.05, 0.9560000000000001, 0.196, 192.0, 0.0, 0.0, 0.0, 0.0, 0.0, 0.0, 0.0, 0.0, 0.0, 1.729710450633583E9, 0.0, 2024-10-24 00:37:30.633
148.0, -58949.95438455992, -59824.421682884895, -61006.76190933728, -65391.34715692367, -67680.90339671414, -57904.18331672947, -30161.689837180358, 1352.414650012809, 0.05, 0.9560000000000001, 0.196, 192.0, 0.0, 0.0, 0.0, 0.0, 0.0, 0.0, 0.0, 0.0, 0.0, 1.7297104506381528E9, 0.0, 2024-10-24 00:37:30.638
149.0, -58962.76193413281, -59849.50034016375, -61026.07381654666, -65414.99530255739, -67699.65651031214, -57925.3727704731, -29846.977275249636, 1684.1145377295659, 0.05, 0.9560000000000001, 0.198, 192.0, 1.0, 144.0, 29.0, 224.0, 6.0, 48.0, 0.0, 0.0, 0.0, 1.7297104506405957E9, 0.0, 2024-10-24 00:37:30.640
150.0, -58983.772573920796, -59851.02025878671, -61036.93676435194, -65408.93797981, -67685.99959444995, -57904.67505510749, -29777.08337033789, 1735.0094598543, 0.05, 0.9560000000000001, 0.198, 192.0, 0.0, 0.0, 0.0, 0.0, 0.0, 0.0, 0.0, 0.0, 0.0, 1.7297104506446333E9, 0.0, 2024-10-24 00:37:30.644
151.0, -58983.61611170961, -59836.98336326878, -61027.83960435863, -65392.97883426891, -67671.00157392044, -57882.83740077465, -30001.42782943581, 1478.120860829456, 0.05, 0.9560000000000001, 0.198, 192.0, 0.0, 0.0, 0.0, 0.0, 0.0, 0.0, 0.0, 0.0, 0.0, 1.729710450648677E9, 0.0, 2024-10-24 00:37:30.648
152.0, -58985.53836173277, -59837.51980513571, -61028.84543285912, -65392.84472380218, -67675.13664664468, -57881.161019940504, -30184.443913035862, 1278.3856723768322, 0.05, 0.9560000000000001, 0.198, 192.0, 0.0, 0.0, 0.0, 0.0, 0.0, 0.0, 0.0, 0.0, 0.0, 1.7297104506526353E9, 0.0, 2024-10-24 00:37:30.652
153.0, -58957.24105325235, -59833.13886322247, -61014.96499955237, -65388.016746999834, -67674.10846639973, -57887.173639198976, -30002.053678280558, 1487.0168551226682, 0.05, 0.9560000000000001, 0.198, 192.0, 0.0, 0.0, 0.0, 0.0, 0.0, 0.0, 0.0, 0.0, 0.0, 1.7297104506586795E9, 0.0, 2024-10-24 00:37:30.658
154.0, -58963.991280077855, -59845.968764539815, -61021.67052288896, -65399.907875050056, -67683.74206825996, -57904.63035161857, -29699.746334522526, 1804.5457368547604, 0.05, 0.9560000000000001, 0.198, 192.0, 0.0, 0.0, 0.0, 0.0, 0.0, 0.0, 0.0, 0.0, 0.0, 1.7297104506615553E9, 0.0, 2024-10-24 00:37:30.661
155.0, -58989.069937356704, -59849.03095353019, -61036.26621201828, -65396.75627908186, -67682.0209839369, -57892.5157061238, -29616.843714337792, 1866.907103885067, 0.05, 0.9560000000000001, 0.198, 192.0, 0.0, 0.0, 0.0, 0.0, 0.0, 0.0, 0.0, 0.0, 0.0, 1.729710450664524E9, 0.0, 2024-10-24 00:37:30.664
156.0, -58980.46451574141, -59824.98047649628, -61020.865860088576, -65371.34234563618, -67654.46128302351, -57860.86563597508, -29853.168708463756, 1597.9038593654466, 0.05, 0.9560000000000001, 0.198, 192.0, 0.0, 0.0, 0.0, 0.0, 0.0, 0.0, 0.0, 0.0, 0.0, 1.7297104506687603E9, 0.0, 2024-10-24 00:37:30.668
157.0, -58953.642422395045, -59807.81433675461, -60998.71528133337, -65353.3268396052, -67636.02109384788, -57845.80056021221, -30050.445205026295, 1382.8577259609374, 0.05, 0.9560000000000001, 0.198, 192.0, 0.0, 0.0, 0.0, 0.0, 0.0, 0.0, 0.0, 0.0, 0.0, 1.7297104506726084E9, 0.0, 2024-10-24 00:37:30.672
158.0, -58939.47141641038, -59815.70450254733, -60998.98350226683, -65365.03915369978, -67658.23872783646, -57873.40496461451, -29880.683705888237, 1577.563771911117, 0.05, 0.9560000000000001, 0.198, 192.0, 0.0, 0.0, 0.0, 0.0, 0.0, 0.0, 0.0, 0.0, 0.0, 1.7297104506766083E9, 0.0, 2024-10-24 00:37:30.676
159.0, -58952.21191074991, -59836.98336326878, -61020.284714732734, -65386.60858709915, -67690.35818461874, -57903.803337073725, -29559.84676597676, 1916.6397352981253, 0.05, 0.962, 0.198, 192.0, 1.0, 144.0, 30.0, 16.0, 6.0, 48.0, 0.0, 0.0, 0.0, 1.7297104506836832E9, 0.0, 2024-10-24 00:37:30.683
160.0, -58973.89310287155, -59835.5752033681, -61032.13113929405, -65377.1314474501, -67680.1210856582, -57885.07257522018, -29500.88286410366, 1957.4093171846055, 0.05, 0.962, 0.198, 192.0, 0.0, 0.0, 0.0, 0.0, 0.0, 0.0, 0.0, 0.0, 0.0, 1.729710450686634E9, 0.0, 2024-10-24 00:37:30.686
161.0, -58955.743486373845, -59813.4693281018, -61014.80853734119, -65352.008086682334, -67649.99093413245, -57856.618804528574, -29740.60532338683, 1684.2933516852083, 0.05, 0.962, 0.198, 192.0, 0.0, 0.0, 0.0, 0.0, 0.0, 0.0, 0.0, 0.0, 0.0, 1.729710450691563E9, 0.0, 2024-10-24 00:37:30.691
162.0, -58933.794073318735, -59799.20891513931, -61001.97863602384, -65338.46292954242, -67647.93457364256, -57843.87831018905, -29945.74963399764, 1462.7875641331154, 0.05, 0.962, 0.198, 192.0, 0.0, 0.0, 0.0, 0.0, 0.0, 0.0, 0.0, 0.0, 0.0, 1.729710450696574E9, 0.0, 2024-10-24 00:37:30.696
163.0, -58927.26736393778, -59809.08838618856, -61009.399415183005, -65354.466778572416, -67675.96366118953, -57872.153266925015, -29751.378864214286, 1682.594619106605, 0.05, 0.962, 0.198, 192.0, 0.0, 0.0, 0.0, 0.0, 0.0, 0.0, 0.0, 0.0, 0.0, 1.7297104506995807E9, 0.0, 2024-10-24 00:37:30.699
164.0, -58942.310087956204, -59826.03100848568, -61028.621915414566, -65376.192674182974, -67700.17060043462, -57897.41073815951, -29433.380595848634, 2017.1555301136411, 0.05, 0.962, 0.198, 192.0, 0.0, 0.0, 0.0, 0.0, 0.0, 0.0, 0.0, 0.0, 0.0, 1.7297104507026742E9, 0.0, 2024-10-24 00:37:30.702
165.0, -58968.01459407981, -59828.28853467567, -61046.570366212174, -65376.66206081654, -67688.6818037846, -57889.22999968887, -29356.24472573337, 2076.275894197928, 0.05, 0.962, 0.198, 192.0, 0.0, 0.0, 0.0, 0.0, 0.0, 0.0, 0.0, 0.0, 0.0, 1.729710450705588E9, 0.0, 2024-10-24 00:37:30.705
166.0, -58957.62103290809, -59811.05533970062, -61034.500424206315, -65360.65821178654, -67667.82762620779, -57865.11246742159, -29582.51143485444, 1816.6156788606263, 0.05, 0.962, 0.198, 192.0, 0.0, 0.0, 0.0, 0.0, 0.0, 0.0, 0.0, 0.0, 0.0, 1.7297104507096584E9, 0.0, 2024-10-24 00:37:30.709
167.0, -58941.818349578185, -59803.5675053081, -61022.36342696708, -65356.210214639934, -67662.28439358287, -57858.87633071856, -29786.672268709215, 1596.3839407424857, 0.05, 0.962, 0.198, 192.0, 0.0, 0.0, 0.0, 0.0, 0.0, 0.0, 0.0, 0.0, 0.0, 1.7297104507127216E9, 0.0, 2024-10-24 00:37:30.712
168.0, -58926.10507322611, -59813.02229321269, -61017.24487748682, -65372.54933983676, -67674.75666698893, -57886.12310720958, -29617.983653305015, 1789.7712337698024, 0.05, 0.962, 0.198, 192.0, 0.0, 0.0, 0.0, 0.0, 0.0, 0.0, 0.0, 0.0, 0.0, 1.7297104507176113E9, 0.0, 2024-10-24 00:37:30.717
169.0, -58934.844605308135, -59832.0212759997, -61030.298296248715, -65396.9350930375, -67698.60597832274, -57914.33100871218, -29317.017414214304, 2105.936659090121, 0.046, 0.9560000000000001, 0.198, 192.0, 1.0, 112.0, 29.0, 224.0, 6.0, 48.0, 0.0, 0.0, 0.0, 1.7297104507207513E9, 0.0, 2024-10-24 00:37:30.720
170.0, -58965.33238474517, -59844.53825289467, -61049.29727903572, -65403.193581484986, -67697.93542598908, -57907.2678574643, -29242.206125522393, 2160.7878399834444, 0.046, 0.9560000000000001, 0.198, 192.0, 0.0, 0.0, 0.0, 0.0, 0.0, 0.0, 0.0, 0.0, 0.0, 1.7297104507236333E9, 0.0, 2024-10-24 00:37:30.723
171.0, -58953.2624427393, -59824.26522067371, -61025.6044299131, -65380.14893295157, -67654.79655919035, -57879.70815655091, -29485.75073310742, 1881.882772670123, 0.046, 0.9560000000000001, 0.198, 192.0, 0.0, 0.0, 0.0, 0.0, 0.0, 0.0, 0.0, 0.0, 0.0, 1.7297104507287292E9, 0.0, 2024-10-24 00:37:30.728
172.0, -58930.97775351736, -59812.26233390121, -61004.32556919165, -65369.621261313114, -67651.19792833304, -57867.459400589396, -29685.26240411549, 1662.500400841284, 0.046, 0.9560000000000001, 0.198, 192.0, 0.0, 0.0, 0.0, 0.0, 0.0, 0.0, 0.0, 0.0, 0.0, 1.7297104507326055E9, 0.0, 2024-10-24 00:37:30.732
173.0, -58929.457834894405, -59826.56745035261, -61012.23808672882, -65389.357851667155, -67687.16188516162, -57896.829592803675, -29494.378506467165, 1877.6359412236145, 0.046, 0.9560000000000001, 0.198, 192.0, 0.0, 0.0, 0.0, 0.0, 0.0, 0.0, 0.0, 0.0, 0.0, 1.7297104507366443E9, 0.0, 2024-10-24 00:37:30.736
174.0, -58943.13710250105, -59844.47119766131, -61025.537374679734, -65407.32865420922, -67702.11520220223, -57915.89563082405, -29185.052714950172, 2203.323209681894, 0.046, 0.9560000000000001, 0.198, 192.0, 0.0, 0.0, 0.0, 0.0, 0.0, 0.0, 0.0, 0.0, 0.0, 1.729710450740644E9, 0.0, 2024-10-24 00:37:30.740
175.0, -58965.935881845464, -59851.89197682047, -61034.6568864175, -65406.23341873091, -67687.228940395, -57904.56329638521, -29095.064591773105, 2272.1889343486946, 0.046, 0.9560000000000001, 0.198, 192.0, 0.0, 0.0, 0.0, 0.0, 0.0, 0.0, 0.0, 0.0, 0.0, 1.7297104507446349E9, 0.0, 2024-10-24 00:37:30.744
176.0, -58959.14095153105, -59829.51788062071, -61014.31679896317, -65378.874883517616, -67657.34465805825, -57869.53811282374, -29323.61117882862, 2008.7289224539904, 0.046, 0.9560000000000001, 0.198, 192.0, 0.0, 0.0, 0.0, 0.0, 0.0, 0.0, 0.0, 0.0, 0.0, 1.7297104507487285E9, 0.0, 2024-10-24 00:37:30.748
177.0, -58929.726055827865, -59808.82016525509, -60986.667691071954, -65358.04305768527, -67641.1172915837, -57851.20968237039, -29510.427058986075, 1803.9645914989223, 0.046, 0.9560000000000001, 0.198, 192.0, 0.0, 0.0, 0.0, 0.0, 0.0, 0.0, 0.0, 0.0, 0.0, 1.7297104507547293E9, 0.0, 2024-10-24 00:37:30.754
178.0, -58921.344151657126, -59815.65979905842, -60985.52775210473, -65366.69318278947, -67664.89954768414, -57871.95210122492, -29333.915333022516, 2004.258573562929, 0.046, 0.9560000000000001, 0.198, 192.0, 0.0, 0.0, 0.0, 0.0, 0.0, 0.0, 0.0, 0.0, 0.0, 1.7297104507566807E9, 0.0, 2024-10-24 00:37:30.756
179.0, -58929.54724187223, -59830.00961899872, -60999.16231622247, -65380.059525973746, -67690.8275712523, -57892.22513344588, -29026.73530897323, 2330.5493391215014, 0.05, 0.96, 0.202, 192.0, 1.0, 144.0, 30.0, 0.0, 6.0, 80.0, 0.0, 0.0, 0.0, 1.7297104507606823E9, 0.0, 2024-10-24 00:37:30.760
180.0, -58957.33046023017, -59836.0222382572, -61015.479089674845, -65378.159627695044, -67677.66239376813, -57883.329139152665, -28945.754938811653, 2396.4199300312916, 0.05, 0.96, 0.202, 192.0, 0.0, 0.0, 0.0, 0.0, 0.0, 0.0, 0.0, 0.0, 0.0, 1.729710450764747E9, 0.0, 2024-10-24 00:37:30.764
181.0, -58941.617183878094, -59811.301208889636, -60993.820249297656, -65350.28700235928, -67639.6644281941, -57854.56244403869, -29177.475473579823, 2130.054191357397, 0.05, 0.96, 0.202, 192.0, 0.0, 0.0, 0.0, 0.0, 0.0, 0.0, 0.0, 0.0, 0.0, 1.729710450768766E9, 0.0, 2024-10-24 00:37:30.768
182.0, -58925.2110034479, -59796.07967091557, -60979.202208423885, -65335.40074055204, -67632.93655311306, -57840.1008653761, -29380.697534167473, 1907.9672584494663, 0.05, 0.96, 0.202, 192.0, 0.0, 0.0, 0.0, 0.0, 0.0, 0.0, 0.0, 0.0, 0.0, 1.7297104507727008E9, 0.0, 2024-10-24 00:37:30.772
183.0, -58926.35094241511, -59810.36243562251, -60990.668653329456, -65353.57270879421, -67662.06087613832, -57864.91130172149, -29191.244148164293, 2122.164025564674, 0.05, 0.96, 0.202, 192.0, 0.0, 0.0, 0.0, 0.0, 0.0, 0.0, 0.0, 0.0, 0.0, 1.7297104507766492E9, 0.0, 2024-10-24 00:37:30.776
184.0, -58939.42671292147, -59824.421682884895, -61011.902810561995, -65373.10813344814, -67691.16284741912, -57891.33106366767, -28896.983432410176, 2434.9990409611514, 0.05, 0.96, 0.202, 192.0, 0.0, 0.0, 0.0, 0.0, 0.0, 0.0, 0.0, 0.0, 0.0, 1.7297104507798307E9, 0.0, 2024-10-24 00:37:30.779
185.0, -58960.705573642925, -59821.80652878363, -61022.27401998926, -65368.81659851273, -67672.56619603232, -57884.02204323078, -28826.016643764575, 2488.5761724205227, 0.05, 0.96, 0.202, 192.0, 0.0, 0.0, 0.0, 0.0, 0.0, 0.0, 0.0, 0.0, 0.0, 1.7297104507847395E9, 0.0, 2024-10-24 00:37:30.784
186.0, -58947.74156185884, -59798.78423199466, -61009.06413901617, -65347.71655174692, -67647.4204835201, -57855.300051605715, -29046.784823749644, 2235.308555997438, 0.05, 0.96, 0.202, 192.0, 0.0, 0.0, 0.0, 0.0, 0.0, 0.0, 0.0, 0.0, 0.0, 1.7297104507889593E9, 0.0, 2024-10-24 00:37:30.788
187.0, -58931.58125061766, -59784.45676379881, -60994.93783652042, -65337.21123185292, -67640.98318111697, -57840.99493515432, -29235.612360908075, 2029.3372308417836, 0.05, 0.96, 0.202, 192.0, 0.0, 0.0, 0.0, 0.0, 0.0, 0.0, 0.0, 0.0, 0.0, 1.729710450792869E9, 0.0, 2024-10-24 00:37:30.792
188.0, -58922.43938713543, -59794.82797322607, -60995.09429873161, -65353.72917100539, -67661.34562031575, -57869.80633375721, -29047.88005922795, 2239.82360837741, 0.05, 0.96, 0.202, 192.0, 0.0, 0.0, 0.0, 0.0, 0.0, 0.0, 0.0, 0.0, 0.0, 1.729710450796802E9, 0.0, 2024-10-24 00:37:30.796
189.0, -58929.8601662946, -59814.05047345764, -61010.517002405766, -65379.925415507016, -67688.74885901796, -57903.4680609069, -28740.58827645639, 2564.8850279909407, 0.054, 0.9540000000000001, 0.196, 192.0, 1.0, 176.0, 29.0, 208.0, 6.0, 32.0, 0.0, 0.0, 0.0, 1.7297104508009624E9, 0.0, 2024-10-24 00:37:30.800
190.0, -58962.314899243705, -59830.50135737674, -61034.54512769522, -65394.76697382534, -67690.1793706631, -57908.78777608726, -28659.540851061447, 2629.168645044404, 0.054, 0.9540000000000001, 0.196, 192.0, 0.0, 0.0, 0.0, 0.0, 0.0, 0.0, 0.0, 0.0, 0.0, 1.7297104508048573E9, 0.0, 2024-10-24 00:37:30.804
191.0, -58951.3625444606, -59810.67536004489, -61016.999008297804, -65373.912796248536, -67662.84318719426, -57874.05316520372, -28893.451856786236, 2362.6911476482333, 0.054, 0.9540000000000001, 0.196, 192.0, 0.0, 0.0, 0.0, 0.0, 0.0, 0.0, 0.0, 0.0, 0.0, 1.7297104508077917E9, 0.0, 2024-10-24 00:37:30.807
192.0, -58936.67744835347, -59798.627769783474, -61000.12344123405, -65361.395819353565, -67657.90345166963, -57858.518702807276, -29107.000423312238, 2130.2106535685843, 0.054, 0.9540000000000001, 0.196, 192.0, 0.0, 0.0, 0.0, 0.0, 0.0, 0.0, 0.0, 0.0, 0.0, 1.7297104508118856E9, 0.0, 2024-10-24 00:37:30.811
193.0, -58933.81642506319, -59816.240944414254, -61005.823136070154, -65378.98664223989, -67683.0268124374, -57888.850020033125, -28924.20785715674, 2334.952632779197, 0.054, 0.9540000000000001, 0.196, 192.0, 0.0, 0.0, 0.0, 0.0, 0.0, 0.0, 0.0, 0.0, 0.0, 1.7297104508167417E9, 0.0, 2024-10-24 00:37:30.816
194.0, -58948.59092814814, -59837.22923245779, -61021.96109556688, -65397.605645371164, -67700.79644927937, -57909.3689214431, -28617.117240085274, 2657.801229691652, 0.054, 0.9540000000000001, 0.196, 192.0, 0.0, 0.0, 0.0, 0.0, 0.0, 0.0, 0.0, 0.0, 0.0, 1.7297104508209856E9, 0.0, 2024-10-24 00:37:30.820
195.0, -58976.88823662856, -59847.220462229314, -61035.12627305106, -65395.66104360355, -67684.23380663799, -57894.68382533596, -28539.042596702886, 2718.4415123989, 0.054, 0.9540000000000001, 0.196, 192.0, 0.0, 0.0, 0.0, 0.0, 0.0, 0.0, 0.0, 0.0, 0.0, 1.729710450824884E9, 0.0, 2024-10-24 00:37:30.824
196.0, -58971.3673557481, -59830.121377721, -61018.965961809874, -65372.012897969835, -67654.72950395697, -57864.06193543219, -28751.987666128596, 2471.722957101221, 0.054, 0.9540000000000001, 0.196, 192.0, 0.0, 0.0, 0.0, 0.0, 0.0, 0.0, 0.0, 0.0, 0.0, 1.729710450828873E9, 0.0, 2024-10-24 00:37:30.828
197.0, -58953.73182937287, -59820.80070028314, -61004.5490866362, -65358.75831350784, -67654.5730417458, -57853.40015332701, -28941.128127709406, 2264.499934256069, 0.054, 0.9540000000000001, 0.196, 192.0, 0.0, 0.0, 0.0, 0.0, 0.0, 0.0, 0.0, 0.0, 0.0, 1.729710450833887E9, 0.0, 2024-10-24 00:37:30.833
198.0, -58938.84556756563, -59829.9202120209, -61002.403319168494, -65369.1295229351, -67678.15413214614, -57874.83547625965, -28749.707788194155, 2481.8035938505645, 0.054, 0.9540000000000001, 0.196, 192.0, 0.0, 0.0, 0.0, 0.0, 0.0, 0.0, 0.0, 0.0, 0.0, 1.7297104508368444E9, 0.0, 2024-10-24 00:37:30.836
199.0, -58948.680335125966, -59850.863796575526, -61012.84158382912, -65386.29566267678, -67690.11231542972, -57889.1629444555, -28455.022389295387, 2795.733844725352, 0.046, 0.962, 0.194, 192.0, 1.0, 112.0, 30.0, 16.0, 6.0, 16.0, 0.0, 0.0, 0.0, 1.729710450840948E9, 0.0, 2024-10-24 00:37:30.840
200.0, -58983.39259426506, -59864.81128511564, -61035.752121895806, -65392.30828193526, -67688.61474855122, -57883.396194386034, -28384.413228561072, 2849.08745874017, 0.046, 0.962, 0.194, 192.0, 0.0, 0.0, 0.0, 0.0, 0.0, 0.0, 0.0, 0.0, 0.0, 1.729710450844848E9, 0.0, 2024-10-24 00:37:30.844
201.0, -58966.025288823286, -59839.01737201421, -61016.28375247524, -65368.34721187916, -67660.9209371711, -57858.853978974104, -28640.988903163543, 2560.6829000333432, 0.046, 0.962, 0.194, 192.0, 0.0, 0.0, 0.0, 0.0, 0.0, 0.0, 0.0, 0.0, 0.0, 1.7297104508487947E9, 0.0, 2024-10-24 00:37:30.848
202.0, -58934.844605308135, -59817.62675257048, -60988.23231318383, -65348.20829012493, -67638.09980608223, -57842.8054264552, -28850.402396965314, 2334.2820804455378, 0.046, 0.962, 0.194, 192.0, 0.0, 0.0, 0.0, 0.0, 0.0, 0.0, 0.0, 0.0, 0.0, 1.7297104508528912E9, 0.0, 2024-10-24 00:37:30.852
203.0, -58930.30720118371, -59831.06015098812, -60994.53550512022, -65361.90990947604, -67667.64881225214, -57863.771362754276, -28655.495185315038, 2553.5526935521, 0.046, 0.962, 0.194, 192.0, 0.0, 0.0, 0.0, 0.0, 0.0, 0.0, 0.0, 0.0, 0.0, 1.7297104508568096E9, 0.0, 2024-10-24 00:37:30.856
204.0, -58947.29452696974, -59851.22142448681, -61014.0485780297, -65381.84766553017, -67694.64971955416, -57886.16781069849, -28336.55814368226, 2888.985322592893, 0.046, 0.962, 0.194, 192.0, 0.0, 0.0, 0.0, 0.0, 0.0, 0.0, 0.0, 0.0, 0.0, 1.7297104508599224E9, 0.0, 2024-10-24 00:37:30.859
205.0, -58978.40815525153, -59860.720915880316, -61038.27786901926, -65387.21208419944, -67696.54961783286, -57882.99386298584, -28264.719637002905, 2941.176645896035, 0.046, 0.962, 0.194, 192.0, 0.0, 0.0, 0.0, 0.0, 0.0, 0.0, 0.0, 0.0, 0.0, 1.729710450863888E9, 0.0, 2024-10-24 00:37:30.863
206.0, -58962.873692855086, -59831.417778899406, -61022.69870313391, -65359.920604219515, -67667.60410876323, -57848.03573465774, -28498.988270638976, 2673.514506043733, 0.046, 0.962, 0.194, 192.0, 0.0, 0.0, 0.0, 0.0, 0.0, 0.0, 0.0, 0.0, 0.0, 1.729710450867792E9, 0.0, 2024-10-24 00:37:30.867
207.0, -58951.250785738324, -59822.968819495305, -61006.98542678183, -65351.114016904125, -67649.25332656543, -57839.54207176472, -28697.44940965765, 2457.4848958831903, 0.046, 0.962, 0.194, 192.0, 0.0, 0.0, 0.0, 0.0, 0.0, 0.0, 0.0, 0.0, 0.0, 1.729710450874024E9, 0.0, 2024-10-24 00:37:30.874
208.0, -58943.628840879064, -59838.547985380654, -61007.723034348855, -65368.74954327936, -67665.90537618463, -57864.75483951031, -28509.761811466436, 2668.328901330102, 0.046, 0.962, 0.194, 192.0, 0.0, 0.0, 0.0, 0.0, 0.0, 0.0, 0.0, 0.0, 0.0, 1.7297104508770268E9, 0.0, 2024-10-24 00:37:30.877
209.0, -58953.150684017026, -59857.2787472342, -61025.202098512906, -65389.51431387834, -67691.76634451942, -57887.911246766, -28220.239665536843, 2974.413689901077, 0.046, 0.962, 0.194, 192.0, 0.0, 0.0, 0.0, 0.0, 0.0, 0.0, 0.0, 0.0, 0.0, 1.7297104508808625E9, 0.0, 2024-10-24 00:37:30.880
210.0, -58985.22543731039, -59873.55081719766, -61047.39738075702, -65398.94675003848, -67686.60309155025, -57888.090060721646, -28126.585856269106, 3049.8061239488275, 0.046, 0.964, 0.196, 192.0, 1.0, 112.0, 30.0, 32.0, 6.0, 32.0, 0.0, 0.0, 0.0, 1.7297104508849652E9, 0.0, 2024-10-24 00:37:30.884
211.0, -58978.38580350707, -59854.149503010456, -61035.84152887363, -65382.07118297472, -67662.95494591653, -57868.375822112066, -28366.50948125237, 2775.4608125043887, 0.046, 0.964, 0.196, 192.0, 0.0, 0.0, 0.0, 0.0, 0.0, 0.0, 0.0, 0.0, 0.0, 1.729710450888896E9, 0.0, 2024-10-24 00:37:30.888
212.0, -58956.436390451956, -59840.11260749253, -61020.68704613293, -65372.48228460339, -67655.08713186826, -57857.06583941768, -28559.449739390584, 2561.5769698115555, 0.046, 0.964, 0.196, 192.0, 0.0, 0.0, 0.0, 0.0, 0.0, 0.0, 0.0, 0.0, 0.0, 1.729710450892001E9, 0.0, 2024-10-24 00:37:30.892
213.0, -58947.830968836664, -59851.757866353735, -61025.895002591016, -65390.07310748972, -67684.16675140461, -57884.513781608795, -28371.8962516661, 2773.829135159151, 0.046, 0.964, 0.196, 192.0, 0.0, 0.0, 0.0, 0.0, 0.0, 0.0, 0.0, 0.0, 0.0, 1.7297104508958824E9, 0.0, 2024-10-24 00:37:30.895
214.0, -58954.827064851175, -59863.716049637325, -61038.63549693055, -65404.0876512632, -67701.91403650213, -57902.10460449512, -28092.70061167486, 3071.487316070475, 0.046, 0.964, 0.196, 192.0, 0.0, 0.0, 0.0, 0.0, 0.0, 0.0, 0.0, 0.0, 0.0, 1.7297104509019132E9, 0.0, 2024-10-24 00:37:30.901
215.0, -58984.17490532099, -59871.98619508579, -61056.89687215053, -65406.27812221982, -67690.06761194082, -57891.24165668985, -28020.280959639666, 3126.137331263701, 0.046, 0.964, 0.196, 192.0, 0.0, 0.0, 0.0, 0.0, 0.0, 0.0, 0.0, 0.0, 0.0, 1.7297104509048946E9, 0.0, 2024-10-24 00:37:30.904
216.0, -58966.20410277893, -59849.70150586385, -61033.47224396137, -65380.50656086285, -67658.86457668121, -57861.580891797654, -28253.364950819607, 2859.7492408453513, 0.046, 0.964, 0.196, 192.0, 0.0, 0.0, 0.0, 0.0, 0.0, 0.0, 0.0, 0.0, 0.0, 1.7297104509089012E9, 0.0, 2024-10-24 00:37:30.908
217.0, -58944.00882053481, -59839.06207550313, -61009.01943552726, -65365.285022888784, -67649.58860273226, -57848.19219686893, -28454.284781728362, 2641.5068079837333, 0.046, 0.964, 0.196, 192.0, 0.0, 0.0, 0.0, 0.0, 0.0, 0.0, 0.0, 0.0, 0.0, 1.729710450912907E9, 0.0, 2024-10-24 00:37:30.912
218.0, -58938.532643143255, -59857.926947823405, -61014.65207513, -65382.5852730972, -67678.71292575753, -57876.57891232716, -28259.914011945013, 2857.84934256665, 0.046, 0.964, 0.196, 192.0, 0.0, 0.0, 0.0, 0.0, 0.0, 0.0, 0.0, 0.0, 0.0, 1.7297104509169507E9, 0.0, 2024-10-24 00:37:30.916
219.0, -58959.87855909808, -59881.128058568014, -61036.91441260748, -65404.42292743003, -67707.74784180497, -57903.69157835145, -27939.345292967, 3193.170212885167, 0.046, 0.964, 0.196, 192.0, 0.0, 0.0, 0.0, 0.0, 0.0, 0.0, 0.0, 0.0, 0.0, 1.7297104509198773E9, 0.0, 2024-10-24 00:37:30.919
220.0, -58981.09036458616, -59885.263131292246, -61047.68795343494, -65401.025462272824, -67692.36984161971, -57896.203743958926, -27855.1239198594, 3260.337204973365, 0.046, 0.964, 0.194, 192.0, 1.0, 112.0, 30.0, 32.0, 6.0, 16.0, 0.0, 0.0, 0.0, 1.7297104509239757E9, 0.0, 2024-10-24 00:37:30.923
221.0, -58969.19923653594, -59862.240834503275, -61025.87265084656, -65375.723287549416, -67658.99868714795, -57864.33015636566, -28076.56265217813, 3006.622553661174, 0.046, 0.964, 0.194, 192.0, 0.0, 0.0, 0.0, 0.0, 0.0, 0.0, 0.0, 0.0, 0.0, 1.7297104509289212E9, 0.0, 2024-10-24 00:37:30.928
222.0, -58955.49761718484, -59850.3273547086, -61013.48978441832, -65360.88172923109, -67660.36214355972, -57848.01338291328, -28277.16955866451, 2790.3694260560783, 0.046, 0.964, 0.194, 192.0, 0.0, 0.0, 0.0, 0.0, 0.0, 0.0, 0.0, 0.0, 0.0, 1.7297104509329016E9, 0.0, 2024-10-24 00:37:30.932
223.0, -58948.05448628122, -59857.99400305677, -61015.3002757192, -65370.49297934688, -67677.23771062348, -57869.40400235701, -28082.374105736508, 3010.3552949852105, 0.046, 0.964, 0.194, 192.0, 0.0, 0.0, 0.0, 0.0, 0.0, 0.0, 0.0, 0.0, 0.0, 1.7297104509369419E9, 0.0, 2024-10-24 00:37:30.936
224.0, -58947.54039615874, -59866.7782386277, -61022.966924067376, -65380.327746907205, -67689.28530088489, -57887.911246766, -27793.187235973746, 3318.0717609014227, 0.046, 0.964, 0.194, 192.0, 0.0, 0.0, 0.0, 0.0, 0.0, 0.0, 0.0, 0.0, 0.0, 1.729710450940925E9, 0.0, 2024-10-24 00:37:30.940
225.0, -58967.120524301594, -59871.695622407875, -61039.0601800752, -65383.12171496412, -67697.08605969978, -57880.15519144001, -27734.11157537837, 3360.5400753665062, 0.046, 0.964, 0.194, 192.0, 0.0, 0.0, 0.0, 0.0, 0.0, 0.0, 0.0, 0.0, 0.0, 1.7297104509439805E9, 0.0, 2024-10-24 00:37:30.943
226.0, -58961.554939932226, -59851.66845937592, -61025.73854037983, -65366.98375546739, -67676.81302747883, -57857.42346732897, -27958.590144943017, 3104.657304842151, 0.046, 0.964, 0.194, 192.0, 0.0, 0.0, 0.0, 0.0, 0.0, 0.0, 0.0, 0.0, 0.0, 1.729710450948122E9, 0.0, 2024-10-24 00:37:30.948
227.0, -58938.73380884335, -59836.49162489076, -61003.74442383581, -65357.03722918478, -67660.31744007081, -57850.98616492584, -28154.905516493982, 2891.734587160896, 0.046, 0.964, 0.194, 192.0, 0.0, 0.0, 0.0, 0.0, 0.0, 0.0, 0.0, 0.0, 0.0, 1.7297104509520297E9, 0.0, 2024-10-24 00:37:30.952
228.0, -58926.14977671502, -59848.270994218714, -61002.42567091295, -65375.8797497606, -67682.73623975948, -57883.10562170811, -27980.696020209318, 3091.603886080252, 0.046, 0.964, 0.194, 192.0, 0.0, 0.0, 0.0, 0.0, 0.0, 0.0, 0.0, 0.0, 0.0, 1.729710450957152E9, 0.0, 2024-10-24 00:37:30.957
229.0, -58931.983582017856, -59859.84919784656, -61013.445080929414, -65393.09059299119, -67707.70313831605, -57906.73141559737, -27679.059228784947, 3409.222174790165, 0.046, 0.964, 0.194, 192.0, 0.0, 0.0, 0.0, 0.0, 0.0, 0.0, 0.0, 0.0, 0.0, 1.7297104509610305E9, 0.0, 2024-10-24 00:37:30.961
230.0, -58952.793056105744, -59863.35842172604, -61023.860993845585, -65388.32967142221, -67698.94125448957, -57887.41950838799, -27614.105059397825, 3456.898445713335, 0.05, 0.96, 0.202, 192.0, 1.0, 144.0, 30.0, 0.0, 6.0, 80.0, 0.0, 0.0, 0.0, 1.7297104509649568E9, 0.0, 2024-10-24 00:37:30.964
231.0, -58952.97187006139, -59851.5790523981, -61009.108842505084, -65368.36956362362, -67659.60218424823, -57856.59645278412, -27851.86056516893, 3187.8057942158935, 0.05, 0.96, 0.202, 192.0, 0.0, 0.0, 0.0, 0.0, 0.0, 0.0, 0.0, 0.0, 0.0, 1.7297104509690638E9, 0.0, 2024-10-24 00:37:30.969
232.0, -58939.80669257721, -59844.71706685032, -60991.89799927449, -65356.344325106664, -67641.78784391735, -57837.44100778592, -28039.21288719331, 2984.695492350518, 0.05, 0.96, 0.202, 192.0, 0.0, 0.0, 0.0, 0.0, 0.0, 0.0, 0.0, 0.0, 0.0, 1.7297104509719622E9, 0.0, 2024-10-24 00:37:30.971
233.0, -58927.9602680159, -59848.539215152174, -60987.40529863898, -65366.08968568918, -67662.08322788277, -57858.2057783849, -27894.95472847876, 3154.144067066201, 0.05, 0.96, 0.202, 192.0, 0.0, 0.0, 0.0, 0.0, 0.0, 0.0, 0.0, 0.0, 0.0, 1.7297104509759452E9, 0.0, 2024-10-24 00:37:30.975
234.0, -58939.67258211048, -59867.56054968364, -61004.97376978085, -65388.24026444439, -67696.01317596593, -57886.03370023176, -27608.98650991756, 3457.5242945580835, 0.05, 0.96, 0.202, 192.0, 0.0, 0.0, 0.0, 0.0, 0.0, 0.0, 0.0, 0.0, 0.0, 1.7297104509799845E9, 0.0, 2024-10-24 00:37:30.979
235.0, -58974.45189648293, -59881.9327213684, -61029.89596484852, -65397.180962226514, -67688.8829694847, -57884.871409520085, -27529.10137523429, 3520.824434855513, 0.05, 0.96, 0.202, 192.0, 0.0, 0.0, 0.0, 0.0, 0.0, 0.0, 0.0, 0.0, 0.0, 1.729710450984092E9, 0.0, 2024-10-24 00:37:30.984
236.0, -58961.35377423213, -59861.52557868071, -61012.819232084665, -65373.912796248536, -67657.7693412029, -57855.4565138169, -27761.693628036217, 3253.743440359049, 0.05, 0.96, 0.202, 192.0, 0.0, 0.0, 0.0, 0.0, 0.0, 0.0, 0.0, 0.0, 0.0, 1.7297104509890316E9, 0.0, 2024-10-24 00:37:30.989
237.0, -58943.94176530144, -59849.96972679732, -60994.93783652042, -65361.21700539792, -67644.38064627418, -57842.224281099356, -27984.227595833254, 3013.104559553213, 0.05, 0.96, 0.202, 192.0, 0.0, 0.0, 0.0, 0.0, 0.0, 0.0, 0.0, 0.0, 0.0, 1.7297104509929829E9, 0.0, 2024-10-24 00:37:30.992
238.0, -58935.49280589734, -59863.49253219277, -61001.08456624563, -65380.84183702968, -67680.61282403623, -57874.991938470834, -27794.729506341162, 3223.9262132556696, 0.05, 0.96, 0.202, 192.0, 0.0, 0.0, 0.0, 0.0, 0.0, 0.0, 0.0, 0.0, 0.0, 1.7297104509969935E9, 0.0, 2024-10-24 00:37:30.996
239.0, -58946.28869846925, -59881.66450043494, -61018.36246470958, -65400.84664831718, -67706.38438539319, -57898.55067712673, -27485.20254912407, 3550.440496258795, 0.05, 0.96, 0.202, 192.0, 0.0, 0.0, 0.0, 0.0, 0.0, 0.0, 0.0, 0.0, 0.0, 1.7297104510031257E9, 0.0, 2024-10-24 00:37:31.003
240.0, -58969.6686231695, -59888.01239586025, -61029.739502637334, -65398.924398294024, -67694.49325734297, -57884.91611300899, -27399.885940538163, 3618.568613358571, 0.05, 0.962, 0.202, 192.0, 1.0, 144.0, 30.0, 16.0, 6.0, 80.0, 0.0, 0.0, 0.0, 1.72971045100601E9, 0.0, 2024-10-24 00:37:31.006
241.0, -58966.293509756746, -59873.304948008656, -61017.82602284265, -65376.99733698337, -67677.05889666783, -57855.27769986125, -27609.70176574013, 3373.5711423839502, 0.05, 0.962, 0.202, 192.0, 0.0, 0.0, 0.0, 0.0, 0.0, 0.0, 0.0, 0.0, 0.0, 1.729710451009002E9, 0.0, 2024-10-24 00:37:31.009
242.0, -58950.982564804865, -59859.1786455129, -61002.626836613046, -65362.06637168722, -67668.94521343056, -57840.97258340986, -27827.36305324591, 3136.262671501955, 0.05, 0.962, 0.202, 192.0, 0.0, 0.0, 0.0, 0.0, 0.0, 0.0, 0.0, 0.0, 0.0, 1.7297104510131135E9, 0.0, 2024-10-24 00:37:31.013
243.0, -58946.445160680436, -59873.23789277529, -61006.0019500258, -65377.86905501712, -67682.19979789255, -57867.191179655936, -27652.728873816595, 3336.489598332596, 0.05, 0.962, 0.202, 192.0, 0.0, 0.0, 0.0, 0.0, 0.0, 0.0, 0.0, 0.0, 0.0, 1.7297104510169845E9, 0.0, 2024-10-24 00:37:31.016
244.0, -58954.536492173254, -59886.67129119293, -61017.915429820474, -65391.90595053506, -67698.27070215592, -57887.19599094344, -27356.6576667616, 3649.570482918082, 0.05, 0.962, 0.202, 192.0, 0.0, 0.0, 0.0, 0.0, 0.0, 0.0, 0.0, 0.0, 0.0, 1.7297104510210445E9, 0.0, 2024-10-24 00:37:31.021
245.0, -58968.84160862465, -59888.884113894004, -61023.92804907895, -65390.09545923418, -67686.49133282797, -57880.26695016229, -27276.593718122687, 3713.854099971545, 0.05, 0.962, 0.202, 192.0, 0.0, 0.0, 0.0, 0.0, 0.0, 0.0, 0.0, 0.0, 0.0, 1.729710451025014E9, 0.0, 2024-10-24 00:37:31.025
246.0, -58970.85326562563, -59880.345747512074, -61018.94361006542, -65379.903063762555, -67671.6721262541, -57864.531322065755, -27492.444514327588, 3467.5602278185165, 0.05, 0.962, 0.202, 192.0, 0.0, 0.0, 0.0, 0.0, 0.0, 0.0, 0.0, 0.0, 0.0, 1.729710451028077E9, 0.0, 2024-10-24 00:37:31.028
247.0, -58946.33340195816, -59861.10089553606, -61002.6491883575, -65364.16743566602, -67663.91607092811, -57851.947289937416, -27709.256435544066, 3234.1633122162, 0.05, 0.962, 0.202, 192.0, 0.0, 0.0, 0.0, 0.0, 0.0, 0.0, 0.0, 0.0, 0.0, 1.7297104510330117E9, 0.0, 2024-10-24 00:37:31.033
248.0, -58934.26345995229, -59864.72187813782, -61004.437327913925, -65377.37731663911, -67694.24738815396, -57880.535171095755, -27559.678561649154, 3407.523442211562, 0.05, 0.962, 0.202, 192.0, 0.0, 0.0, 0.0, 0.0, 0.0, 0.0, 0.0, 0.0, 0.0, 1.7297104510370493E9, 0.0, 2024-10-24 00:37:31.037
249.0, -58950.691992126944, -59882.379756257506, -61023.97275256786, -65402.210104728954, -67719.72837683301, -57911.04530227725, -27252.45383411096, 3731.9366612358886, 0.05, 0.962, 0.202, 192.0, 0.0, 0.0, 0.0, 0.0, 0.0, 0.0, 0.0, 0.0, 0.0, 1.7297104510400324E9, 0.0, 2024-10-24 00:37:31.040
250.0, -58964.43831496696, -59887.05127084867, -61030.20888927089, -65401.293683206284, -67701.42229812412, -57896.673130592484, -27171.71933313839, 3793.6721794214463, 0.048, 0.962, 0.198, 192.0, 1.0, 128.0, 30.0, 16.0, 6.0, 48.0, 0.0, 0.0, 0.0, 1.7297104510440683E9, 0.0, 2024-10-24 00:37:31.044
251.0, -58948.47916942587, -59868.49932295076, -61010.248781472306, -65382.07118297472, -67674.1755216331, -57869.269891890275, -27418.929626814086, 3512.21901324022, 0.048, 0.962, 0.198, 192.0, 0.0, 0.0, 0.0, 0.0, 0.0, 0.0, 0.0, 0.0, 0.0, 1.7297104510491064E9, 0.0, 2024-10-24 00:37:31.049
252.0, -58939.53847164375, -59867.381735728, -61003.677368602446, -65381.17711319651, -67673.46026581053, -57864.71013602139, -27619.08949841136, 3293.216621067121, 0.048, 0.962, 0.198, 192.0, 0.0, 0.0, 0.0, 0.0, 0.0, 0.0, 0.0, 0.0, 0.0, 1.7297104510530717E9, 0.0, 2024-10-24 00:37:31.053
253.0, -58932.76589307379, -59879.585788200595, -61011.902810561995, -65400.109040750154, -67703.85863826974, -57893.29801717973, -27452.211374308037, 3485.7545478051366, 0.048, 0.962, 0.198, 192.0, 0.0, 0.0, 0.0, 0.0, 0.0, 0.0, 0.0, 0.0, 0.0, 1.7297104510561104E9, 0.0, 2024-10-24 00:37:31.056
254.0, -58946.98160254736, -59902.25045707828, -61031.32647649366, -65424.315979995255, -67725.91981004713, -57918.57784015869, -27130.18979194043, 3825.1657873589743, 0.048, 0.962, 0.198, 192.0, 0.0, 0.0, 0.0, 0.0, 0.0, 0.0, 0.0, 0.0, 0.0, 1.7297104510600612E9, 0.0, 2024-10-24 00:37:31.060
255.0, -58976.95529186193, -59910.65471299347, -61043.97756385536, -65421.52201193834, -67698.33775738928, -57900.58468587216, -27054.819709637133, 3884.3532066766275, 0.048, 0.962, 0.198, 192.0, 0.0, 0.0, 0.0, 0.0, 0.0, 0.0, 0.0, 0.0, 0.0, 1.7297104510640805E9, 0.0, 2024-10-24 00:37:31.064
0.0, -58965.667660912004, -59888.28061679371, -61026.56555492468, -65396.823334315224, -67672.16386463212, -57867.77232501177, -27319.196143054505, 3589.4889938222163, 0.048, 0.962, 0.198, 192.0, 0.0, 0.0, 0.0, 0.0, 0.0, 0.0, 0.0, 0.0, 0.0, 1.7297104510681446E9, 0.0, 2024-10-24 00:37:31.068
1.0, -58951.116675271594, -59880.12223006752, -61016.1496420085, -65387.48030513291, -67668.43112330808, -57855.724734750365, -27524.20634319858, 3369.9501597821904, 0.048, 0.962, 0.198, 192.0, 0.0, 0.0, 0.0, 0.0, 0.0, 0.0, 0.0, 0.0, 0.0, 1.7297104510721047E9, 0.0, 2024-10-24 00:37:31.072
2.0, -58942.82417807868, -59891.834544162106, -61014.428557685445, -65394.78932556979, -67680.7245827585, -57867.74997326732, -27340.586762498235, 3580.9729791847444, 0.048, 0.962, 0.198, 192.0, 0.0, 0.0, 0.0, 0.0, 0.0, 0.0, 0.0, 0.0, 0.0, 1.7297104510770996E9, 0.0, 2024-10-24 00:37:31.077
3.0, -58955.452913695925, -59906.56434375815, -61028.39839797001, -65407.55217165377, -67697.39898412216, -57888.40298514402, -27050.282305512705, 3888.0188927672975, 0.048, 0.962, 0.198, 192.0, 0.0, 0.0, 0.0, 0.0, 0.0, 0.0, 0.0, 0.0, 0.0, 1.729710451081082E9, 0.0, 2024-10-24 00:37:31.081
4.0, -58986.54419023326, -59915.661503751464, -61049.118465080086, -65408.84857283218, -67696.77313527741, -57884.02204323078, -26967.178519627872, 3955.87878893361, 0.046, 0.96, 0.2, 192.0, 1.0, 112.0, 30.0, 0.0, 6.0, 64.0, 0.0, 0.0, 0.0, 1.7297104510841708E9, 0.0, 2024-10-24 00:37:31.084
5.0, -58974.965986605406, -59892.39333777349, -61033.31578175018, -65385.781572554304, -67671.0239256649, -57858.585758040645, -27211.90776966903, 3679.722986188291, 0.046, 0.96, 0.2, 192.0, 0.0, 0.0, 0.0, 0.0, 0.0, 0.0, 0.0, 0.0, 0.0, 1.7297104510881546E9, 0.0, 2024-10-24 00:37:31.088
6.0, -58970.38387899207, -59888.50413423826, -61030.18653752644, -65382.80879054175, -67669.54871053084, -57860.17273189697, -27411.15121974364, 3463.380451605374, 0.046, 0.96, 0.2, 192.0, 0.0, 0.0, 0.0, 0.0, 0.0, 0.0, 0.0, 0.0, 0.0, 1.7297104510922885E9, 0.0, 2024-10-24 00:37:31.092
7.0, -58951.13902701605, -59892.41568951794, -61023.9056973345, -65388.75435456686, -67683.74206825996, -57879.30582515071, -27248.16229917554, 3651.403325963417, 0.046, 0.96, 0.2, 192.0, 0.0, 0.0, 0.0, 0.0, 0.0, 0.0, 0.0, 0.0, 0.0, 1.729710451096311E9, 0.0, 2024-10-24 00:37:31.096
8.0, -58953.41890495049, -59905.96084665786, -61032.98050558335, -65401.47249716193, -67705.49031561498, -57891.19695320093, -26944.625609472467, 3970.9215129520317, 0.046, 0.96, 0.2, 192.0, 0.0, 0.0, 0.0, 0.0, 0.0, 0.0, 0.0, 0.0, 0.0, 1.7297104511002233E9, 0.0, 2024-10-24 00:37:31.100
9.0, -58980.75508841933, -59916.488518296304, -61051.93478488145, -65405.80873558626, -67707.94900750507, -57888.40298514402, -26834.766785474636, 4062.965996618986, 0.046, 0.96, 0.2, 192.0, 0.0, 0.0, 0.0, 0.0, 0.0, 0.0, 0.0, 0.0, 0.0, 1.7297104511051793E9, 0.0, 2024-10-24 00:37:31.105
10.0, -58965.108867300616, -59890.94047438389, -61030.11948229307, -65379.679546318, -67674.04141116637, -57859.79275224123, -27072.03055286772, 3789.5371066972148, 0.046, 0.96, 0.2, 192.0, 0.0, 0.0, 0.0, 0.0, 0.0, 0.0, 0.0, 0.0, 0.0, 1.7297104511092656E9, 0.0, 2024-10-24 00:37:31.109
11.0, -58946.89219556954, -59876.434192232395, -61013.15450825149, -65366.53672057828, -67658.73046621447, -57844.90649043399, -27289.02128803984, 3553.6814992048144, 0.046, 0.96, 0.2, 192.0, 0.0, 0.0, 0.0, 0.0, 0.0, 0.0, 0.0, 0.0, 0.0, 1.7297104511121976E9, 0.0, 2024-10-24 00:37:31.112
12.0, -58945.70755311341, -59887.341843526585, -61023.07868278965, -65385.93803476549, -67694.13562943168, -57875.4613251044, -27121.51731509177, 3745.0571352311536, 0.046, 0.96, 0.2, 192.0, 0.0, 0.0, 0.0, 0.0, 0.0, 0.0, 0.0, 0.0, 0.0, 1.7297104511163666E9, 0.0, 2024-10-24 00:37:31.116
13.0, -58951.273137482785, -59897.37777678702, -61033.6063544281, -65400.265502961345, -67705.42326038162, -57898.05893874871, -26839.17007913233, 4043.765848131877, 0.046, 0.96, 0.2, 192.0, 0.0, 0.0, 0.0, 0.0, 0.0, 0.0, 0.0, 0.0, 0.0, 1.7297104511202312E9, 0.0, 2024-10-24 00:37:31.120
14.0, -58978.49756222935, -59905.737329213305, -61049.43138950245, -65404.40057568558, -67698.47186785602, -57892.04631949023, -26783.737752883168, 4083.4401945400473, 0.042, 0.962, 0.198, 192.0, 1.0, 80.0, 30.0, 16.0, 6.0, 48.0, 0.0, 0.0, 0.0, 1.7297104511242166E9, 0.0, 2024-10-24 00:37:31.124
15.0, -58976.39649825055, -59885.66546269244, -61038.56844169718, -65388.48613363339, -67676.14247514516, -57867.07942093366, -27018.25225570825, 3816.8509384216, 0.042, 0.962, 0.198, 192.0, 0.0, 0.0, 0.0, 0.0, 0.0, 0.0, 0.0, 0.0, 0.0, 1.7297104511281967E9, 0.0, 2024-10-24 00:37:31.128
16.0, -58949.19442524844, -59865.258320004745, -61020.016493799274, -65376.773819538816, -67669.39224831967, -57858.31753710718, -27208.66676672301, 3611.5501655996045, 0.042, 0.962, 0.198, 192.0, 0.0, 0.0, 0.0, 0.0, 0.0, 0.0, 0.0, 0.0, 0.0, 1.7297104511323133E9, 0.0, 2024-10-24 00:37:31.132
17.0, -58939.516119899294, -59873.90844510895, -61022.966924067376, -65393.35881392465, -67702.40577488014, -57888.02300548828, -27029.53988665818, 3815.3533715430945, 0.042, 0.962, 0.198, 192.0, 0.0, 0.0, 0.0, 0.0, 0.0, 0.0, 0.0, 0.0, 0.0, 1.7297104511372216E9, 0.0, 2024-10-24 00:37:31.137
18.0, -58951.5637101607, -59890.71695693934, -61041.31770626518, -65410.8378780887, -67733.51940316193, -57906.530249897274, -26756.133348480864, 4108.921183219098, 0.042, 0.962, 0.198, 192.0, 0.0, 0.0, 0.0, 0.0, 0.0, 0.0, 0.0, 0.0, 0.0, 1.7297104511401968E9, 0.0, 2024-10-24 00:37:31.140
19.0, -58979.637501196565, -59898.56241924315, -61054.43818026045, -65411.06139553326, -67713.80516455235, -57897.254275948326, -26685.12185634635, 4164.532323423901, 0.042, 0.962, 0.198, 192.0, 0.0, 0.0, 0.0, 0.0, 0.0, 0.0, 0.0, 0.0, 0.0, 1.7297104511441884E9, 0.0, 2024-10-24 00:37:31.144
20.0, -58972.77551564879, -59883.653805691465, -61035.327438751156, -65393.045889502275, -67675.58368153378, -57872.22032215838, -26895.98821353772, 3922.01589608382, 0.042, 0.962, 0.198, 192.0, 0.0, 0.0, 0.0, 0.0, 0.0, 0.0, 0.0, 0.0, 0.0, 1.7297104511482177E9, 0.0, 2024-10-24 00:37:31.148
21.0, -58952.63659389456, -59870.131000296, -61013.35567395159, -65376.349136394165, -67659.53512901487, -57852.34962133761, -27113.761259765775, 3689.6695124709026, 0.042, 0.962, 0.198, 192.0, 0.0, 0.0, 0.0, 0.0, 0.0, 0.0, 0.0, 0.0, 0.0, 1.7297104511522539E9, 0.0, 2024-10-24 00:37:31.152
22.0, -58941.37131468908, -59874.44488697588, -61009.22060122736, -65381.75825855235, -67672.63325126568, -57866.140647666536, -26971.53710979666, 3855.8100290072002, 0.042, 0.962, 0.198, 192.0, 0.0, 0.0, 0.0, 0.0, 0.0, 0.0, 0.0, 0.0, 0.0, 1.7297104511562066E9, 0.0, 2024-10-24 00:37:31.156
23.0, -58954.60354740662, -59893.44386976289, -61024.017456056776, -65397.35977618215, -67691.05108869686, -57884.13380195306, -26693.459057028183, 4149.646061616667, 0.042, 0.962, 0.198, 192.0, 0.0, 0.0, 0.0, 0.0, 0.0, 0.0, 0.0, 0.0, 0.0, 1.729710451161406E9, 0.0, 2024-10-24 00:37:31.161
24.0, -58986.991225122365, -59905.82673619113, -61042.97173535487, -65397.69505234898, -67688.10065842875, -57873.31555763669, -26606.22019841912, 4221.819844462853, 0.04, 0.96, 0.2, 192.0, 1.0, 64.0, 30.0, 0.0, 6.0, 64.0, 0.0, 0.0, 0.0, 1.7297104511652348E9, 0.0, 2024-10-24 00:37:31.165
25.0, -58981.09036458616, -59892.48274475131, -61030.924145093464, -65378.76312479534, -67669.48165529748, -57851.00851667029, -26818.092384110976, 3978.4093473445596, 0.04, 0.96, 0.2, 192.0, 0.0, 0.0, 0.0, 0.0, 0.0, 0.0, 0.0, 0.0, 0.0, 1.7297104511683238E9, 0.0, 2024-10-24 00:37:31.168
26.0, -58948.680335125966, -59867.71701189483, -61003.36444418007, -65350.912851204026, -67644.62651546318, -57826.913336147474, -27008.752764314744, 3771.8345250886114, 0.04, 0.96, 0.2, 192.0, 0.0, 0.0, 0.0, 0.0, 0.0, 0.0, 0.0, 0.0, 0.0, 1.7297104511722887E9, 0.0, 2024-10-24 00:37:31.172
27.0, -58947.562747903205, -59872.29911950816, -61005.8007843257, -65355.31614486172, -67668.721695986, -57841.7548944658, -26863.712294544257, 3941.0148788708307, 0.04, 0.96, 0.2, 192.0, 0.0, 0.0, 0.0, 0.0, 0.0, 0.0, 0.0, 0.0, 0.0, 1.729710451176283E9, 0.0, 2024-10-24 00:37:31.176
28.0, -58955.65407939602, -59883.1844190579, -61019.99414205482, -65367.386086867584, -67696.52726608841, -57864.5089703213, -26605.996680974567, 4214.689637981611, 0.04, 0.96, 0.2, 192.0, 0.0, 0.0, 0.0, 0.0, 0.0, 0.0, 0.0, 0.0, 0.0, 1.7297104511804247E9, 0.0, 2024-10-24 00:37:31.180
29.0, -58987.617073967114, -59898.405957031966, -61041.13889230954, -65375.298604404765, -67704.01510048093, -57870.2086651574, -26510.800601339415, 4293.524240675479, 0.04, 0.96, 0.2, 192.0, 0.0, 0.0, 0.0, 0.0, 0.0, 0.0, 0.0, 0.0, 0.0, 1.7297104511843004E9, 0.0, 2024-10-24 00:37:31.184
30.0, -58976.99999535084, -59887.85593364906, -61036.735598651845, -65362.021668198315, -67703.59041733628, -57855.03183067225, -26722.985711453643, 4049.7561156458996, 0.04, 0.96, 0.2, 192.0, 0.0, 0.0, 0.0, 0.0, 0.0, 0.0, 0.0, 0.0, 0.0, 1.7297104511892576E9, 0.0, 2024-10-24 00:37:31.189
31.0, -58955.162341018004, -59871.94149159688, -61018.764796109775, -65349.34822909215, -67678.35529784624, -57846.94049917943, -26943.262153060696, 3812.8499761641, 0.04, 0.96, 0.2, 192.0, 0.0, 0.0, 0.0, 0.0, 0.0, 0.0, 0.0, 0.0, 0.0, 1.7297104511932611E9, 0.0, 2024-10-24 00:37:31.193
32.0, -58945.64049788004, -59878.02116608872, -61016.529621664245, -65361.44052284247, -67695.65554805465, -57868.26406338979, -26772.204252744228, 4008.2489261923943, 0.04, 0.96, 0.2, 192.0, 0.0, 0.0, 0.0, 0.0, 0.0, 0.0, 0.0, 0.0, 0.0, 1.7297104511962354E9, 0.0, 2024-10-24 00:37:31.196
33.0, -58962.09138179915, -59894.78497443021, -61038.79195914173, -65383.2334736864, -67721.24829545597, -57893.29801717973, -26491.08636272983, 4306.75647339302, 0.04, 0.96, 0.2, 192.0, 0.0, 0.0, 0.0, 0.0, 0.0, 0.0, 0.0, 0.0, 0.0, 1.729710451200221E9, 0.0, 2024-10-24 00:37:31.200
34.0, -58989.69578620145, -59910.766471715746, -61057.03098261726, -65394.34229068069, -67706.76436504893, -57895.73435732536, -26423.65114970817, 4360.2218461301145, 0.042, 0.9560000000000001, 0.196, 192.0, 1.0, 80.0, 29.0, 224.0, 6.0, 32.0, 0.0, 0.0, 0.0, 1.7297104512043023E9, 0.0, 2024-10-24 00:37:31.204
35.0, -58978.78813490726, -59892.48274475131, -61042.43529348794, -65378.22668292841, -67686.51368457242, -57869.560464568196, -26646.453338438674, 4107.580078551779, 0.042, 0.9560000000000001, 0.196, 192.0, 0.0, 0.0, 0.0, 0.0, 0.0, 0.0, 0.0, 0.0, 0.0, 1.729710451208274E9, 0.0, 2024-10-24 00:37:31.208
36.0, -58962.82898936618, -59881.57509345712, -61031.99702882732, -65372.97402298141, -67675.65073676714, -57858.02696442926, -26833.73860522969, 3905.1179772756077, 0.042, 0.9560000000000001, 0.196, 192.0, 0.0, 0.0, 0.0, 0.0, 0.0, 0.0, 0.0, 0.0, 0.0, 1.729710451212292E9, 0.0, 2024-10-24 00:37:31.212
37.0, -58957.19634976344, -59888.124154582525, -61035.14862479552, -65389.84959004517, -67692.45924859753, -57884.62554033107, -26658.947963589188, 4104.2943721168485, 0.042, 0.9560000000000001, 0.196, 192.0, 0.0, 0.0, 0.0, 0.0, 0.0, 0.0, 0.0, 0.0, 0.0, 1.7297104512233748E9, 0.0, 2024-10-24 00:37:31.223
38.0, -58954.24591949534, -59894.94143664139, -61041.071837076175, -65401.3383866952, -67703.81393478083, -57899.98118877187, -26398.281919751396, 4382.841811518885, 0.042, 0.9560000000000001, 0.196, 192.0, 0.0, 0.0, 0.0, 0.0, 0.0, 0.0, 0.0, 0.0, 0.0, 1.729710451223431E9, 0.0, 2024-10-24 00:37:31.223
39.0, -58982.34206227566, -59911.325265327134, -61060.987241385854, -65411.62018914464, -67706.65260632665, -57896.65077884803, -26343.564849324805, 4423.901966083285, 0.042, 0.9560000000000001, 0.196, 192.0, 0.0, 0.0, 0.0, 0.0, 0.0, 0.0, 0.0, 0.0, 0.0, 1.72971045122429E9, 0.0, 2024-10-24 00:37:31.224
40.0, -58974.45189648293, -59896.95309364237, -61048.60437495761, -65398.49971514937, -67690.40288810765, -57876.24363616033, -26562.45548277563, 4174.389442728691, 0.042, 0.9560000000000001, 0.196, 192.0, 0.0, 0.0, 0.0, 0.0, 0.0, 0.0, 0.0, 0.0, 0.0, 1.7297104512283244E9, 0.0, 2024-10-24 00:37:31.228
41.0, -58955.22939625137, -59882.22329404632, -61030.83473811564, -65386.049793487764, -67676.09777165625, -57861.82676098666, -26755.529851380572, 3965.8253152162215, 0.042, 0.9560000000000001, 0.196, 192.0, 0.0, 0.0, 0.0, 0.0, 0.0, 0.0, 0.0, 0.0, 0.0, 1.7297104512322817E9, 0.0, 2024-10-24 00:37:31.232
42.0, -58953.30714622822, -59892.32628254012, -61037.18263354095, -65402.36656694014, -67702.22696092451, -57888.13476421056, -26590.126942411298, 4156.709212864544, 0.042, 0.9560000000000001, 0.196, 192.0, 0.0, 0.0, 0.0, 0.0, 0.0, 0.0, 0.0, 0.0, 0.0, 1.729710451236293E9, 0.0, 2024-10-24 00:37:31.236
43.0, -58958.470399197395, -59904.128003612524, -61044.71517142239, -65413.1401077676, -67704.35037664777, -57899.80237481623, -26312.339462320742, 4451.327556529946, 0.042, 0.9560000000000001, 0.196, 192.0, 0.0, 0.0, 0.0, 0.0, 0.0, 0.0, 0.0, 0.0, 0.0, 1.7297104512404685E9, 0.0, 2024-10-24 00:37:31.240
44.0, -58976.95529186193, -59912.91223918346, -61049.05140984672, -65407.77568909833, -67687.31834737281, -57880.535171095755, -26239.204554462976, 4509.3750368803785, 0.048, 0.9580000000000001, 0.198, 192.0, 1.0, 128.0, 29.0, 240.0, 6.0, 48.0, 0.0, 0.0, 0.0, 1.72971045124441E9, 0.0, 2024-10-24 00:37:31.244
45.0, -58966.04764056774, -59895.29906455267, -61030.141834037524, -65383.92637776451, -67665.32423082879, -57849.68976374743, -26458.38576059172, 4258.879036769752, 0.048, 0.9580000000000001, 0.198, 192.0, 0.0, 0.0, 0.0, 0.0, 0.0, 0.0, 0.0, 0.0, 0.0, 1.7297104512493365E9, 0.0, 2024-10-24 00:37:31.249
46.0, -58952.23426249436, -59883.98908185829, -61015.65790363049, -65370.51533109133, -67653.79073068986, -57835.11642636257, -26654.812890864956, 4045.3751737326593, 0.048, 0.9580000000000001, 0.198, 192.0, 0.0, 0.0, 0.0, 0.0, 0.0, 0.0, 0.0, 0.0, 0.0, 1.7297104512524107E9, 0.0, 2024-10-24 00:37:31.252
47.0, -58945.93107055796, -59890.359329028055, -61016.50726991979, -65379.2325114289, -67674.57785303329, -57854.56244403869, -26492.38276390824, 4232.794550990409, 0.048, 0.9580000000000001, 0.198, 192.0, 0.0, 0.0, 0.0, 0.0, 0.0, 0.0, 0.0, 0.0, 0.0, 1.729710451256298E9, 0.0, 2024-10-24 00:37:31.256
48.0, -58952.591890405645, -59904.77620420173, -61027.23610725834, -65391.883598790606, -67691.11814393022, -57872.66735704749, -26208.247388392378, 4533.939604036761, 0.048, 0.9580000000000001, 0.198, 192.0, 0.0, 0.0, 0.0, 0.0, 0.0, 0.0, 0.0, 0.0, 0.0, 1.7297104512603652E9, 0.0, 2024-10-24 00:37:31.260
49.0, -58979.235169796375, -59917.7402159858, -61035.59565968462, -65387.70382257746, -67680.5234170584, -57859.72569700786, -26135.827736357183, 4590.28835180859, 0.048, 0.9580000000000001, 0.198, 192.0, 0.0, 0.0, 0.0, 0.0, 0.0, 0.0, 0.0, 0.0, 0.0, 1.7297104512644491E9, 0.0, 2024-10-24 00:37:31.264
50.0, -58968.97571909139, -59897.40012853147, -61017.714264120375, -65361.50757807584, -67658.55165225883, -57830.71313270488, -26390.12353302521, 4304.633057669766, 0.048, 0.9580000000000001, 0.198, 192.0, 0.0, 0.0, 0.0, 0.0, 0.0, 0.0, 0.0, 0.0, 0.0, 1.7297104512684293E9, 0.0, 2024-10-24 00:37:31.268
51.0, -58957.73279163037, -59886.313663281646, -61006.73955759282, -65350.46581631492, -67652.00259113344, -57824.56640297966, -26564.377732798785, 4114.307953632826, 0.048, 0.9580000000000001, 0.198, 192.0, 0.0, 0.0, 0.0, 0.0, 0.0, 0.0, 0.0, 0.0, 0.0, 1.7297104512723897E9, 0.0, 2024-10-24 00:37:31.272
52.0, -58944.969945546385, -59886.55953247065, -61009.108842505084, -65355.04792392826, -67672.81206522133, -57844.34769682261, -26390.727030125505, 4313.9090316187185, 0.048, 0.9580000000000001, 0.198, 192.0, 0.0, 0.0, 0.0, 0.0, 0.0, 0.0, 0.0, 0.0, 0.0, 1.7297104512773976E9, 0.0, 2024-10-24 00:37:31.277
53.0, -58951.474303182884, -59897.91421865395, -61024.64330490152, -65367.207272911946, -67695.63319631018, -57866.185351155444, -26120.807364083215, 4601.017189147137, 0.048, 0.9580000000000001, 0.198, 192.0, 0.0, 0.0, 0.0, 0.0, 0.0, 0.0, 0.0, 0.0, 0.0, 1.7297104512803938E9, 0.0, 2024-10-24 00:37:31.280
54.0, -58985.650120455044, -59909.13479437051, -61040.13306380905, -65367.94488047897, -67688.01125145092, -57863.23492088734, -26061.999924421303, 4643.105523956481, 0.048, 0.964, 0.198, 192.0, 1.0, 128.0, 30.0, 32.0, 6.0, 48.0, 0.0, 0.0, 0.0, 1.7297104512843735E9, 0.0, 2024-10-24 00:37:31.284
55.0, -58979.05635584073, -59892.97448312933, -61032.86874686107, -65351.806920982235, -67677.34946934575, -57842.44779854391, -26282.72340091746, 4391.469584878634, 0.048, 0.964, 0.198, 192.0, 0.0, 0.0, 0.0, 0.0, 0.0, 0.0, 0.0, 0.0, 0.0, 1.729710451288381E9, 0.0, 2024-10-24 00:37:31.288
56.0, -58956.90577708552, -59873.84138987558, -61016.44021468642, -65341.10043538814, -67668.29701284134, -57833.10476936159, -26466.074760684343, 4192.82963190432, 0.048, 0.964, 0.198, 192.0, 0.0, 0.0, 0.0, 0.0, 0.0, 0.0, 0.0, 0.0, 0.0, 1.729710451292372E9, 0.0, 2024-10-24 00:37:31.292
57.0, -58932.92235528497, -59872.634395675, -61013.48978441832, -65354.37737159459, -67680.74693450295, -57859.81510398568, -26317.189790867546, 4367.732032267098, 0.048, 0.964, 0.198, 192.0, 0.0, 0.0, 0.0, 0.0, 0.0, 0.0, 0.0, 0.0, 0.0, 1.7297104512964163E9, 0.0, 2024-10-24 00:37:31.296
58.0, -58947.45098918093, -59900.2388000773, -61035.28273526225, -65387.815581299736, -67713.96162676354, -57894.236790446856, -26042.464499767364, 4660.316367187067, 0.048, 0.964, 0.198, 192.0, 0.0, 0.0, 0.0, 0.0, 0.0, 0.0, 0.0, 0.0, 0.0, 1.7297104513004167E9, 0.0, 2024-10-24 00:37:31.300
59.0, -58980.710384930426, -59922.76935848825, -61051.3089360367, -65403.193581484986, -67714.58747560829, -57893.34272066865, -25976.37039141302, 4710.808957911606, 0.048, 0.964, 0.198, 192.0, 0.0, 0.0, 0.0, 0.0, 0.0, 0.0, 0.0, 0.0, 0.0, 1.7297104513043952E9, 0.0, 2024-10-24 00:37:31.304
60.0, -58978.54226571826, -59910.74411997129, -61038.32257250817, -65396.555113381764, -67688.54769331786, -57877.02594721627, -26215.489353595898, 4440.911643613773, 0.048, 0.964, 0.198, 192.0, 0.0, 0.0, 0.0, 0.0, 0.0, 0.0, 0.0, 0.0, 0.0, 1.7297104513093996E9, 0.0, 2024-10-24 00:37:31.309
61.0, -58963.47718995538, -59896.573113986626, -61025.58207816864, -65393.85055230267, -67676.94713794555, -57872.89087449204, -26409.100164067768, 4232.615737034766, 0.048, 0.964, 0.198, 192.0, 0.0, 0.0, 0.0, 0.0, 0.0, 0.0, 0.0, 0.0, 0.0, 1.7297104513124344E9, 0.0, 2024-10-24 00:37:31.312
62.0, -58947.40628569201, -59902.138698356, -61025.22445025736, -65410.8378780887, -67694.33679513178, -57901.12112773909, -26235.404757905577, 4431.21098652017, 0.048, 0.964, 0.198, 192.0, 0.0, 0.0, 0.0, 0.0, 0.0, 0.0, 0.0, 0.0, 0.0, 1.7297104513164573E9, 0.0, 2024-10-24 00:37:31.316
63.0, -58953.59771890614, -59918.23195436382, -61037.71907540788, -65427.109948052166, -67717.42614715411, -57915.64976163504, -25947.17901315439, 4736.044077401648, 0.048, 0.964, 0.198, 192.0, 0.0, 0.0, 0.0, 0.0, 0.0, 0.0, 0.0, 0.0, 0.0, 1.7297104513204544E9, 0.0, 2024-10-24 00:37:31.320
64.0, -58982.923207631495, -59936.96271621737, -61050.638383703044, -65432.02733183233, -67714.20749595255, -57904.853869063125, -25903.45900099981, 4764.699013793351, 0.052000000000000005, 0.964, 0.196, 192.0, 1.0, 160.0, 30.0, 32.0, 6.0, 32.0, 0.0, 0.0, 0.0, 1.7297104513244534E9, 0.0, 2024-10-24 00:37:31.324
65.0, -58981.22447505289, -59928.64786727999, -61041.74238940983, -65421.723177638436, -67690.7828677634, -57889.38646190005, -26127.602294397628, 4510.783196781063, 0.052000000000000005, 0.964, 0.196, 192.0, 0.0, 0.0, 0.0, 0.0, 0.0, 0.0, 0.0, 0.0, 0.0, 1.729710451328477E9, 0.0, 2024-10-24 00:37:31.328
66.0, -58964.66183241151, -59912.308742083165, -61020.84350834412, -65406.30047396428, -67663.29022208336, -57872.555598325205, -26304.24813082792, 4321.173348566693, 0.052000000000000005, 0.964, 0.196, 192.0, 0.0, 0.0, 0.0, 0.0, 0.0, 0.0, 0.0, 0.0, 0.0, 1.7297104513334591E9, 0.0, 2024-10-24 00:37:31.333
67.0, -58948.613279892605, -59911.392320560495, -61014.80853734119, -65408.49094492089, -67675.6730885116, -57883.21738043039, -26150.401073742043, 4502.1554234213145, 0.052000000000000005, 0.964, 0.196, 192.0, 0.0, 0.0, 0.0, 0.0, 0.0, 0.0, 0.0, 0.0, 0.0, 1.729710451336488E9, 0.0, 2024-10-24 00:37:31.336
68.0, -58956.48109394087, -59927.23970737931, -61028.73367413684, -65419.398596215084, -67700.17060043462, -57897.20957245941, -25882.44836121182, 4788.302455938156, 0.052000000000000005, 0.964, 0.196, 192.0, 0.0, 0.0, 0.0, 0.0, 0.0, 0.0, 0.0, 0.0, 0.0, 1.7297104513394463E9, 0.0, 2024-10-24 00:37:31.339
69.0, -58987.30414954474, -59943.422370364955, -61039.77543589776, -65418.12454678113, -67693.08509744228, -57886.480735120866, -25835.464994366765, 4819.818415620139, 0.052000000000000005, 0.964, 0.196, 192.0, 0.0, 0.0, 0.0, 0.0, 0.0, 0.0, 0.0, 0.0, 0.0, 1.729710451344498E9, 0.0, 2024-10-24 00:37:31.344
70.0, -58992.33329204718, -59936.87330923955, -61033.33813349464, -65404.62409313013, -67677.55063504585, -57869.426354101466, -26049.929982415437, 4574.150392311859, 0.052000000000000005, 0.964, 0.196, 192.0, 0.0, 0.0, 0.0, 0.0, 0.0, 0.0, 0.0, 0.0, 0.0, 1.7297104513485165E9, 0.0, 2024-10-24 00:37:31.348
71.0, -58968.55103594674, -59916.019131662746, -61014.719130363366, -65384.50752312035, -67661.43502729357, -57855.14358939452, -26233.95189451598, 4376.046881204472, 0.052000000000000005, 0.964, 0.196, 192.0, 0.0, 0.0, 0.0, 0.0, 0.0, 0.0, 0.0, 0.0, 0.0, 1.7297104513525138E9, 0.0, 2024-10-24 00:37:31.352
72.0, -58948.412114192506, -59910.65471299347, -61008.281827960236, -65380.79713354077, -67674.89077745567, -57856.73056325085, -26093.851160270115, 4541.405086684834, 0.052000000000000005, 0.964, 0.196, 192.0, 0.0, 0.0, 0.0, 0.0, 0.0, 0.0, 0.0, 0.0, 0.0, 1.7297104513564868E9, 0.0, 2024-10-24 00:37:31.356
73.0, -58967.74637314634, -59931.039503936714, -61029.69479914842, -65398.20914247145, -67704.23861792548, -57874.656662304005, -25803.881979451417, 4849.546235745697, 0.052000000000000005, 0.964, 0.196, 192.0, 0.0, 0.0, 0.0, 0.0, 0.0, 0.0, 0.0, 0.0, 0.0, 1.7297104513615026E9, 0.0, 2024-10-24 00:37:31.361
74.0, -58995.39548103756, -59942.86357675357, -61040.46833997588, -65394.92343603652, -67697.71190854453, -57866.185351155444, -25734.680978617787, 4902.92220150497, 0.052000000000000005, 0.964, 0.196, 192.0, 0.0, 0.0, 0.0, 0.0, 0.0, 0.0, 0.0, 0.0, 0.0, 1.7297104513644648E9, 0.0, 2024-10-24 00:37:31.364
75.0, -58988.26527455632, -59921.58471603212, -61021.558764166686, -65370.1800549245, -67674.13081814419, -57840.72671422085, -25965.395684885465, 4641.026811722138, 0.052000000000000005, 0.962, 0.194, 192.0, 1.0, 160.0, 30.0, 16.0, 6.0, 16.0, 0.0, 0.0, 0.0, 1.7297104513674693E9, 0.0, 2024-10-24 00:37:31.367
76.0, -58964.63948066706, -59899.1882680879, -61005.30904594768, -65354.31031636123, -67670.6215942647, -57830.10963560458, -26151.406902242532, 4440.039925580016, 0.052000000000000005, 0.962, 0.194, 192.0, 0.0, 0.0, 0.0, 0.0, 0.0, 0.0, 0.0, 0.0, 0.0, 1.729710451372494E9, 0.0, 2024-10-24 00:37:31.372
77.0, -58949.730867115366, -59897.33307329811, -61004.571438380655, -65363.69804903246, -67690.84992299676, -57852.52843529325, -25995.235263733302, 4622.653677779875, 0.052000000000000005, 0.962, 0.194, 192.0, 0.0, 0.0, 0.0, 0.0, 0.0, 0.0, 0.0, 0.0, 0.0, 1.7297104513765285E9, 0.0, 2024-10-24 00:37:31.376
78.0, -58949.97673630437, -59903.74802395678, -61010.94168555042, -65375.63388057159, -67701.15407719066, -57871.996804713825, -25725.71792909121, 4911.505271375808, 0.052000000000000005, 0.962, 0.194, 192.0, 0.0, 0.0, 0.0, 0.0, 0.0, 0.0, 0.0, 0.0, 0.0, 1.7297104513805225E9, 0.0, 2024-10-24 00:37:31.380
79.0, -58985.06897509921, -59918.85780320857, -61024.64330490152, -65383.52404636432, -67685.21728339401, -57871.50506633581, -25661.03198063755, 4962.958987111925, 0.052000000000000005, 0.962, 0.194, 192.0, 0.0, 0.0, 0.0, 0.0, 0.0, 0.0, 0.0, 0.0, 0.0, 1.7297104513845155E9, 0.0, 2024-10-24 00:37:31.384
80.0, -58970.138009803064, -59897.02014887574, -61006.98542678183, -65365.732057777896, -67659.17750110358, -57848.728638735854, -25913.94196914935, 4679.807088352095, 0.052000000000000005, 0.962, 0.194, 192.0, 0.0, 0.0, 0.0, 0.0, 0.0, 0.0, 0.0, 0.0, 0.0, 1.7297104513896132E9, 0.0, 2024-10-24 00:37:31.389
81.0, -58953.37420146158, -59889.50996273875, -60996.27894118774, -65363.340421121175, -67651.89083241115, -57844.1018276336, -26105.49641913133, 4473.232266096147, 0.052000000000000005, 0.962, 0.194, 192.0, 0.0, 0.0, 0.0, 0.0, 0.0, 0.0, 0.0, 0.0, 0.0, 1.7297104513925383E9, 0.0, 2024-10-24 00:37:31.392
82.0, -58951.31784097169, -59904.28446582371, -61008.617104127065, -65387.21208419944, -67689.46411484052, -57874.16492392599, -25939.869992717504, 4664.652605611397, 0.052000000000000005, 0.962, 0.194, 192.0, 0.0, 0.0, 0.0, 0.0, 0.0, 0.0, 0.0, 0.0, 0.0, 1.7297104513955567E9, 0.0, 2024-10-24 00:37:31.395
83.0, -58955.81054160721, -59917.22612586333, -61019.77062461026, -65403.528857651814, -67710.29594067288, -57889.609979344605, -25670.062085397494, 4953.995937585347, 0.052000000000000005, 0.962, 0.194, 192.0, 0.0, 0.0, 0.0, 0.0, 0.0, 0.0, 0.0, 0.0, 0.0, 1.7297104514005585E9, 0.0, 2024-10-24 00:37:31.400
84.0, -58987.21474256692, -59936.29216388371, -61028.97954332585, -65410.92728506652, -67688.95002471805, -57884.804354286716, -25607.25368347808, 5003.460348064941, 0.052000000000000005, 0.962, 0.194, 192.0, 0.0, 0.0, 0.0, 0.0, 0.0, 0.0, 0.0, 0.0, 0.0, 1.7297104514046211E9, 0.0, 2024-10-24 00:37:31.404
85.0, -58980.062184341215, -59921.33884684311, -61010.67346461696, -65394.94578778098, -67660.63036449318, -57863.190217398434, -25841.79053804762, 4738.435714058365, 0.048, 0.9560000000000001, 0.198, 192.0, 1.0, 128.0, 29.0, 224.0, 6.0, 48.0, 0.0, 0.0, 0.0, 1.7297104514087102E9, 0.0, 2024-10-24 00:37:31.408
86.0, -58961.28671899876, -59907.480765280816, -60994.20022895339, -65384.865151031634, -67646.50406199743, -57848.46041780239, -26025.566580959152, 4539.594595383954, 0.048, 0.9560000000000001, 0.198, 192.0, 0.0, 0.0, 0.0, 0.0, 0.0, 0.0, 0.0, 0.0, 0.0, 1.729710451412577E9, 0.0, 2024-10-24 00:37:31.412
87.0, -58940.67841061097, -59908.75481471477, -60994.87078128705, -65394.92343603652, -67670.53218728688, -57869.202836656914, -25873.08298028505, 4719.324972549078, 0.048, 0.9560000000000001, 0.198, 192.0, 0.0, 0.0, 0.0, 0.0, 0.0, 0.0, 0.0, 0.0, 0.0, 1.7297104514165473E9, 0.0, 2024-10-24 00:37:31.416
88.0, -58957.75514337482, -59929.96662020286, -61018.273057731756, -65416.51522118035, -67703.85863826974, -57894.97439801388, -25617.088451038417, 4994.899629938559, 0.048, 0.9560000000000001, 0.198, 192.0, 0.0, 0.0, 0.0, 0.0, 0.0, 0.0, 0.0, 0.0, 0.0, 1.7297104514205325E9, 0.0, 2024-10-24 00:37:31.420
89.0, -58997.407138038536, -59952.988916991824, -61035.59565968462, -65421.67847414953, -67693.88976024267, -57891.30871192321, -25541.00311291255, 5055.80813357927, 0.048, 0.9560000000000001, 0.198, 192.0, 0.0, 0.0, 0.0, 0.0, 0.0, 0.0, 0.0, 0.0, 0.0, 1.7297104514235368E9, 0.0, 2024-10-24 00:37:31.423
90.0, -58989.13699259007, -59937.00741970628, -61016.21669724187, -65397.94092153799, -67656.0259051354, -57861.7597057533, -25770.5331767241, 4795.365607186032, 0.048, 0.9560000000000001, 0.198, 192.0, 0.0, 0.0, 0.0, 0.0, 0.0, 0.0, 0.0, 0.0, 0.0, 1.7297104514276047E9, 0.0, 2024-10-24 00:37:31.427
91.0, -58969.42275398049, -59923.17168988845, -61002.760947079776, -65384.17224695352, -67650.30385855483, -57850.91910969247, -25965.99918198576, 4584.409843016844, 0.048, 0.9560000000000001, 0.198, 192.0, 0.0, 0.0, 0.0, 0.0, 0.0, 0.0, 0.0, 0.0, 0.0, 1.7297104514325397E9, 0.0, 2024-10-24 00:37:31.432
92.0, -58950.356715960115, -59921.04827416519, -61001.66571160147, -65388.732002822406, -67671.40390532064, -57868.97931921236, -25805.513656796655, 4769.616397573519, 0.048, 0.9560000000000001, 0.198, 192.0, 0.0, 0.0, 0.0, 0.0, 0.0, 0.0, 0.0, 0.0, 0.0, 1.7297104514365575E9, 0.0, 2024-10-24 00:37:31.436
93.0, -58953.10598052812, -59931.41948359245, -61015.72495886385, -65398.164438982545, -67689.08413518479, -57881.92097925198, -25540.332560578892, 5052.231854466421, 0.048, 0.9560000000000001, 0.198, 192.0, 0.0, 0.0, 0.0, 0.0, 0.0, 0.0, 0.0, 0.0, 0.0, 1.729710451440549E9, 0.0, 2024-10-24 00:37:31.440
94.0, -58991.21570482442, -59949.52439660125, -61033.65105791701, -65401.96423553995, -67680.94810020305, -57872.93557798095, -25475.110170258307, 5102.210355068488, 0.048, 0.9560000000000001, 0.198, 192.0, 0.0, 0.0, 0.0, 0.0, 0.0, 0.0, 0.0, 0.0, 0.0, 1.7297104514446087E9, 0.0, 2024-10-24 00:37:31.444
95.0, -58988.91347514552, -59933.78876850472, -61025.35856072409, -65383.12171496412, -67663.40198080563, -57847.07460964616, -25704.66258581431, 4842.997174620292, 0.04, 0.9520000000000001, 0.198, 192.0, 1.0, 64.0, 29.0, 192.0, 6.0, 48.0, 0.0, 0.0, 0.0, 1.729710451448786E9, 0.0, 2024-10-24 00:37:31.448
96.0, -58970.94267260345, -59916.2426491073, -61009.22060122736, -65365.732057777896, -67650.10269285474, -57831.62955422754, -25921.250989586235, 4612.349523585978, 0.04, 0.9520000000000001, 0.198, 192.0, 0.0, 0.0, 0.0, 0.0, 0.0, 0.0, 0.0, 0.0, 0.0, 1.7297104514516566E9, 0.0, 2024-10-24 00:37:31.451
97.0, -58947.85332058112, -59914.00747466177, -61004.52673489175, -65369.218929912924, -67666.10654188473, -57847.90162419101, -25774.288269792592, 4784.703825080851, 0.04, 0.9520000000000001, 0.198, 192.0, 0.0, 0.0, 0.0, 0.0, 0.0, 0.0, 0.0, 0.0, 0.0, 1.729710451455692E9, 0.0, 2024-10-24 00:37:31.455
98.0, -58959.74444863135, -59934.124044671546, -61023.54806942321, -65390.29662493428, -67694.13562943168, -57871.75093552482, -25490.309356487913, 5086.139450805122, 0.04, 0.9520000000000001, 0.198, 192.0, 0.0, 0.0, 0.0, 0.0, 0.0, 0.0, 0.0, 0.0, 0.0, 1.7297104514606745E9, 0.0, 2024-10-24 00:37:31.460
99.0, -58995.95427464894, -59947.69155355592, -61040.26717427578, -65393.64938660257, -67686.13370491669, -57865.38068835506, -25413.665224750668, 5148.992556213446, 0.04, 0.9520000000000001, 0.198, 192.0, 0.0, 0.0, 0.0, 0.0, 0.0, 0.0, 0.0, 0.0, 0.0, 1.7297104514646618E9, 0.0, 2024-10-24 00:37:31.464
100.0, -58984.28666404327, -59925.40686433398, -61028.197232269915, -65374.248072415365, -67672.0744576543, -57845.3535253231, -25633.852259379895, 4898.183631680445, 0.04, 0.9520000000000001, 0.198, 192.0, 0.0, 0.0, 0.0, 0.0, 0.0, 0.0, 0.0, 0.0, 0.0, 1.7297104514687223E9, 0.0, 2024-10-24 00:37:31.468
101.0, -58961.64434691005, -59904.95501815737, -61016.21669724187, -65363.630993799095, -67661.65854473812, -57840.36908630957, -25851.06651199657, 4665.7478410897065, 0.04, 0.9520000000000001, 0.198, 192.0, 0.0, 0.0, 0.0, 0.0, 0.0, 0.0, 0.0, 0.0, 0.0, 1.729710451472855E9, 0.0, 2024-10-24 00:37:31.472
102.0, -58948.23330023686, -59907.03373039171, -61017.66956063147, -65378.53960735079, -67675.7177920005, -57867.01236570029, -25694.42548685378, 4847.62398572254, 0.04, 0.9520000000000001, 0.198, 192.0, 0.0, 0.0, 0.0, 0.0, 0.0, 0.0, 0.0, 0.0, 0.0, 1.7297104514766543E9, 0.0, 2024-10-24 00:37:31.476
103.0, -58951.742524116344, -59914.43215780642, -61031.482938704845, -65391.302453434764, -67698.87419925621, -57882.45742111891, -25412.346471827805, 5145.349221867231, 0.04, 0.9520000000000001, 0.198, 192.0, 0.0, 0.0, 0.0, 0.0, 0.0, 0.0, 0.0, 0.0, 0.0, 1.7297104514798088E9, 0.0, 2024-10-24 00:37:31.479
104.0, -58978.09523082915, -59924.71396025586, -61042.07766557666, -65393.71644183594, -67693.1298009312, -57872.06385994719, -25344.419520428124, 5198.099338781755, 0.04, 0.9520000000000001, 0.198, 192.0, 0.0, 0.0, 0.0, 0.0, 0.0, 0.0, 0.0, 0.0, 0.0, 1.7297104514837663E9, 0.0, 2024-10-24 00:37:31.483
105.0, -58971.34500400365, -59908.397186803486, -61025.17974676845, -65379.72424980692, -67664.22899535048, -57854.83066497215, -25590.15459896977, 4922.4352744144535, 0.038, 0.9520000000000001, 0.2, 192.0, 1.0, 48.0, 29.0, 192.0, 6.0, 64.0, 0.0, 0.0, 0.0, 1.7297104514886632E9, 0.0, 2024-10-24 00:37:31.488
106.0, -58960.57146317619, -59903.25628557877, -61014.87559257455, -65378.092572461675, -67649.63330622116, -57853.8024847272, -25796.863531692452, 4703.298771774623, 0.038, 0.9520000000000001, 0.2, 192.0, 0.0, 0.0, 0.0, 0.0, 0.0, 0.0, 0.0, 0.0, 0.0, 1.729710451492686E9, 0.0, 2024-10-24 00:37:31.492
107.0, -58949.462646181906, -59911.1911548604, -61017.46839493137, -65393.15764822456, -67678.2211873795, -57868.53228432325, -25636.6015239479, 4889.399396109509, 0.038, 0.9520000000000001, 0.2, 192.0, 0.0, 0.0, 0.0, 0.0, 0.0, 0.0, 0.0, 0.0, 0.0, 1.7297104514967785E9, 0.0, 2024-10-24 00:37:31.496
108.0, -58957.53162593027, -59925.49627131179, -61026.76672062478, -65409.630883888116, -67692.41454510862, -57886.27956942077, -25350.007456541953, 5194.9700945580125, 0.038, 0.9520000000000001, 0.2, 192.0, 0.0, 0.0, 0.0, 0.0, 0.0, 0.0, 0.0, 0.0, 0.0, 1.7297104515007837E9, 0.0, 2024-10-24 00:37:31.500
109.0, -58995.32842580419, -59947.87036751156, -61039.88719462004, -65418.3927677146, -67682.95975720404, -57884.670243819986, -25280.62764175268, 5250.7376969740035, 0.038, 0.9520000000000001, 0.2, 192.0, 0.0, 0.0, 0.0, 0.0, 0.0, 0.0, 0.0, 0.0, 0.0, 1.7297104515047004E9, 0.0, 2024-10-24 00:37:31.504
110.0, -58989.919303646006, -59938.57204181815, -61023.97275256786, -65401.40544192856, -67662.37380056069, -57859.12219990757, -25518.785478923975, 4981.6673972210165, 0.038, 0.9520000000000001, 0.2, 192.0, 0.0, 0.0, 0.0, 0.0, 0.0, 0.0, 0.0, 0.0, 0.0, 1.7297104515077024E9, 0.0, 2024-10-24 00:37:31.507
111.0, -58969.53451270277, -59931.598297548095, -61007.81244132668, -65391.41421215704, -67649.81212017681, -57849.53330153624, -25700.57221657899, 4784.793232058672, 0.038, 0.9520000000000001, 0.2, 192.0, 0.0, 0.0, 0.0, 0.0, 0.0, 0.0, 0.0, 0.0, 0.0, 1.7297104515149364E9, 0.0, 2024-10-24 00:37:31.514
112.0, -58951.29548922724, -59933.31938187115, -61002.93976103542, -65395.95161628147, -67654.975373146, -57861.31267086419, -25554.168290396727, 4957.415754487009, 0.038, 0.9520000000000001, 0.2, 192.0, 0.0, 0.0, 0.0, 0.0, 0.0, 0.0, 0.0, 0.0, 0.0, 1.7297104515177336E9, 0.0, 2024-10-24 00:37:31.517
113.0, -58953.82123635069, -59946.10457969959, -61010.651112872496, -65407.261598975856, -67665.57010001781, -57874.0084617148, -25301.548874562846, 5227.804807162858, 0.038, 0.9520000000000001, 0.2, 192.0, 0.0, 0.0, 0.0, 0.0, 0.0, 0.0, 0.0, 0.0, 0.0, 1.7297104515207276E9, 0.0, 2024-10-24 00:37:31.520
114.0, -58992.55680949173, -59965.41648690897, -61028.197232269915, -65413.609494401164, -67660.83153019327, -57868.12995292306, -25240.908591855597, 5274.005862951978, 0.038, 0.9520000000000001, 0.2, 192.0, 0.0, 0.0, 0.0, 0.0, 0.0, 0.0, 0.0, 0.0, 0.0, 1.7297104515247276E9, 0.0, 2024-10-24 00:37:31.524
115.0, -58992.087422858174, -59951.42429487995, -61019.01066529878, -65395.59398837019, -67637.11632932619, -57845.13000787855, -25459.575707861866, 5024.560394830751, 0.04, 0.9520000000000001, 0.202, 192.0, 1.0, 64.0, 29.0, 192.0, 6.0, 80.0, 0.0, 0.0, 0.0, 1.7297104515277152E9, 0.0, 2024-10-24 00:37:31.527
116.0, -58965.175922533985, -59926.68091376793, -61001.26338020127, -65376.03621197179, -67633.60710544672, -57827.69564720341, -25651.912468899784, 4818.946697586382, 0.04, 0.9520000000000001, 0.202, 192.0, 0.0, 0.0, 0.0, 0.0, 0.0, 0.0, 0.0, 0.0, 0.0, 1.7297104515327327E9, 0.0, 2024-10-24 00:37:31.532
117.0, -58948.83679733716, -59920.66829450945, -61001.50924939028, -65384.12754346461, -67658.4175417921, -57851.030868414746, -25499.406516481224, 4998.520612540318, 0.04, 0.9520000000000001, 0.202, 192.0, 0.0, 0.0, 0.0, 0.0, 0.0, 0.0, 0.0, 0.0, 0.0, 1.7297104515368168E9, 0.0, 2024-10-24 00:37:31.536
118.0, -58959.27506199778, -59933.52054757125, -61020.17295601046, -65402.701843106974, -67683.0268124374, -57874.07551694817, -25196.80860004528, 5318.687000118137, 0.04, 0.9520000000000001, 0.202, 192.0, 0.0, 0.0, 0.0, 0.0, 0.0, 0.0, 0.0, 0.0, 0.0, 1.729710451542836E9, 0.0, 2024-10-24 00:37:31.542
119.0, -58990.03106236828, -59947.17746343344, -61034.09809280612, -65403.10417450716, -67678.6235187797, -57861.98322319785, -25130.44627075747, 5369.939550154156, 0.04, 0.9520000000000001, 0.202, 192.0, 0.0, 0.0, 0.0, 0.0, 0.0, 0.0, 0.0, 0.0, 0.0, 1.7297104515457325E9, 0.0, 2024-10-24 00:37:31.545
120.0, -58987.66177745602, -59931.08420742562, -61021.6034676556, -65382.629976586104, -67649.94623064355, -57835.67521997395, -25383.557424969367, 5085.938285105024, 0.04, 0.9520000000000001, 0.202, 192.0, 0.0, 0.0, 0.0, 0.0, 0.0, 0.0, 0.0, 0.0, 0.0, 1.72971045154885E9, 0.0, 2024-10-24 00:37:31.548
121.0, -58963.87952135558, -59912.21933510534, -61009.35471169409, -65368.101342690155, -67646.52641374189, -57825.505176246785, -25580.945680254186, 4872.926160445948, 0.04, 0.9520000000000001, 0.202, 192.0, 0.0, 0.0, 0.0, 0.0, 0.0, 0.0, 0.0, 0.0, 0.0, 1.72971045155312E9, 0.0, 2024-10-24 00:37:31.553
122.0, -58948.456817681414, -59914.052178150676, -61016.84254608662, -65381.26652017433, -67674.75666698893, -57854.22716787185, -25427.322140612858, 5052.52242714434, 0.04, 0.9520000000000001, 0.202, 192.0, 0.0, 0.0, 0.0, 0.0, 0.0, 0.0, 0.0, 0.0, 0.0, 1.7297104515560384E9, 0.0, 2024-10-24 00:37:31.556
123.0, -58954.3129747287, -59925.451567822885, -61029.78420612624, -65394.319938936234, -67683.4738473265, -57868.04054594524, -25150.182861111505, 5347.587805698849, 0.04, 0.9520000000000001, 0.202, 192.0, 0.0, 0.0, 0.0, 0.0, 0.0, 0.0, 0.0, 0.0, 0.0, 1.7297104515609798E9, 0.0, 2024-10-24 00:37:31.560
124.0, -58977.49173372886, -59926.27858236773, -61034.94745909542, -65386.02744174331, -67662.08322788277, -57849.77917072525, -25094.459962184428, 5389.966713186111, 0.04, 0.9520000000000001, 0.202, 192.0, 0.0, 0.0, 0.0, 0.0, 0.0, 0.0, 0.0, 0.0, 0.0, 1.729710451565297E9, 0.0, 2024-10-24 00:37:31.565
125.0, -58976.03887033926, -59908.84422169259, -61026.43144445794, -65372.54933983676, -67654.66244872361, -57834.15530135099, -25324.995854496465, 5128.406599570108, 0.044, 0.9560000000000001, 0.202, 192.0, 1.0, 96.0, 29.0, 224.0, 6.0, 80.0, 0.0, 0.0, 0.0, 1.729710451568837E9, 0.0, 2024-10-24 00:37:31.568
126.0, -58954.558843917715, -59891.20869531736, -61016.61902864207, -65361.35111586465, -67651.51085275541, -57822.04065585622, -25526.89916216125, 4909.940649263936, 0.044, 0.9560000000000001, 0.202, 192.0, 0.0, 0.0, 0.0, 0.0, 0.0, 0.0, 0.0, 0.0, 0.0, 1.7297104515720367E9, 0.0, 2024-10-24 00:37:31.572
127.0, -58938.5102913988, -59892.102765095566, -61016.48491817533, -65372.929319492505, -67664.47486453949, -57850.42737131446, -25391.22407331754, 5071.968444820457, 0.044, 0.9560000000000001, 0.202, 192.0, 0.0, 0.0, 0.0, 0.0, 0.0, 0.0, 0.0, 0.0, 0.0, 1.7297104515758932E9, 0.0, 2024-10-24 00:37:31.575
128.0, -58947.67450662548, -59909.87240193754, -61031.482938704845, -65393.9846627694, -67690.02290845191, -57879.149362939526, -25098.52797967529, 5383.819983460901, 0.044, 0.9560000000000001, 0.202, 192.0, 0.0, 0.0, 0.0, 0.0, 0.0, 0.0, 0.0, 0.0, 0.0, 1.729710451580017E9, 0.0, 2024-10-24 00:37:31.580
129.0, -58986.18656232197, -59925.85389922308, -61045.00574410031, -65396.2868924483, -67680.56812054731, -57867.70526977841, -25026.734176484846, 5440.816931821934, 0.044, 0.9560000000000001, 0.202, 192.0, 0.0, 0.0, 0.0, 0.0, 0.0, 0.0, 0.0, 0.0, 0.0, 1.7297104515838072E9, 0.0, 2024-10-24 00:37:31.583
130.0, -58972.26142552632, -59904.843259435096, -61022.83281360064, -65375.008031726844, -67652.44962602254, -57844.83943520063, -25266.702504957022, 5169.824382045792, 0.044, 0.9560000000000001, 0.202, 192.0, 0.0, 0.0, 0.0, 0.0, 0.0, 0.0, 0.0, 0.0, 0.0, 1.7297104515887952E9, 0.0, 2024-10-24 00:37:31.588
131.0, -58958.9174340865, -59896.68487270891, -61010.78522333923, -65370.51533109133, -67646.70522769753, -57839.31855432017, -25440.84494600832, 4980.862734420626, 0.044, 0.9560000000000001, 0.202, 192.0, 0.0, 0.0, 0.0, 0.0, 0.0, 0.0, 0.0, 0.0, 0.0, 1.729710451592807E9, 0.0, 2024-10-24 00:37:31.592
132.0, -58941.684239111455, -59898.42830877642, -61008.81826982716, -65381.46768587443, -67668.721695986, -57859.8598074746, -25286.95318543353, 5160.906036008124, 0.044, 0.9560000000000001, 0.202, 192.0, 0.0, 0.0, 0.0, 0.0, 0.0, 0.0, 0.0, 0.0, 0.0, 1.729710451596952E9, 0.0, 2024-10-24 00:37:31.596
133.0, -58949.06031478171, -59913.00164616128, -61021.93874382243, -65400.4890204059, -67688.61474855122, -57889.5652758557, -25017.681719980446, 5450.830513337912, 0.044, 0.9560000000000001, 0.202, 192.0, 0.0, 0.0, 0.0, 0.0, 0.0, 0.0, 0.0, 0.0, 0.0, 1.7297104515998068E9, 0.0, 2024-10-24 00:37:31.599
134.0, -58980.263350041314, -59923.551669544184, -61030.67827590445, -65401.24897971738, -67676.70126875654, -57882.23390367436, -24959.723646607836, 5495.556353992982, 0.044, 0.9560000000000001, 0.202, 192.0, 0.0, 0.0, 0.0, 0.0, 0.0, 0.0, 0.0, 0.0, 0.0, 1.7297104516038165E9, 0.0, 2024-10-24 00:37:31.603
135.0, -58976.88823662856, -59905.938494913404, -61015.7026071194, -65382.920549264025, -67645.45353000803, -57850.2038538699, -25192.785286043323, 5231.068161853334, 0.05, 0.96, 0.194, 192.0, 1.0, 144.0, 30.0, 0.0, 6.0, 16.0, 0.0, 0.0, 0.0, 1.7297104516078148E9, 0.0, 2024-10-24 00:37:31.607
136.0, -58953.351849717124, -59888.682948193906, -60997.88826678852, -65370.60473806915, -67633.36123625771, -57837.01632464127, -25401.349413555792, 5009.271801623321, 0.05, 0.96, 0.194, 192.0, 0.0, 0.0, 0.0, 0.0, 0.0, 0.0, 0.0, 0.0, 0.0, 1.7297104516119947E9, 0.0, 2024-10-24 00:37:31.611
137.0, -58928.6084686051, -59883.51969522473, -60993.820249297656, -65374.538645093286, -67646.5711172308, -57851.388496326035, -25265.38375203416, 5173.870047792202, 0.05, 0.96, 0.194, 192.0, 0.0, 0.0, 0.0, 0.0, 0.0, 0.0, 0.0, 0.0, 0.0, 1.7297104516169288E9, 0.0, 2024-10-24 00:37:31.616
138.0, -58935.20223321942, -59897.981273887315, -61010.248781472306, -65389.89429353408, -67668.87815819719, -57868.19700815642, -24979.08025730613, 5479.440746240705, 0.05, 0.96, 0.194, 192.0, 0.0, 0.0, 0.0, 0.0, 0.0, 0.0, 0.0, 0.0, 0.0, 1.7297104516208577E9, 0.0, 2024-10-24 00:37:31.620
139.0, -58974.49659997185, -59918.321361341645, -61030.20888927089, -65395.303415692266, -67668.81110296382, -57862.31849936468, -24888.913320173422, 5556.107229722408, 0.05, 0.96, 0.194, 192.0, 0.0, 0.0, 0.0, 0.0, 0.0, 0.0, 0.0, 0.0, 0.0, 1.7297104516248372E9, 0.0, 2024-10-24 00:37:31.624
140.0, -58973.222550537896, -59901.04346287769, -61020.575287410655, -65375.96915673842, -67645.18530907456, -57835.40699904049, -25129.35103527916, 5286.433432869128, 0.05, 0.96, 0.194, 192.0, 0.0, 0.0, 0.0, 0.0, 0.0, 0.0, 0.0, 0.0, 0.0, 1.7297104516278791E9, 0.0, 2024-10-24 00:37:31.627
141.0, -58956.8163701077, -59886.157201070455, -61010.78522333923, -65366.3802583671, -67634.97056185848, -57824.34288553511, -25350.029808286406, 5052.4553719109745, 0.05, 0.96, 0.194, 192.0, 0.0, 0.0, 0.0, 0.0, 0.0, 0.0, 0.0, 0.0, 0.0, 1.7297104516320183E9, 0.0, 2024-10-24 00:37:31.632
142.0, -58944.12057925708, -59886.023090603725, -61014.18268849644, -65377.44437187247, -67658.75281795893, -57845.442932300924, -25203.089440237218, 5226.754275173459, 0.05, 0.96, 0.194, 192.0, 0.0, 0.0, 0.0, 0.0, 0.0, 0.0, 0.0, 0.0, 0.0, 1.7297104516359224E9, 0.0, 2024-10-24 00:37:31.635
143.0, -58967.16522779051, -59904.2397623348, -61041.69768592092, -65397.7844593268, -67692.41454510862, -57871.14743842452, -24928.095928203576, 5520.098569404909, 0.05, 0.96, 0.194, 192.0, 0.0, 0.0, 0.0, 0.0, 0.0, 0.0, 0.0, 0.0, 0.0, 1.7297104516399336E9, 0.0, 2024-10-24 00:37:31.639
144.0, -58998.591780494666, -59917.695512496895, -61059.310860551705, -65400.37726168362, -67696.25904515493, -57866.610034300094, -24836.610238148005, 5596.96621858671, 0.05, 0.96, 0.194, 192.0, 0.0, 0.0, 0.0, 0.0, 0.0, 0.0, 0.0, 0.0, 0.0, 1.729710451645104E9, 0.0, 2024-10-24 00:37:31.645
145.0, -58980.486867485866, -59890.38168077251, -61032.64522941652, -65372.16936018102, -67647.12991084218, -57833.59650773961, -25071.839996795654, 5330.9804595685555, 0.052000000000000005, 0.964, 0.194, 192.0, 1.0, 160.0, 30.0, 32.0, 6.0, 16.0, 0.0, 0.0, 0.0, 1.7297104516489682E9, 0.0, 2024-10-24 00:37:31.648
146.0, -58958.62686140858, -59876.434192232395, -61014.33915070762, -65358.870072230115, -67631.93072461257, -57818.44202499891, -25306.734479276478, 5083.05491007029, 0.052000000000000005, 0.964, 0.194, 192.0, 0.0, 0.0, 0.0, 0.0, 0.0, 0.0, 0.0, 0.0, 0.0, 1.729710451653039E9, 0.0, 2024-10-24 00:37:31.653
