%OpenBCI Raw EXG Data
%Number of channels = 8
%Sample Rate = 250 Hz
%Board = OpenBCI_GUI$BoardCytonSerial
Sample Index, EXG Channel 0, EXG Channel 1, EXG Channel 2, EXG Channel 3, EXG Channel 4, EXG Channel 5, EXG Channel 6, EXG Channel 7, Accel Channel 0, Accel Channel 1, Accel Channel 2, Other, Other, Other, Other, Other, Other, Other, Analog Channel 0, Analog Channel 1, Analog Channel 2, Timestamp, Other, Timestamp (Formatted)
0.0, 0.0, 0.0, 0.0, 0.0, 0.0, 0.0, 0.0, 0.0, 0.0, 0.0, 0.0, 192.0, 0.0, 0.0, 0.0, 0.0, 0.0, 0.0, 0.0, 0.0, 0.0, 1.7297039280483892E9, 0.0, 2024-10-23 22:48:48.048
1.0, -46631.483332095544, -56082.67260583313, -21233.82195637488, -26992.88302575148, -19600.110602392033, -18827.120223894148, -187500.02235174447, -187500.02235174447, -0.054, 0.862, 0.462, 192.0, 254.0, 80.0, 26.0, 240.0, 14.0, 112.0, 0.0, 0.0, 0.0, 1.7297039280644348E9, 0.0, 2024-10-23 22:48:48.064
2.0, -46599.49798578, -56075.542399351885, -24016.94941722744, -27467.410560537646, -19474.47144680875, -18744.32936243169, -187500.02235174447, -187500.02235174447, -0.054, 0.862, 0.462, 192.0, 0.0, 0.0, 0.0, 0.0, 0.0, 0.0, 0.0, 0.0, 0.0, 1.729703928067408E9, 0.0, 2024-10-23 22:48:48.067
3.0, -46458.30201605583, -55945.0529152218, -27280.482921657913, -27287.83664558371, -19372.055753714532, -18644.528823438744, -187500.02235174447, -187500.02235174447, -0.054, 0.862, 0.462, 192.0, 0.0, 0.0, 0.0, 0.0, 0.0, 0.0, 0.0, 0.0, 0.0, 1.7297039280714307E9, 0.0, 2024-10-23 22:48:48.071
4.0, -46469.924923172584, -55896.88490592062, -27186.538539712255, -26955.86853693349, -19414.099385034966, -18647.903936851497, -187500.02235174447, -187500.02235174447, -0.054, 0.862, 0.462, 192.0, 0.0, 0.0, 0.0, 0.0, 0.0, 0.0, 0.0, 0.0, 0.0, 1.729703928075431E9, 0.0, 2024-10-23 22:48:48.075
5.0, -46483.514783801416, -55897.33194080972, -24445.834689835872, -26755.44044440275, -19483.81447599107, -18716.434385351466, -187500.02235174447, -187500.02235174447, -0.054, 0.862, 0.462, 192.0, 0.0, 0.0, 0.0, 0.0, 0.0, 0.0, 0.0, 0.0, 0.0, 1.7297039280814652E9, 0.0, 2024-10-23 22:48:48.081
6.0, -46621.022715690466, -56067.3840126257, -21209.61501712978, -26999.275624665694, -19591.16990460991, -18860.78195104384, -187500.02235174447, -187500.02235174447, -0.054, 0.862, 0.462, 192.0, 0.0, 0.0, 0.0, 0.0, 0.0, 0.0, 0.0, 0.0, 0.0, 1.729703928084439E9, 0.0, 2024-10-23 22:48:48.084
7.0, -46587.58450598532, -56064.366527124235, -23973.855253917605, -27488.376496836725, -19476.728972998735, -18803.986168382904, -187500.02235174447, -187500.02235174447, -0.054, 0.862, 0.462, 192.0, 0.0, 0.0, 0.0, 0.0, 0.0, 0.0, 0.0, 0.0, 0.0, 1.729703928087488E9, 0.0, 2024-10-23 22:48:48.087
8.0, -46470.03668189486, -55919.236650375926, -27281.332287947214, -27312.535323206823, -19384.148047464856, -18707.292521869247, -187500.02235174447, -187500.02235174447, -0.038, 0.876, 0.454, 192.0, 254.0, 208.0, 27.0, 96.0, 14.0, 48.0, 0.0, 0.0, 0.0, 1.7297039280924764E9, 0.0, 2024-10-23 22:48:48.092
9.0, -46491.114376916215, -55875.65074868807, -27201.827132919687, -26971.782978985666, -19416.04398680258, -18689.74640247183, -187500.02235174447, -187500.02235174447, -0.038, 0.876, 0.454, 192.0, 0.0, 0.0, 0.0, 0.0, 0.0, 0.0, 0.0, 0.0, 0.0, 1.7297039280954795E9, 0.0, 2024-10-23 22:48:48.095
10.0, -46529.31350819034, -55907.59139151471, -24475.026068094503, -26790.77855238659, -19523.064139254588, -18777.275833758813, -187500.02235174447, -187500.02235174447, -0.038, 0.876, 0.454, 192.0, 0.0, 0.0, 0.0, 0.0, 0.0, 0.0, 0.0, 0.0, 0.0, 1.7297039281004655E9, 0.0, 2024-10-23 22:48:48.100
11.0, -46668.63193138027, -56061.840780000784, -21239.29813376643, -27021.560313887636, -19618.439032845385, -18901.88680909715, -187500.02235174447, -187500.02235174447, -0.038, 0.876, 0.454, 192.0, 0.0, 0.0, 0.0, 0.0, 0.0, 0.0, 0.0, 0.0, 0.0, 1.7297039281035502E9, 0.0, 2024-10-23 22:48:48.103
12.0, -46630.030468705954, -56062.690146290086, -23956.018561842273, -27498.05480218587, -19502.925217500357, -18831.322351851744, -187500.02235174447, -187500.02235174447, -0.038, 0.876, 0.454, 192.0, 0.0, 0.0, 0.0, 0.0, 0.0, 0.0, 0.0, 0.0, 0.0, 1.7297039281084895E9, 0.0, 2024-10-23 22:48:48.108
13.0, -46502.91609798862, -55927.64090629112, -27259.87461327012, -27326.88514314713, -19401.872980817912, -18721.597638320643, -187500.02235174447, -187500.02235174447, -0.038, 0.876, 0.454, 192.0, 0.0, 0.0, 0.0, 0.0, 0.0, 0.0, 0.0, 0.0, 0.0, 1.7297039281125247E9, 0.0, 2024-10-23 22:48:48.112
14.0, -46476.42928080908, -55893.86742041915, -27197.177970072982, -26978.91318546691, -19432.807795144057, -18692.205094361914, -187500.02235174447, -187500.02235174447, -0.038, 0.876, 0.454, 192.0, 0.0, 0.0, 0.0, 0.0, 0.0, 0.0, 0.0, 0.0, 0.0, 1.7297039281154945E9, 0.0, 2024-10-23 22:48:48.115
15.0, -46518.60702259625, -55933.58647031623, -24474.668440183217, -26794.53364545508, -19535.223488238276, -18769.38566796609, -187500.02235174447, -187500.02235174447, -0.038, 0.876, 0.454, 192.0, 0.0, 0.0, 0.0, 0.0, 0.0, 0.0, 0.0, 0.0, 0.0, 1.7297039281195195E9, 0.0, 2024-10-23 22:48:48.119
16.0, -46652.38221316126, -56083.231399444514, -21235.990075587044, -27025.15894474494, -19626.26214340474, -18893.102573526212, -187500.02235174447, -187500.02235174447, -0.038, 0.876, 0.454, 192.0, 0.0, 0.0, 0.0, 0.0, 0.0, 0.0, 0.0, 0.0, 0.0, 1.7297039281235385E9, 0.0, 2024-10-23 22:48:48.123
17.0, -46612.86432896428, -56052.56480605183, -23957.583183954142, -27493.226825383525, -19504.62395007896, -18809.708214963463, -187500.02235174447, -187500.02235174447, -0.038, 0.876, 0.454, 192.0, 0.0, 0.0, 0.0, 0.0, 0.0, 0.0, 0.0, 0.0, 0.0, 1.7297039281275077E9, 0.0, 2024-10-23 22:48:48.127
18.0, -46496.67996128559, -55919.46016782048, -27290.429447940525, -27314.144648807604, -19404.286969219087, -18694.306158340714, -187500.02235174447, -187500.02235174447, -0.038, 0.884, 0.444, 192.0, 254.0, 208.0, 27.0, 160.0, 13.0, 224.0, 0.0, 0.0, 0.0, 1.7297039281335323E9, 0.0, 2024-10-23 22:48:48.133
19.0, -46490.1756036491, -55896.370815798145, -27239.467470582425, -26976.85682497702, -19430.59497244298, -18670.50155049581, -187500.02235174447, -187500.02235174447, -0.038, 0.884, 0.444, 192.0, 0.0, 0.0, 0.0, 0.0, 0.0, 0.0, 0.0, 0.0, 0.0, 1.7297039281366146E9, 0.0, 2024-10-23 22:48:48.136
20.0, -46570.4407179881, -55968.589302133245, -24538.460318858663, -26818.897046911366, -19546.980505821768, -18762.90366207405, -187500.02235174447, -187500.02235174447, -0.038, 0.884, 0.444, 192.0, 0.0, 0.0, 0.0, 0.0, 0.0, 0.0, 0.0, 0.0, 0.0, 1.7297039281405396E9, 0.0, 2024-10-23 22:48:48.140
21.0, -46674.4657366831, -56103.12445200974, -21267.26016608002, -27030.702177369854, -19624.049320703667, -18866.369887157667, -187500.02235174447, -187500.02235174447, -0.038, 0.884, 0.444, 192.0, 0.0, 0.0, 0.0, 0.0, 0.0, 0.0, 0.0, 0.0, 0.0, 1.7297039281435635E9, 0.0, 2024-10-23 22:48:48.143
22.0, -46604.32596258235, -56075.5871028408, -23972.894128906028, -27463.677819213608, -19480.70758351178, -18761.719019617918, -187500.02235174447, -187500.02235174447, -0.038, 0.884, 0.444, 192.0, 0.0, 0.0, 0.0, 0.0, 0.0, 0.0, 0.0, 0.0, 0.0, 1.7297039281475544E9, 0.0, 2024-10-23 22:48:48.147
23.0, -46481.972513434, -55947.86923502317, -27281.30993620276, -27290.854131085176, -19377.01784098361, -18654.005963087795, -187500.02235174447, -187500.02235174447, -0.038, 0.884, 0.444, 192.0, 0.0, 0.0, 0.0, 0.0, 0.0, 0.0, 0.0, 0.0, 0.0, 1.7297039281515446E9, 0.0, 2024-10-23 22:48:48.151
24.0, -46497.21640315252, -55893.86742041915, -27222.122516885105, -26946.23493507325, -19404.93516980829, -18633.196488999904, -187500.02235174447, -187500.02235174447, -0.038, 0.884, 0.444, 192.0, 0.0, 0.0, 0.0, 0.0, 0.0, 0.0, 0.0, 0.0, 0.0, 1.729703928155638E9, 0.0, 2024-10-23 22:48:48.155
25.0, -46559.06368006035, -55954.5077031264, -24507.972539421626, -26775.78053185708, -19505.38390939044, -18720.748272031342, -187500.02235174447, -187500.02235174447, -0.038, 0.884, 0.444, 192.0, 0.0, 0.0, 0.0, 0.0, 0.0, 0.0, 0.0, 0.0, 0.0, 1.729703928161564E9, 0.0, 2024-10-23 22:48:48.161
26.0, -46662.17227723268, -56103.45972817657, -21243.232040790564, -26997.308671153627, -19598.59068376907, -18842.900555479595, -187500.02235174447, -187500.02235174447, -0.038, 0.884, 0.444, 192.0, 0.0, 0.0, 0.0, 0.0, 0.0, 0.0, 0.0, 0.0, 0.0, 1.729703928164569E9, 0.0, 2024-10-23 22:48:48.164
27.0, -46638.74764904352, -56095.03312051691, -23948.463672216378, -27475.703057730563, -19478.025374177145, -18767.10579003165, -187500.02235174447, -187500.02235174447, -0.038, 0.884, 0.444, 192.0, 0.0, 0.0, 0.0, 0.0, 0.0, 0.0, 0.0, 0.0, 0.0, 1.7297039281685822E9, 0.0, 2024-10-23 22:48:48.168
28.0, -46458.65964396711, -55926.277449879344, -27288.01545953935, -27282.896910059084, -19354.39787559484, -18639.16440476947, -187500.02235174447, -187500.02235174447, -0.034, 0.882, 0.442, 192.0, 254.0, 240.0, 27.0, 144.0, 13.0, 208.0, 0.0, 0.0, 0.0, 1.7297039281715684E9, 0.0, 2024-10-23 22:48:48.171
29.0, -46461.833591679766, -55900.23766758891, -27221.228447106892, -26945.027940872664, -19394.2286842142, -18637.376265213046, -187500.02235174447, -187500.02235174447, -0.034, 0.882, 0.442, 192.0, 0.0, 0.0, 0.0, 0.0, 0.0, 0.0, 0.0, 0.0, 0.0, 1.7297039281765687E9, 0.0, 2024-10-23 22:48:48.176
30.0, -46563.39991848468, -55969.37161318918, -24499.098896872867, -26797.081744322986, -19524.606409622003, -18757.494539915864, -187500.02235174447, -187500.02235174447, -0.034, 0.882, 0.442, 192.0, 0.0, 0.0, 0.0, 0.0, 0.0, 0.0, 0.0, 0.0, 0.0, 1.7297039281806135E9, 0.0, 2024-10-23 22:48:48.180
31.0, -46648.67182358168, -56099.034082774415, -21200.607264114293, -27008.86452303702, -19612.582875798093, -18881.613776876187, -187500.02235174447, -187500.02235174447, -0.034, 0.882, 0.442, 192.0, 0.0, 0.0, 0.0, 0.0, 0.0, 0.0, 0.0, 0.0, 0.0, 1.7297039281835892E9, 0.0, 2024-10-23 22:48:48.183
32.0, -46609.332753340335, -56072.0331754724, -23894.618319823545, -27481.58156652231, -19495.39267961892, -18810.267008574847, -187500.02235174447, -187500.02235174447, -0.034, 0.882, 0.442, 192.0, 0.0, 0.0, 0.0, 0.0, 0.0, 0.0, 0.0, 0.0, 0.0, 1.729703928189653E9, 0.0, 2024-10-23 22:48:48.189
33.0, -46471.57895226228, -55911.033560160824, -27241.546182816768, -27305.047488814296, -19383.186922453275, -18697.591864775644, -187500.02235174447, -187500.02235174447, -0.034, 0.882, 0.442, 192.0, 0.0, 0.0, 0.0, 0.0, 0.0, 0.0, 0.0, 0.0, 0.0, 1.7297039281926742E9, 0.0, 2024-10-23 22:48:48.192
34.0, -46469.097908627744, -55878.17649581152, -27234.863011224632, -26960.897679435933, -19421.16253628284, -18678.99521338883, -187500.02235174447, -187500.02235174447, -0.034, 0.882, 0.442, 192.0, 0.0, 0.0, 0.0, 0.0, 0.0, 0.0, 0.0, 0.0, 0.0, 1.729703928196622E9, 0.0, 2024-10-23 22:48:48.196
35.0, -46536.35430769376, -55931.12777842615, -24543.57886833893, -26788.25280526314, -19540.25263074072, -18764.356525463645, -187500.02235174447, -187500.02235174447, -0.034, 0.882, 0.442, 192.0, 0.0, 0.0, 0.0, 0.0, 0.0, 0.0, 0.0, 0.0, 0.0, 1.7297039281996818E9, 0.0, 2024-10-23 22:48:48.199
36.0, -46677.52792567348, -56085.35481516777, -21250.9657443721, -27013.468982394814, -19648.27861169322, -18900.232780007456, -187500.02235174447, -187500.02235174447, -0.034, 0.882, 0.442, 192.0, 0.0, 0.0, 0.0, 0.0, 0.0, 0.0, 0.0, 0.0, 0.0, 1.7297039282036333E9, 0.0, 2024-10-23 22:48:48.203
37.0, -46644.80497179091, -56067.495771347974, -23922.736814348318, -27491.885720716207, -19524.96403753329, -18821.77815696933, -187500.02235174447, -187500.02235174447, -0.034, 0.882, 0.442, 192.0, 0.0, 0.0, 0.0, 0.0, 0.0, 0.0, 0.0, 0.0, 0.0, 1.7297039282076125E9, 0.0, 2024-10-23 22:48:48.207
38.0, -46488.879202470685, -55913.20167937299, -27276.146683233583, -27313.92113136305, -19409.137297765887, -18700.341129343644, -187500.02235174447, -187500.02235174447, -0.03, 0.882, 0.442, 192.0, 255.0, 16.0, 27.0, 144.0, 13.0, 208.0, 0.0, 0.0, 0.0, 1.7297039282116623E9, 0.0, 2024-10-23 22:48:48.211
39.0, -46491.6731705276, -55880.90340863507, -27241.412072350035, -26959.645981746435, -19433.32188526653, -18675.26247206479, -187500.02235174447, -187500.02235174447, -0.03, 0.882, 0.442, 192.0, 0.0, 0.0, 0.0, 0.0, 0.0, 0.0, 0.0, 0.0, 0.0, 1.729703928215659E9, 0.0, 2024-10-23 22:48:48.215
40.0, -46556.694395148086, -55935.03933370583, -24551.223164942643, -26792.29847100955, -19545.68410464336, -18769.899758088563, -187500.02235174447, -187500.02235174447, -0.03, 0.882, 0.442, 192.0, 0.0, 0.0, 0.0, 0.0, 0.0, 0.0, 0.0, 0.0, 0.0, 1.7297039282196362E9, 0.0, 2024-10-23 22:48:48.219
41.0, -46680.433652452666, -56099.10113800778, -21255.30198279643, -27015.033604506687, -19642.042474990187, -18888.721631612974, -187500.02235174447, -187500.02235174447, -0.03, 0.882, 0.442, 192.0, 0.0, 0.0, 0.0, 0.0, 0.0, 0.0, 0.0, 0.0, 0.0, 1.7297039282227821E9, 0.0, 2024-10-23 22:48:48.222
42.0, -46647.84480903683, -56091.92622803763, -23934.69499763191, -27496.937214963105, -19514.23520019474, -18809.976435896926, -187500.02235174447, -187500.02235174447, -0.03, 0.882, 0.442, 192.0, 0.0, 0.0, 0.0, 0.0, 0.0, 0.0, 0.0, 0.0, 0.0, 1.7297039282277133E9, 0.0, 2024-10-23 22:48:48.227
43.0, -46509.73338004749, -55928.64673479161, -27250.665694554533, -27306.209779525972, -19398.386108682884, -18691.08750713915, -187500.02235174447, -187500.02235174447, -0.03, 0.882, 0.442, 192.0, 0.0, 0.0, 0.0, 0.0, 0.0, 0.0, 0.0, 0.0, 0.0, 1.7297039282322233E9, 0.0, 2024-10-23 22:48:48.232
44.0, -46493.17073740611, -55900.550592011285, -27219.887342439575, -26957.27669683417, -19426.79517588558, -18666.96997487187, -187500.02235174447, -187500.02235174447, -0.03, 0.882, 0.442, 192.0, 0.0, 0.0, 0.0, 0.0, 0.0, 0.0, 0.0, 0.0, 0.0, 1.729703928235722E9, 0.0, 2024-10-23 22:48:48.235
45.0, -46579.44847100359, -55983.65437789612, -24559.2474412021, -26814.963139887233, -19550.087398301053, -18771.889063345083, -187500.02235174447, -187500.02235174447, -0.03, 0.882, 0.442, 192.0, 0.0, 0.0, 0.0, 0.0, 0.0, 0.0, 0.0, 0.0, 0.0, 1.7297039282403877E9, 0.0, 2024-10-23 22:48:48.240
46.0, -46691.833042124876, -56097.089481006806, -21268.623622491792, -27004.52828461269, -19619.26604739023, -18870.013221503883, -187500.02235174447, -187500.02235174447, -0.03, 0.882, 0.442, 192.0, 0.0, 0.0, 0.0, 0.0, 0.0, 0.0, 0.0, 0.0, 0.0, 1.7297039282448034E9, 0.0, 2024-10-23 22:48:48.244
47.0, -46614.585413287336, -56077.41994588613, -23897.54639834719, -27460.61563022323, -19476.23723462072, -18778.549883192765, -187500.02235174447, -187500.02235174447, -0.03, 0.882, 0.442, 192.0, 0.0, 0.0, 0.0, 0.0, 0.0, 0.0, 0.0, 0.0, 0.0, 1.729703928247779E9, 0.0, 2024-10-23 22:48:48.247
48.0, -46500.36799912072, -55932.31242088228, -27242.239086894882, -27298.766648622353, -19391.03238475709, -18682.683251223953, -187500.02235174447, -187500.02235174447, -0.032, 0.88, 0.44, 192.0, 255.0, 0.0, 27.0, 128.0, 13.0, 192.0, 0.0, 0.0, 0.0, 1.729703928252728E9, 0.0, 2024-10-23 22:48:48.252
49.0, -46508.36992363571, -55907.72550198144, -27241.702645027955, -26973.235842375263, -19419.396748470874, -18669.607480717597, -187500.02235174447, -187500.02235174447, -0.032, 0.88, 0.44, 192.0, 0.0, 0.0, 0.0, 0.0, 0.0, 0.0, 0.0, 0.0, 0.0, 1.7297039282557168E9, 0.0, 2024-10-23 22:48:48.255
50.0, -46549.02774679992, -55957.324022927765, -24581.44272344622, -26799.83100889099, -19517.789127563137, -18754.052371269747, -187500.02235174447, -187500.02235174447, -0.032, 0.88, 0.44, 192.0, 0.0, 0.0, 0.0, 0.0, 0.0, 0.0, 0.0, 0.0, 0.0, 1.7297039282601137E9, 0.0, 2024-10-23 22:48:48.260
51.0, -46664.005120278016, -56105.538440410906, -21286.281500611487, -27013.468982394814, -19609.096003663064, -18877.63516636314, -187500.02235174447, -187500.02235174447, -0.032, 0.88, 0.44, 192.0, 0.0, 0.0, 0.0, 0.0, 0.0, 0.0, 0.0, 0.0, 0.0, 1.729703928263754E9, 0.0, 2024-10-23 22:48:48.263
52.0, -46638.2559106655, -56103.34796945429, -23923.608532382077, -27503.240406899502, -19502.43347912234, -18811.67516847553, -187500.02235174447, -187500.02235174447, -0.032, 0.88, 0.44, 192.0, 0.0, 0.0, 0.0, 0.0, 0.0, 0.0, 0.0, 0.0, 0.0, 1.729703928267788E9, 0.0, 2024-10-23 22:48:48.267
53.0, -46481.72664424499, -55926.32215336826, -27288.618956639642, -27320.179619810537, -19383.209274197732, -18693.50149554032, -187500.02235174447, -187500.02235174447, -0.032, 0.88, 0.44, 192.0, 0.0, 0.0, 0.0, 0.0, 0.0, 0.0, 0.0, 0.0, 0.0, 1.7297039282737875E9, 0.0, 2024-10-23 22:48:48.273
54.0, -46481.324312844794, -55890.58171398422, -27302.678203902033, -26975.873348220986, -19409.718443121725, -18676.5588732432, -187500.02235174447, -187500.02235174447, -0.032, 0.88, 0.44, 192.0, 0.0, 0.0, 0.0, 0.0, 0.0, 0.0, 0.0, 0.0, 0.0, 1.7297039282767506E9, 0.0, 2024-10-23 22:48:48.276
55.0, -46556.761450381455, -55956.005270004905, -24632.650569993326, -26812.571503230516, -19528.517964901683, -18781.09798206067, -187500.02235174447, -187500.02235174447, -0.032, 0.88, 0.44, 192.0, 0.0, 0.0, 0.0, 0.0, 0.0, 0.0, 0.0, 0.0, 0.0, 1.7297039282807584E9, 0.0, 2024-10-23 22:48:48.280
56.0, -46669.48129766957, -56104.689074121605, -21273.317488827408, -27011.7255463273, -19617.880239234, -18899.204599762514, -187500.02235174447, -187500.02235174447, -0.032, 0.88, 0.44, 192.0, 0.0, 0.0, 0.0, 0.0, 0.0, 0.0, 0.0, 0.0, 0.0, 1.729703928283744E9, 0.0, 2024-10-23 22:48:48.283
57.0, -46649.811762548896, -56113.80858585937, -23879.173264404926, -27512.06934595935, -19495.795011019112, -18828.95306693948, -187500.02235174447, -187500.02235174447, -0.032, 0.88, 0.44, 192.0, 0.0, 0.0, 0.0, 0.0, 0.0, 0.0, 0.0, 0.0, 0.0, 1.7297039282878022E9, 0.0, 2024-10-23 22:48:48.287
58.0, -46501.15031017665, -55933.698229038506, -27248.92225848702, -27320.425488999546, -19380.102381718443, -18702.308082855714, -187500.02235174447, -187500.02235174447, -0.034, 0.876, 0.438, 192.0, 254.0, 240.0, 27.0, 96.0, 13.0, 176.0, 0.0, 0.0, 0.0, 1.7297039282917612E9, 0.0, 2024-10-23 22:48:48.291
59.0, -46481.92780994509, -55884.52439123683, -27269.55291861927, -26959.08718813505, -19418.36856822593, -18672.289690052236, -187500.02235174447, -187500.02235174447, -0.034, 0.876, 0.438, 192.0, 0.0, 0.0, 0.0, 0.0, 0.0, 0.0, 0.0, 0.0, 0.0, 1.729703928295771E9, 0.0, 2024-10-23 22:48:48.295
60.0, -46535.303775704364, -55931.194833659516, -24638.149099129332, -26781.234357504174, -19507.06029022459, -18749.67142935651, -187500.02235174447, -187500.02235174447, -0.034, 0.876, 0.438, 192.0, 0.0, 0.0, 0.0, 0.0, 0.0, 0.0, 0.0, 0.0, 0.0, 1.7297039282998896E9, 0.0, 2024-10-23 22:48:48.299
61.0, -46684.79224262146, -56087.34412042429, -21302.240646152575, -26987.026868704186, -19600.22236111431, -18878.35042218571, -187500.02235174447, -187500.02235174447, -0.034, 0.876, 0.438, 192.0, 0.0, 0.0, 0.0, 0.0, 0.0, 0.0, 0.0, 0.0, 0.0, 1.7297039283037965E9, 0.0, 2024-10-23 22:48:48.303
62.0, -46616.395904588215, -56066.869922503225, -23888.650404053977, -27461.934383146094, -19482.026336434643, -18799.359357280657, -187500.02235174447, -187500.02235174447, -0.034, 0.876, 0.438, 192.0, 0.0, 0.0, 0.0, 0.0, 0.0, 0.0, 0.0, 0.0, 0.0, 1.7297039283067813E9, 0.0, 2024-10-23 22:48:48.306
63.0, -46466.05807138182, -55912.95581018399, -27253.750235289364, -27288.037811283808, -19369.485303102174, -18683.01852739078, -187500.02235174447, -187500.02235174447, -0.034, 0.876, 0.438, 192.0, 0.0, 0.0, 0.0, 0.0, 0.0, 0.0, 0.0, 0.0, 0.0, 1.72970392831084E9, 0.0, 2024-10-23 22:48:48.310
64.0, -46468.98614990547, -55880.12109757914, -27278.225395467925, -26951.219374086784, -19401.493001162173, -18665.11478008208, -187500.02235174447, -187500.02235174447, -0.034, 0.876, 0.438, 192.0, 0.0, 0.0, 0.0, 0.0, 0.0, 0.0, 0.0, 0.0, 0.0, 1.729703928315775E9, 0.0, 2024-10-23 22:48:48.315
65.0, -46526.273670944414, -55914.0957491512, -24642.30652359802, -26773.947688811742, -19506.30033091311, -18744.731693831887, -187500.02235174447, -187500.02235174447, -0.034, 0.876, 0.438, 192.0, 0.0, 0.0, 0.0, 0.0, 0.0, 0.0, 0.0, 0.0, 0.0, 1.7297039283199503E9, 0.0, 2024-10-23 22:48:48.319
66.0, -46649.76705905999, -56048.4297333276, -21301.74890777456, -26966.843243461044, -19611.018253686223, -18867.88980578063, -187500.02235174447, -187500.02235174447, -0.034, 0.876, 0.438, 192.0, 0.0, 0.0, 0.0, 0.0, 0.0, 0.0, 0.0, 0.0, 0.0, 1.729703928323796E9, 0.0, 2024-10-23 22:48:48.323
67.0, -46625.694230281624, -56054.39764909717, -23885.87878774152, -27460.950906390062, -19504.19926693431, -18803.47207826043, -187500.02235174447, -187500.02235174447, -0.034, 0.876, 0.438, 192.0, 0.0, 0.0, 0.0, 0.0, 0.0, 0.0, 0.0, 0.0, 0.0, 1.729703928327804E9, 0.0, 2024-10-23 22:48:48.327
68.0, -46502.11143518823, -55915.57096428525, -27246.68708404149, -27304.131067291626, -19406.879771575903, -18702.643359022542, -187500.02235174447, -187500.02235174447, -0.034, 0.884, 0.444, 192.0, 254.0, 240.0, 27.0, 160.0, 13.0, 224.0, 0.0, 0.0, 0.0, 1.7297039283318021E9, 0.0, 2024-10-23 22:48:48.331
69.0, -46496.63525779668, -55889.91116165056, -27278.515968145846, -26975.046333676142, -19437.501661479673, -18682.63854773504, -187500.02235174447, -187500.02235174447, -0.034, 0.884, 0.444, 192.0, 0.0, 0.0, 0.0, 0.0, 0.0, 0.0, 0.0, 0.0, 0.0, 1.729703928336875E9, 0.0, 2024-10-23 22:48:48.336
70.0, -46505.01716196742, -55915.77212998535, -24628.649607735828, -26772.96421205571, -19511.128307715455, -18734.42753963799, -187500.02235174447, -187500.02235174447, -0.034, 0.884, 0.444, 192.0, 0.0, 0.0, 0.0, 0.0, 0.0, 0.0, 0.0, 0.0, 0.0, 1.7297039283399477E9, 0.0, 2024-10-23 22:48:48.339
71.0, -46665.90501855672, -56081.86794303274, -21293.74698325956, -26992.033659462173, -19630.866602762533, -18874.46121865049, -187500.02235174447, -187500.02235174447, -0.034, 0.884, 0.444, 192.0, 0.0, 0.0, 0.0, 0.0, 0.0, 0.0, 0.0, 0.0, 0.0, 1.72970392834387E9, 0.0, 2024-10-23 22:48:48.343
72.0, -46625.4036576037, -56072.256692916955, -23870.076104411615, -27481.939194433595, -19507.1049937135, -18788.809333897752, -187500.02235174447, -187500.02235174447, -0.034, 0.884, 0.444, 192.0, 0.0, 0.0, 0.0, 0.0, 0.0, 0.0, 0.0, 0.0, 0.0, 1.729703928347931E9, 0.0, 2024-10-23 22:48:48.347
73.0, -46494.467138584514, -55948.91976701257, -27258.935840002996, -27320.917227377562, -19386.20440795474, -18668.624003961566, -187500.02235174447, -187500.02235174447, -0.034, 0.884, 0.444, 192.0, 0.0, 0.0, 0.0, 0.0, 0.0, 0.0, 0.0, 0.0, 0.0, 1.7297039283518243E9, 0.0, 2024-10-23 22:48:48.351
74.0, -46496.67996128559, -55922.87998472214, -27317.20683779798, -26993.30770889613, -19421.430757216305, -18658.766884656776, -187500.02235174447, -187500.02235174447, -0.034, 0.884, 0.444, 192.0, 0.0, 0.0, 0.0, 0.0, 0.0, 0.0, 0.0, 0.0, 0.0, 1.729703928357875E9, 0.0, 2024-10-23 22:48:48.357
75.0, -46531.54868263587, -55946.1034472112, -24685.512445630127, -26821.512201012636, -19531.468395169784, -18746.60924036613, -187500.02235174447, -187500.02235174447, -0.034, 0.884, 0.444, 192.0, 0.0, 0.0, 0.0, 0.0, 0.0, 0.0, 0.0, 0.0, 0.0, 1.7297039283608773E9, 0.0, 2024-10-23 22:48:48.360
76.0, -46663.155753988714, -56099.950504297085, -21325.039425496987, -27026.656511623445, -19643.517690124238, -18882.68666061004, -187500.02235174447, -187500.02235174447, -0.034, 0.884, 0.444, 192.0, 0.0, 0.0, 0.0, 0.0, 0.0, 0.0, 0.0, 0.0, 0.0, 1.729703928363846E9, 0.0, 2024-10-23 22:48:48.363
77.0, -46638.61353857679, -56115.35085622679, -23866.991563676784, -27528.274360689447, -19538.375084206473, -18820.34764532419, -187500.02235174447, -187500.02235174447, -0.034, 0.884, 0.444, 192.0, 0.0, 0.0, 0.0, 0.0, 0.0, 0.0, 0.0, 0.0, 0.0, 1.729703928367892E9, 0.0, 2024-10-23 22:48:48.367
78.0, -46512.43794112658, -55979.09462202724, -27263.607354594154, -27372.929736725062, -19439.245097547187, -18714.378024861577, -187500.02235174447, -187500.02235174447, -0.032, 0.882, 0.438, 192.0, 255.0, 0.0, 27.0, 144.0, 13.0, 176.0, 0.0, 0.0, 0.0, 1.7297039283739064E9, 0.0, 2024-10-23 22:48:48.373
79.0, -46482.15132738964, -55912.70994099497, -27331.98134088294, -27013.804258561642, -19444.542460983095, -18678.950509899918, -187500.02235174447, -187500.02235174447, -0.032, 0.882, 0.438, 192.0, 0.0, 0.0, 0.0, 0.0, 0.0, 0.0, 0.0, 0.0, 0.0, 1.7297039283789032E9, 0.0, 2024-10-23 22:48:48.378
80.0, -46540.042345528884, -55968.4104881776, -24685.959480519236, -26833.850363951966, -19537.704531872812, -18753.493577658366, -187500.02235174447, -187500.02235174447, -0.032, 0.882, 0.438, 192.0, 0.0, 0.0, 0.0, 0.0, 0.0, 0.0, 0.0, 0.0, 0.0, 1.7297039283819025E9, 0.0, 2024-10-23 22:48:48.381
81.0, -46676.07506228388, -56122.9951528305, -21301.592445563372, -27039.508764685248, -19653.486568151304, -18885.2571112224, -187500.02235174447, -187500.02235174447, -0.032, 0.882, 0.438, 192.0, 0.0, 0.0, 0.0, 0.0, 0.0, 0.0, 0.0, 0.0, 0.0, 1.729703928384898E9, 0.0, 2024-10-23 22:48:48.384
82.0, -46655.22088470708, -56126.12439705425, -23844.639819221477, -27528.497878134, -19548.656886655914, -18818.96183716796, -187500.02235174447, -187500.02235174447, -0.032, 0.882, 0.438, 192.0, 0.0, 0.0, 0.0, 0.0, 0.0, 0.0, 0.0, 0.0, 0.0, 1.7297039283890083E9, 0.0, 2024-10-23 22:48:48.389
83.0, -46496.076464185295, -55966.130610243155, -27236.405281592048, -27345.347684067212, -19425.856402618458, -18685.343108814133, -187500.02235174447, -187500.02235174447, -0.032, 0.882, 0.438, 192.0, 0.0, 0.0, 0.0, 0.0, 0.0, 0.0, 0.0, 0.0, 0.0, 1.7297039283918924E9, 0.0, 2024-10-23 22:48:48.391
84.0, -46474.976417419486, -55906.89848743659, -27307.752049893388, -26995.252310663738, -19457.55117625608, -18659.5044922238, -187500.02235174447, -187500.02235174447, -0.032, 0.882, 0.438, 192.0, 0.0, 0.0, 0.0, 0.0, 0.0, 0.0, 0.0, 0.0, 0.0, 1.7297039283949025E9, 0.0, 2024-10-23 22:48:48.394
85.0, -46566.46210747506, -55981.03922379485, -24684.037230496077, -26842.299323356074, -19588.420640041906, -18763.529510918797, -187500.02235174447, -187500.02235174447, -0.032, 0.882, 0.438, 192.0, 0.0, 0.0, 0.0, 0.0, 0.0, 0.0, 0.0, 0.0, 0.0, 1.7297039283999922E9, 0.0, 2024-10-23 22:48:48.399
86.0, -46669.257780225016, -56105.538440410906, -21297.323262372407, -27007.456363136338, -19672.619661405046, -18866.235776690934, -187500.02235174447, -187500.02235174447, -0.032, 0.882, 0.438, 192.0, 0.0, 0.0, 0.0, 0.0, 0.0, 0.0, 0.0, 0.0, 0.0, 1.7297039284039235E9, 0.0, 2024-10-23 22:48:48.403
87.0, -46617.17821564415, -56086.29358843489, -23836.593191217566, -27475.524243774922, -19550.042694812142, -18780.583891938197, -187500.02235174447, -187500.02235174447, -0.032, 0.882, 0.438, 192.0, 0.0, 0.0, 0.0, 0.0, 0.0, 0.0, 0.0, 0.0, 0.0, 1.7297039284079146E9, 0.0, 2024-10-23 22:48:48.407
88.0, -46508.34757189126, -55943.30947915429, -27236.852316481152, -27317.095079075705, -19451.38209478642, -18676.87179766557, -187500.02235174447, -187500.02235174447, -0.034, 0.878, 0.44, 192.0, 254.0, 240.0, 27.0, 112.0, 13.0, 192.0, 0.0, 0.0, 0.0, 1.7297039284119723E9, 0.0, 2024-10-23 22:48:48.411
89.0, -46483.559487290324, -55892.63807447411, -27310.344852250204, -26964.071627148587, -19453.147882598387, -18646.27225950626, -187500.02235174447, -187500.02235174447, -0.034, 0.878, 0.44, 192.0, 0.0, 0.0, 0.0, 0.0, 0.0, 0.0, 0.0, 0.0, 0.0, 1.729703928415952E9, 0.0, 2024-10-23 22:48:48.415
90.0, -46494.55654556234, -55930.03254294784, -24693.35790793394, -26774.57353765649, -19550.10975004551, -18723.922219743996, -187500.02235174447, -187500.02235174447, -0.034, 0.878, 0.44, 192.0, 0.0, 0.0, 0.0, 0.0, 0.0, 0.0, 0.0, 0.0, 0.0, 1.7297039284209187E9, 0.0, 2024-10-23 22:48:48.420
91.0, -46633.62909956326, -56073.642501073184, -21306.44277411017, -26977.639136032958, -19663.65661187847, -18864.91702376807, -187500.02235174447, -187500.02235174447, -0.034, 0.878, 0.44, 192.0, 0.0, 0.0, 0.0, 0.0, 0.0, 0.0, 0.0, 0.0, 0.0, 1.7297039284249501E9, 0.0, 2024-10-23 22:48:48.424
92.0, -46597.26281133447, -56062.08664918979, -23828.323045769102, -27461.71086570154, -19543.06895054209, -18790.597473454174, -187500.02235174447, -187500.02235174447, -0.034, 0.878, 0.44, 192.0, 0.0, 0.0, 0.0, 0.0, 0.0, 0.0, 0.0, 0.0, 0.0, 1.7297039284289422E9, 0.0, 2024-10-23 22:48:48.428
93.0, -46473.94823717454, -55918.946077698005, -27221.76488897382, -27301.135933534617, -19437.65812369086, -18679.84457967813, -187500.02235174447, -187500.02235174447, -0.034, 0.878, 0.44, 192.0, 0.0, 0.0, 0.0, 0.0, 0.0, 0.0, 0.0, 0.0, 0.0, 1.7297039284329734E9, 0.0, 2024-10-23 22:48:48.432
94.0, -46468.09208012725, -55896.661388476066, -27310.45661097248, -26973.95109819783, -19467.073019394044, -18666.992326616328, -187500.02235174447, -187500.02235174447, -0.034, 0.878, 0.44, 192.0, 0.0, 0.0, 0.0, 0.0, 0.0, 0.0, 0.0, 0.0, 0.0, 1.7297039284369893E9, 0.0, 2024-10-23 22:48:48.436
95.0, -46529.60408086826, -55937.56508082928, -24708.691204630282, -26799.473380979704, -19556.524700704183, -18741.513042630322, -187500.02235174447, -187500.02235174447, -0.034, 0.878, 0.44, 192.0, 0.0, 0.0, 0.0, 0.0, 0.0, 0.0, 0.0, 0.0, 0.0, 1.7297039284420688E9, 0.0, 2024-10-23 22:48:48.442
96.0, -46617.89347146672, -56060.14204742218, -21293.70227977065, -26969.458397562314, -19621.948256724867, -18841.15711941208, -187500.02235174447, -187500.02235174447, -0.034, 0.878, 0.44, 192.0, 0.0, 0.0, 0.0, 0.0, 0.0, 0.0, 0.0, 0.0, 0.0, 1.7297039284460213E9, 0.0, 2024-10-23 22:48:48.446
97.0, -46590.8478606758, -56063.22658815701, -23816.364862485512, -27474.87604318572, -19514.23520019474, -18776.605281425152, -187500.02235174447, -187500.02235174447, -0.034, 0.878, 0.44, 192.0, 0.0, 0.0, 0.0, 0.0, 0.0, 0.0, 0.0, 0.0, 0.0, 1.729703928450028E9, 0.0, 2024-10-23 22:48:48.450
98.0, -46467.62269349369, -55910.18419387152, -27362.156195897605, -27330.21555307097, -19403.0799750185, -18665.673573693464, -187500.02235174447, -187500.02235174447, -0.034, 0.878, 0.44, 192.0, 0.0, 0.0, 0.0, 0.0, 0.0, 0.0, 0.0, 0.0, 0.0, 1.7297039284710324E9, 0.0, 2024-10-23 22:48:48.471
99.0, -46476.921019187095, -55881.01516735735, -27594.70374521062, -26979.04729593364, -19427.912763108347, -18640.17023326996, -187500.02235174447, -187500.02235174447, -0.026000000000000002, 0.88, 0.44, 192.0, 255.0, 48.0, 27.0, 128.0, 13.0, 192.0, 0.0, 0.0, 0.0, 1.729703928475042E9, 0.0, 2024-10-23 22:48:48.475
100.0, -46536.19784548257, -55927.462092335474, -24652.342456858452, -26736.977903482664, -19548.63453491146, -18731.5218128588, -187500.02235174447, -187500.02235174447, -0.026000000000000002, 0.88, 0.44, 192.0, 0.0, 0.0, 0.0, 0.0, 0.0, 0.0, 0.0, 0.0, 0.0, 1.7297039284780257E9, 0.0, 2024-10-23 22:48:48.478
101.0, -46686.870954855796, -56095.10017575028, -20467.984136102696, -26927.682987175347, -19675.45833295087, -18880.876169309162, -187500.02235174447, -187500.02235174447, -0.026000000000000002, 0.88, 0.44, 192.0, 0.0, 0.0, 0.0, 0.0, 0.0, 0.0, 0.0, 0.0, 0.0, 1.7297039284820426E9, 0.0, 2024-10-23 22:48:48.482
102.0, -46677.90790532922, -56156.76863870247, -23337.47873753056, -27604.426754048676, -19543.851261598025, -18813.597418498688, -187500.02235174447, -187500.02235174447, -0.026000000000000002, 0.88, 0.44, 192.0, 0.0, 0.0, 0.0, 0.0, 0.0, 0.0, 0.0, 0.0, 0.0, 1.729703928485033E9, 0.0, 2024-10-23 22:48:48.485
103.0, -46497.66343804162, -55962.88960729714, -27585.31601253939, -27418.66140588062, -19388.21606495572, -18659.482140479344, -187500.02235174447, -187500.02235174447, -0.026000000000000002, 0.88, 0.44, 192.0, 0.0, 0.0, 0.0, 0.0, 0.0, 0.0, 0.0, 0.0, 0.0, 1.7297039284880376E9, 0.0, 2024-10-23 22:48:48.488
104.0, -46462.884123669166, -55870.44279222999, -27892.1831121663, -26967.111464394507, -19414.74758562417, -18623.182907483926, -187500.02235174447, -187500.02235174447, -0.026000000000000002, 0.88, 0.44, 192.0, 0.0, 0.0, 0.0, 0.0, 0.0, 0.0, 0.0, 0.0, 0.0, 1.7297039284920304E9, 0.0, 2024-10-23 22:48:48.492
105.0, -46541.00347054046, -55912.64288576161, -24807.888246522936, -26712.65920551529, -19539.693837129336, -18723.94457148845, -187500.02235174447, -187500.02235174447, -0.026000000000000002, 0.88, 0.44, 192.0, 0.0, 0.0, 0.0, 0.0, 0.0, 0.0, 0.0, 0.0, 0.0, 1.7297039284950607E9, 0.0, 2024-10-23 22:48:48.495
106.0, -46686.155699033225, -56096.59774262879, -20591.276358518167, -26907.74523112121, -19662.963707800354, -18868.046267991813, -187500.02235174447, -187500.02235174447, -0.026000000000000002, 0.88, 0.44, 192.0, 0.0, 0.0, 0.0, 0.0, 0.0, 0.0, 0.0, 0.0, 0.0, 1.7297039284990807E9, 0.0, 2024-10-23 22:48:48.499
107.0, -46663.82630632238, -56148.58790023183, -23369.128807679273, -27582.477340993566, -19550.69089540135, -18813.038624887304, -187500.02235174447, -187500.02235174447, -0.026000000000000002, 0.88, 0.44, 192.0, 0.0, 0.0, 0.0, 0.0, 0.0, 0.0, 0.0, 0.0, 0.0, 1.7297039285020907E9, 0.0, 2024-10-23 22:48:48.502
108.0, -46492.723702517, -55955.96056651599, -27596.73775395605, -27418.303777969337, -19413.495887934674, -18673.74255344183, -187500.02235174447, -187500.02235174447, -0.026000000000000002, 0.88, 0.44, 192.0, 0.0, 0.0, 0.0, 0.0, 0.0, 0.0, 0.0, 0.0, 0.0, 1.7297039285050905E9, 0.0, 2024-10-23 22:48:48.505
109.0, -46490.30971411583, -55904.909182180076, -27924.704900348774, -26986.758647770723, -19442.597859215482, -18646.31696299517, -187500.02235174447, -187500.02235174447, -0.026000000000000002, 0.878, 0.446, 192.0, 255.0, 48.0, 27.0, 112.0, 13.0, 240.0, 0.0, 0.0, 0.0, 1.729703928508082E9, 0.0, 2024-10-23 22:48:48.508
110.0, -46525.089028488284, -55921.13654865463, -24837.124328270475, -26712.815667726478, -19545.885270343457, -18728.996065735348, -187500.02235174447, -187500.02235174447, -0.026000000000000002, 0.878, 0.446, 192.0, 0.0, 0.0, 0.0, 0.0, 0.0, 0.0, 0.0, 0.0, 0.0, 1.7297039285120585E9, 0.0, 2024-10-23 22:48:48.512
111.0, -46684.43461471017, -56089.6910535921, -20595.992576598237, -26908.684004388335, -19673.714896883357, -18885.614739133685, -187500.02235174447, -187500.02235174447, -0.026000000000000002, 0.878, 0.446, 192.0, 0.0, 0.0, 0.0, 0.0, 0.0, 0.0, 0.0, 0.0, 0.0, 1.729703928515064E9, 0.0, 2024-10-23 22:48:48.515
112.0, -46616.5523667994, -56122.101083052294, -23390.899406778743, -27566.674657663665, -19531.043712025134, -18808.501220762875, -187500.02235174447, -187500.02235174447, -0.026000000000000002, 0.878, 0.446, 192.0, 0.0, 0.0, 0.0, 0.0, 0.0, 0.0, 0.0, 0.0, 0.0, 1.7297039285180595E9, 0.0, 2024-10-23 22:48:48.518
113.0, -46454.50221949843, -55957.681650839055, -27645.84453652436, -27412.93935930006, -19401.627111628906, -18673.78725693074, -187500.02235174447, -187500.02235174447, -0.026000000000000002, 0.878, 0.446, 192.0, 0.0, 0.0, 0.0, 0.0, 0.0, 0.0, 0.0, 0.0, 0.0, 1.7297039285220752E9, 0.0, 2024-10-23 22:48:48.522
114.0, -46477.993902920956, -55906.33969382521, -27928.884676561916, -26975.113388909507, -19438.686303935803, -18652.97778284285, -187500.02235174447, -187500.02235174447, -0.026000000000000002, 0.878, 0.446, 192.0, 0.0, 0.0, 0.0, 0.0, 0.0, 0.0, 0.0, 0.0, 0.0, 1.7297039285251076E9, 0.0, 2024-10-23 22:48:48.525
115.0, -46550.2347410005, -55937.94506048501, -24839.247743993732, -26719.76706025208, -19555.854148370523, -18743.368237420113, -187500.02235174447, -187500.02235174447, -0.026000000000000002, 0.878, 0.446, 192.0, 0.0, 0.0, 0.0, 0.0, 0.0, 0.0, 0.0, 0.0, 0.0, 1.7297039285281076E9, 0.0, 2024-10-23 22:48:48.528
116.0, -46660.98763477655, -56105.71725436655, -20615.2150768298, -26908.214617754773, -19667.45640843587, -18880.496189653422, -187500.02235174447, -187500.02235174447, -0.026000000000000002, 0.878, 0.446, 192.0, 0.0, 0.0, 0.0, 0.0, 0.0, 0.0, 0.0, 0.0, 0.0, 1.7297039285311067E9, 0.0, 2024-10-23 22:48:48.531
117.0, -46626.47654133756, -56139.04370534942, -23378.225967672584, -27565.154739040703, -19535.312895216095, -18810.691691719498, -187500.02235174447, -187500.02235174447, -0.026000000000000002, 0.878, 0.446, 192.0, 0.0, 0.0, 0.0, 0.0, 0.0, 0.0, 0.0, 0.0, 0.0, 1.729703928535135E9, 0.0, 2024-10-23 22:48:48.535
118.0, -46461.72183295749, -55941.40958087559, -27600.515198769, -27394.27565267988, -19397.201466226754, -18662.298460280712, -187500.02235174447, -187500.02235174447, -0.026000000000000002, 0.878, 0.446, 192.0, 0.0, 0.0, 0.0, 0.0, 0.0, 0.0, 0.0, 0.0, 0.0, 1.729703928538093E9, 0.0, 2024-10-23 22:48:48.538
119.0, -46452.69172819755, -55871.51567596384, -27930.76222309616, -26953.365141554492, -19423.80004212857, -18629.150823253494, -187500.02235174447, -187500.02235174447, -0.02, 0.886, 0.436, 192.0, 255.0, 96.0, 27.0, 176.0, 13.0, 160.0, 0.0, 0.0, 0.0, 1.7297039285411296E9, 0.0, 2024-10-23 22:48:48.541
120.0, -46515.45542662805, -55911.1453188831, -24874.67525895539, -26699.315214075472, -19542.554860419616, -18720.860030753618, -187500.02235174447, -187500.02235174447, -0.02, 0.886, 0.436, 192.0, 0.0, 0.0, 0.0, 0.0, 0.0, 0.0, 0.0, 0.0, 0.0, 1.7297039285451615E9, 0.0, 2024-10-23 22:48:48.545
121.0, -46656.67374809668, -56079.118678464736, -20610.141230838446, -26888.925062289843, -19665.534158412716, -18866.660459835584, -187500.02235174447, -187500.02235174447, -0.02, 0.886, 0.436, 192.0, 0.0, 0.0, 0.0, 0.0, 0.0, 0.0, 0.0, 0.0, 0.0, 1.729703928548224E9, 0.0, 2024-10-23 22:48:48.548
122.0, -46634.769038530474, -56121.67639990764, -23383.34451715285, -27562.36077098379, -19526.685121856346, -18796.945368879482, -187500.02235174447, -187500.02235174447, -0.02, 0.886, 0.436, 192.0, 0.0, 0.0, 0.0, 0.0, 0.0, 0.0, 0.0, 0.0, 0.0, 1.7297039285511196E9, 0.0, 2024-10-23 22:48:48.551
123.0, -46478.887972699165, -55956.11702872718, -27627.31494037091, -27401.741135327953, -19380.907044518834, -18656.26348927778, -187500.02235174447, -187500.02235174447, -0.02, 0.886, 0.436, 192.0, 0.0, 0.0, 0.0, 0.0, 0.0, 0.0, 0.0, 0.0, 0.0, 1.7297039285551283E9, 0.0, 2024-10-23 22:48:48.555
124.0, -46482.218382623, -55887.899504649584, -27930.114022506958, -26969.57015628459, -19421.56486768304, -18643.41123621598, -187500.02235174447, -187500.02235174447, -0.02, 0.886, 0.436, 192.0, 0.0, 0.0, 0.0, 0.0, 0.0, 0.0, 0.0, 0.0, 0.0, 1.7297039285581615E9, 0.0, 2024-10-23 22:48:48.558
125.0, -46554.59333116929, -55921.36006609918, -24854.58104069007, -26718.023624184567, -19549.26038375621, -18742.60827810863, -187500.02235174447, -187500.02235174447, -0.02, 0.886, 0.436, 192.0, 0.0, 0.0, 0.0, 0.0, 0.0, 0.0, 0.0, 0.0, 0.0, 1.7297039285611584E9, 0.0, 2024-10-23 22:48:48.561
126.0, -46700.52787071799, -56108.71238812356, -20608.330739537567, -26915.791859125122, -19673.111399783065, -18894.3095677268, -187500.02235174447, -187500.02235174447, -0.02, 0.886, 0.436, 192.0, 0.0, 0.0, 0.0, 0.0, 0.0, 0.0, 0.0, 0.0, 0.0, 1.729703928564186E9, 0.0, 2024-10-23 22:48:48.564
127.0, -46677.215001251105, -56144.20695831859, -23374.940261237654, -27586.992393373537, -19536.49753767223, -18821.219363357945, -187500.02235174447, -187500.02235174447, -0.02, 0.886, 0.436, 192.0, 0.0, 0.0, 0.0, 0.0, 0.0, 0.0, 0.0, 0.0, 0.0, 1.7297039285681791E9, 0.0, 2024-10-23 22:48:48.568
128.0, -46542.724554863526, -55987.968264576, -27618.865980966806, -27419.980158803482, -19406.142164008877, -18684.02435589127, -187500.02235174447, -187500.02235174447, -0.02, 0.886, 0.436, 192.0, 0.0, 0.0, 0.0, 0.0, 0.0, 0.0, 0.0, 0.0, 0.0, 1.7297039285711503E9, 0.0, 2024-10-23 22:48:48.571
129.0, -46501.06090319883, -55907.88196419263, -27950.05177856109, -26979.695496522847, -19424.828222373515, -18650.720256652865, -187500.02235174447, -187500.02235174447, -0.022, 0.886, 0.434, 192.0, 255.0, 80.0, 27.0, 176.0, 13.0, 144.0, 0.0, 0.0, 0.0, 1.729703928576154E9, 0.0, 2024-10-23 22:48:48.576
130.0, -46534.40970592615, -55903.25515309038, -24879.50323575774, -26700.052821642497, -19542.040770297142, -18734.025208237792, -187500.02235174447, -187500.02235174447, -0.022, 0.886, 0.434, 192.0, 0.0, 0.0, 0.0, 0.0, 0.0, 0.0, 0.0, 0.0, 0.0, 1.729703928580172E9, 0.0, 2024-10-23 22:48:48.580
131.0, -46670.95651280362, -56087.008844257456, -20593.086849819047, -26891.65197511339, -19658.515710653748, -18880.227968719955, -187500.02235174447, -187500.02235174447, -0.022, 0.886, 0.434, 192.0, 0.0, 0.0, 0.0, 0.0, 0.0, 0.0, 0.0, 0.0, 0.0, 1.7297039285841942E9, 0.0, 2024-10-23 22:48:48.584
132.0, -46669.034262780464, -56166.31283358489, -23350.53215629246, -27585.561881728398, -19531.28958121414, -18817.48662203391, -187500.02235174447, -187500.02235174447, -0.022, 0.886, 0.434, 192.0, 0.0, 0.0, 0.0, 0.0, 0.0, 0.0, 0.0, 0.0, 0.0, 1.729703928588205E9, 0.0, 2024-10-23 22:48:48.588
133.0, -46511.29800215936, -55973.55138940232, -27623.448088580142, -27418.70610936953, -19396.21798947072, -18677.229425576857, -187500.02235174447, -187500.02235174447, -0.022, 0.886, 0.434, 192.0, 0.0, 0.0, 0.0, 0.0, 0.0, 0.0, 0.0, 0.0, 0.0, 1.7297039285921743E9, 0.0, 2024-10-23 22:48:48.592
134.0, -46485.28057161338, -55873.25911203136, -27962.68051417834, -26968.296106850637, -19427.108100307956, -18646.965163584373, -187500.02235174447, -187500.02235174447, -0.022, 0.886, 0.434, 192.0, 0.0, 0.0, 0.0, 0.0, 0.0, 0.0, 0.0, 0.0, 0.0, 1.7297039285951495E9, 0.0, 2024-10-23 22:48:48.595
135.0, -46555.53210443641, -55926.21039464598, -24913.567294307628, -26723.52215332057, -19543.87361334248, -18739.79195830726, -187500.02235174447, -187500.02235174447, -0.022, 0.886, 0.434, 192.0, 0.0, 0.0, 0.0, 0.0, 0.0, 0.0, 0.0, 0.0, 0.0, 1.7297039286012485E9, 0.0, 2024-10-23 22:48:48.601
136.0, -46649.56589335989, -56068.72511729302, -20584.97316658177, -26883.448884898295, -19649.575012871624, -18870.393201159623, -187500.02235174447, -187500.02235174447, -0.022, 0.886, 0.434, 192.0, 0.0, 0.0, 0.0, 0.0, 0.0, 0.0, 0.0, 0.0, 0.0, 1.729703928604251E9, 0.0, 2024-10-23 22:48:48.604
137.0, -46663.736899344556, -56145.01162111898, -23307.19212379362, -27580.93507062615, -19534.038845782143, -18818.358340067665, -187500.02235174447, -187500.02235174447, -0.022, 0.886, 0.434, 192.0, 0.0, 0.0, 0.0, 0.0, 0.0, 0.0, 0.0, 0.0, 0.0, 1.7297039286082277E9, 0.0, 2024-10-23 22:48:48.608
138.0, -46504.480720100495, -55973.93136905806, -27596.000146389026, -27423.221161749505, -19396.9779487822, -18675.329527298156, -187500.02235174447, -187500.02235174447, -0.022, 0.886, 0.434, 192.0, 0.0, 0.0, 0.0, 0.0, 0.0, 0.0, 0.0, 0.0, 0.0, 1.7297039286112375E9, 0.0, 2024-10-23 22:48:48.611
139.0, -46456.73739394396, -55883.093879591695, -27965.742703168715, -26957.701379978822, -19404.421079685817, -18624.948695295894, -187500.02235174447, -187500.02235174447, -0.026000000000000002, 0.892, 0.438, 192.0, 255.0, 48.0, 27.0, 224.0, 13.0, 176.0, 0.0, 0.0, 0.0, 1.7297039286152523E9, 0.0, 2024-10-23 22:48:48.615
140.0, -46558.81781087134, -55943.93532799904, -24896.959948177333, -26709.105278146897, -19547.740465133247, -18731.208888436424, -187500.02235174447, -187500.02235174447, -0.026000000000000002, 0.892, 0.438, 192.0, 0.0, 0.0, 0.0, 0.0, 0.0, 0.0, 0.0, 0.0, 0.0, 1.729703928619284E9, 0.0, 2024-10-23 22:48:48.619
141.0, -46651.08581198285, -56083.61137910025, -20570.422180941365, -26863.153500932873, -19638.287381921695, -18845.471006091953, -187500.02235174447, -187500.02235174447, -0.026000000000000002, 0.892, 0.438, 192.0, 0.0, 0.0, 0.0, 0.0, 0.0, 0.0, 0.0, 0.0, 0.0, 1.7297039286232307E9, 0.0, 2024-10-23 22:48:48.623
142.0, -46595.47467177804, -56100.46459441955, -23279.65477462468, -27527.11206997777, -19496.554970330595, -18768.692763887975, -187500.02235174447, -187500.02235174447, -0.026000000000000002, 0.892, 0.438, 192.0, 0.0, 0.0, 0.0, 0.0, 0.0, 0.0, 0.0, 0.0, 0.0, 1.729703928627296E9, 0.0, 2024-10-23 22:48:48.627
143.0, -46482.86658321221, -55958.35220317271, -27600.09051562435, -27404.445696407045, -19392.015861513122, -18658.54336721222, -187500.02235174447, -187500.02235174447, -0.026000000000000002, 0.892, 0.438, 192.0, 0.0, 0.0, 0.0, 0.0, 0.0, 0.0, 0.0, 0.0, 0.0, 1.729703928631276E9, 0.0, 2024-10-23 22:48:48.631
144.0, -46470.88604818416, -55896.996664642895, -27963.48517697873, -26967.80436847262, -19414.32290247952, -18627.92147730845, -187500.02235174447, -187500.02235174447, -0.026000000000000002, 0.892, 0.438, 192.0, 0.0, 0.0, 0.0, 0.0, 0.0, 0.0, 0.0, 0.0, 0.0, 1.7297039286362717E9, 0.0, 2024-10-23 22:48:48.636
145.0, -46521.110417975244, -55943.37653438766, -24896.468209799317, -26717.978920695656, -19536.11755801649, -18727.342036645656, -187500.02235174447, -187500.02235174447, -0.026000000000000002, 0.892, 0.438, 192.0, 0.0, 0.0, 0.0, 0.0, 0.0, 0.0, 0.0, 0.0, 0.0, 1.7297039286393533E9, 0.0, 2024-10-23 22:48:48.639
146.0, -46670.442422681146, -56089.62399835873, -20575.585433910543, -26892.7472105917, -19671.412667204462, -18885.570035644774, -187500.02235174447, -187500.02235174447, -0.026000000000000002, 0.892, 0.438, 192.0, 0.0, 0.0, 0.0, 0.0, 0.0, 0.0, 0.0, 0.0, 0.0, 1.729703928660359E9, 0.0, 2024-10-23 22:48:48.660
147.0, -46684.45696645462, -56138.12728382675, -23280.07945776933, -27578.297564780423, -19555.921203603888, -18827.746072738897, -187500.02235174447, -187500.02235174447, -0.026000000000000002, 0.892, 0.438, 192.0, 0.0, 0.0, 0.0, 0.0, 0.0, 0.0, 0.0, 0.0, 0.0, 1.7297039286633358E9, 0.0, 2024-10-23 22:48:48.663
148.0, -46517.84706328477, -55956.139380471635, -27623.60455079133, -27433.882943854685, -19420.76020488265, -18695.021414163282, -187500.02235174447, -187500.02235174447, -0.026000000000000002, 0.892, 0.438, 192.0, 0.0, 0.0, 0.0, 0.0, 0.0, 0.0, 0.0, 0.0, 0.0, 1.729703928667357E9, 0.0, 2024-10-23 22:48:48.667
149.0, -46475.24463835295, -55866.307719505756, -27994.48704653824, -26968.43021731737, -19441.793196415092, -18660.51032072429, -187500.02235174447, -187500.02235174447, -0.026000000000000002, 0.886, 0.436, 192.0, 255.0, 48.0, 27.0, 176.0, 13.0, 160.0, 0.0, 0.0, 0.0, 1.7297039286704977E9, 0.0, 2024-10-23 22:48:48.670
150.0, -46533.24741521447, -55930.92661272605, -24952.21346047085, -26725.62321729937, -19562.939651362856, -18755.147606748058, -187500.02235174447, -187500.02235174447, -0.026000000000000002, 0.886, 0.436, 192.0, 0.0, 0.0, 0.0, 0.0, 0.0, 0.0, 0.0, 0.0, 0.0, 1.7297039286733003E9, 0.0, 2024-10-23 22:48:48.673
151.0, -46693.777643892485, -56131.35470525679, -20584.682593903854, -26925.268998774172, -19702.81686816417, -18919.1647075611, -187500.02235174447, -187500.02235174447, -0.026000000000000002, 0.886, 0.436, 192.0, 0.0, 0.0, 0.0, 0.0, 0.0, 0.0, 0.0, 0.0, 0.0, 1.7297039286784313E9, 0.0, 2024-10-23 22:48:48.678
152.0, -46698.85148988384, -56173.53244704395, -23252.60916383376, -27608.517123284, -19576.30599454713, -18856.468064363966, -187500.02235174447, -187500.02235174447, -0.026000000000000002, 0.886, 0.436, 192.0, 0.0, 0.0, 0.0, 0.0, 0.0, 0.0, 0.0, 0.0, 0.0, 1.7297039286814167E9, 0.0, 2024-10-23 22:48:48.681
153.0, -46556.0908980478, -55993.08681405626, -27591.239224820045, -27446.556382960844, -19423.353007239464, -18705.63849277955, -187500.02235174447, -187500.02235174447, -0.026000000000000002, 0.886, 0.436, 192.0, 0.0, 0.0, 0.0, 0.0, 0.0, 0.0, 0.0, 0.0, 0.0, 1.7297039286853065E9, 0.0, 2024-10-23 22:48:48.685
154.0, -46461.38655679066, -55884.07735634773, -27983.512340010686, -26974.71105750931, -19425.834050874004, -18647.97099208486, -187500.02235174447, -187500.02235174447, -0.026000000000000002, 0.886, 0.436, 192.0, 0.0, 0.0, 0.0, 0.0, 0.0, 0.0, 0.0, 0.0, 0.0, 1.7297039286883707E9, 0.0, 2024-10-23 22:48:48.688
155.0, -46519.41168539663, -55908.84308920421, -24915.713061775336, -26697.504722774593, -19553.887194858456, -18734.136966960068, -187500.02235174447, -187500.02235174447, -0.026000000000000002, 0.886, 0.436, 192.0, 0.0, 0.0, 0.0, 0.0, 0.0, 0.0, 0.0, 0.0, 0.0, 1.729703928692444E9, 0.0, 2024-10-23 22:48:48.692
156.0, -46681.64064665326, -56074.82714352931, -20554.708904589286, -26869.344934146993, -19675.883016095522, -18881.21144547599, -187500.02235174447, -187500.02235174447, -0.026000000000000002, 0.886, 0.436, 192.0, 0.0, 0.0, 0.0, 0.0, 0.0, 0.0, 0.0, 0.0, 0.0, 1.7297039286954374E9, 0.0, 2024-10-23 22:48:48.695
157.0, -46656.606692863315, -56121.139958040716, -23241.388588117195, -27552.79422435692, -19539.090340029044, -18807.137764351104, -187500.02235174447, -187500.02235174447, -0.026000000000000002, 0.886, 0.436, 192.0, 0.0, 0.0, 0.0, 0.0, 0.0, 0.0, 0.0, 0.0, 0.0, 1.7297039286983047E9, 0.0, 2024-10-23 22:48:48.698
158.0, -46478.463289554515, -55932.02184820436, -27607.4665912946, -27385.64787932013, -19394.40749816984, -18653.290707265223, -187500.02235174447, -187500.02235174447, -0.026000000000000002, 0.886, 0.436, 192.0, 0.0, 0.0, 0.0, 0.0, 0.0, 0.0, 0.0, 0.0, 0.0, 1.729703928701316E9, 0.0, 2024-10-23 22:48:48.701
159.0, -46470.10373712823, -55873.504981220365, -28009.842694979037, -26936.489574490737, -19421.676626405315, -18618.31022719267, -187500.02235174447, -187500.02235174447, -0.028, 0.882, 0.438, 192.0, 255.0, 32.0, 27.0, 144.0, 13.0, 176.0, 0.0, 0.0, 0.0, 1.7297039287054057E9, 0.0, 2024-10-23 22:48:48.705
160.0, -46559.95774983856, -55924.08697892273, -24961.444730930893, -26683.26666155656, -19554.557747192117, -18722.80463252123, -187500.02235174447, -187500.02235174447, -0.028, 0.882, 0.438, 192.0, 0.0, 0.0, 0.0, 0.0, 0.0, 0.0, 0.0, 0.0, 0.0, 1.7297039287083786E9, 0.0, 2024-10-23 22:48:48.708
161.0, -46671.93998955965, -56072.16728593913, -20532.558325834078, -26843.998055934677, -19669.6915828814, -18865.319355168267, -187500.02235174447, -187500.02235174447, -0.028, 0.882, 0.438, 192.0, 0.0, 0.0, 0.0, 0.0, 0.0, 0.0, 0.0, 0.0, 0.0, 1.7297039287114816E9, 0.0, 2024-10-23 22:48:48.711
162.0, -46681.819460608895, -56132.98638260202, -23230.145660656173, -27553.241259246024, -19538.173918506374, -18803.315616049244, -187500.02235174447, -187500.02235174447, -0.028, 0.882, 0.438, 192.0, 0.0, 0.0, 0.0, 0.0, 0.0, 0.0, 0.0, 0.0, 0.0, 1.7297039287154367E9, 0.0, 2024-10-23 22:48:48.715
163.0, -46489.14742340415, -55964.27541545337, -27611.780477974473, -27391.504036367423, -19381.26467243012, -18644.729989138843, -187500.02235174447, -187500.02235174447, -0.028, 0.882, 0.438, 192.0, 0.0, 0.0, 0.0, 0.0, 0.0, 0.0, 0.0, 0.0, 0.0, 1.7297039287184076E9, 0.0, 2024-10-23 22:48:48.718
164.0, -46443.6616234376, -55874.15318180957, -28013.620139791983, -26933.986179111744, -19395.301567948052, -18607.87196253204, -187500.02235174447, -187500.02235174447, -0.028, 0.882, 0.438, 192.0, 0.0, 0.0, 0.0, 0.0, 0.0, 0.0, 0.0, 0.0, 0.0, 1.7297039287213688E9, 0.0, 2024-10-23 22:48:48.721
165.0, -46502.1784904216, -55869.794591640784, -24977.71680089436, -26658.947963589188, -19507.28380766914, -18695.580207774667, -187500.02235174447, -187500.02235174447, -0.028, 0.882, 0.438, 192.0, 0.0, 0.0, 0.0, 0.0, 0.0, 0.0, 0.0, 0.0, 0.0, 1.7297039287253733E9, 0.0, 2024-10-23 22:48:48.725
166.0, -46674.80101284993, -56066.75816378095, -20548.472767886255, -26833.06805289603, -19645.08231223611, -18863.06182897828, -187500.02235174447, -187500.02235174447, -0.028, 0.882, 0.438, 192.0, 0.0, 0.0, 0.0, 0.0, 0.0, 0.0, 0.0, 0.0, 0.0, 1.729703928728356E9, 0.0, 2024-10-23 22:48:48.728
167.0, -46639.01586997698, -56134.260432035975, -23230.860916478745, -27548.390930699225, -19506.68031056885, -18800.745165436885, -187500.02235174447, -187500.02235174447, -0.028, 0.882, 0.438, 192.0, 0.0, 0.0, 0.0, 0.0, 0.0, 0.0, 0.0, 0.0, 0.0, 1.7297039287313888E9, 0.0, 2024-10-23 22:48:48.731
168.0, -46450.635367707655, -55955.78175256035, -27619.76005074502, -27388.397143888134, -19369.77587578009, -18658.96805035687, -187500.02235174447, -187500.02235174447, -0.028, 0.882, 0.438, 192.0, 0.0, 0.0, 0.0, 0.0, 0.0, 0.0, 0.0, 0.0, 0.0, 1.7297039287353668E9, 0.0, 2024-10-23 22:48:48.735
169.0, -46455.17277183208, -55881.35044352418, -28032.50736385672, -26944.469147261283, -19407.259751231642, -18642.40540771549, -187500.02235174447, -187500.02235174447, -0.038, 0.88, 0.444, 192.0, 254.0, 208.0, 27.0, 128.0, 13.0, 224.0, 0.0, 0.0, 0.0, 1.7297039287386332E9, 0.0, 2024-10-23 22:48:48.738
170.0, -46541.651671129664, -55913.31343809527, -24978.47676020584, -26686.775885436047, -19551.20498552382, -18751.66073461303, -187500.02235174447, -187500.02235174447, -0.038, 0.88, 0.444, 192.0, 0.0, 0.0, 0.0, 0.0, 0.0, 0.0, 0.0, 0.0, 0.0, 1.7297039287414007E9, 0.0, 2024-10-23 22:48:48.741
171.0, -46705.445254498154, -56095.27898970593, -20535.598163079998, -26861.678285798826, -19685.427210977938, -18907.251227766425, -187500.02235174447, -187500.02235174447, -0.038, 0.88, 0.444, 192.0, 0.0, 0.0, 0.0, 0.0, 0.0, 0.0, 0.0, 0.0, 0.0, 1.729703928745524E9, 0.0, 2024-10-23 22:48:48.745
172.0, -46647.308367169906, -56138.619022204766, -23189.800761914346, -27557.68925639263, -19535.67052312738, -18825.421491315545, -187500.02235174447, -187500.02235174447, -0.038, 0.88, 0.444, 192.0, 0.0, 0.0, 0.0, 0.0, 0.0, 0.0, 0.0, 0.0, 0.0, 1.7297039287485132E9, 0.0, 2024-10-23 22:48:48.748
173.0, -46475.445804053044, -55933.02767670485, -27603.532684270467, -27397.3154899258, -19390.384184167884, -18671.820303418674, -187500.02235174447, -187500.02235174447, -0.038, 0.88, 0.444, 192.0, 0.0, 0.0, 0.0, 0.0, 0.0, 0.0, 0.0, 0.0, 0.0, 1.7297039287515106E9, 0.0, 2024-10-23 22:48:48.751
174.0, -46464.15817310312, -55850.57209140922, -28053.562707133617, -26937.674216946867, -19413.98762631269, -18641.399579215, -187500.02235174447, -187500.02235174447, -0.038, 0.88, 0.444, 192.0, 0.0, 0.0, 0.0, 0.0, 0.0, 0.0, 0.0, 0.0, 0.0, 1.7297039287565844E9, 0.0, 2024-10-23 22:48:48.756
175.0, -46549.765354366944, -55914.54278404031, -25021.548571771214, -26688.362859292374, -19553.864843114003, -18743.7258653314, -187500.02235174447, -187500.02235174447, -0.038, 0.88, 0.444, 192.0, 0.0, 0.0, 0.0, 0.0, 0.0, 0.0, 0.0, 0.0, 0.0, 1.729703928759528E9, 0.0, 2024-10-23 22:48:48.759
176.0, -46696.90688811623, -56084.93013202312, -20576.54655892212, -26860.627753809425, -19683.23674002132, -18894.711899126996, -187500.02235174447, -187500.02235174447, -0.038, 0.88, 0.444, 192.0, 0.0, 0.0, 0.0, 0.0, 0.0, 0.0, 0.0, 0.0, 0.0, 1.7297039287645073E9, 0.0, 2024-10-23 22:48:48.764
177.0, -46649.63294859326, -56129.11953081126, -23220.154430884653, -27557.845718603818, -19537.92804931737, -18822.225191858433, -187500.02235174447, -187500.02235174447, -0.038, 0.88, 0.444, 192.0, 0.0, 0.0, 0.0, 0.0, 0.0, 0.0, 0.0, 0.0, 0.0, 1.72970392876857E9, 0.0, 2024-10-23 22:48:48.768
178.0, -46489.505051315435, -55949.143284457125, -27615.22264662059, -27406.41264991911, -19402.923512807312, -18682.906768668505, -187500.02235174447, -187500.02235174447, -0.038, 0.88, 0.444, 192.0, 0.0, 0.0, 0.0, 0.0, 0.0, 0.0, 0.0, 0.0, 0.0, 1.7297039287735257E9, 0.0, 2024-10-23 22:48:48.773
179.0, -46477.23394360947, -55880.5904842127, -28047.840660553058, -26952.046388631632, -19430.326751509518, -18647.54630894021, -187500.02235174447, -187500.02235174447, -0.036000000000000004, 0.886, 0.442, 192.0, 254.0, 224.0, 27.0, 176.0, 13.0, 208.0, 0.0, 0.0, 0.0, 1.7297039287765045E9, 0.0, 2024-10-23 22:48:48.776
180.0, -46561.67883416162, -55923.43877833352, -25017.726423469358, -26697.9517576637, -19556.412941981907, -18741.6248013526, -187500.02235174447, -187500.02235174447, -0.036000000000000004, 0.886, 0.442, 192.0, 0.0, 0.0, 0.0, 0.0, 0.0, 0.0, 0.0, 0.0, 0.0, 1.72970392878175E9, 0.0, 2024-10-23 22:48:48.781
181.0, -46677.4161669512, -56076.168248196635, -20545.611744595975, -26852.06703568304, -19673.98311781682, -18883.513675154885, -187500.02235174447, -187500.02235174447, -0.036000000000000004, 0.886, 0.442, 192.0, 0.0, 0.0, 0.0, 0.0, 0.0, 0.0, 0.0, 0.0, 0.0, 1.7297039287845387E9, 0.0, 2024-10-23 22:48:48.784
182.0, -46646.883684025255, -56129.20893778908, -23175.0709623183, -27551.475471434056, -19522.371235176473, -18808.30005506278, -187500.02235174447, -187500.02235174447, -0.036000000000000004, 0.886, 0.442, 192.0, 0.0, 0.0, 0.0, 0.0, 0.0, 0.0, 0.0, 0.0, 0.0, 1.729703928788695E9, 0.0, 2024-10-23 22:48:48.788
183.0, -46507.98994397998, -55970.26568296739, -27590.300451552925, -27408.133734242172, -19391.188846968278, -18674.278995308756, -187500.02235174447, -187500.02235174447, -0.036000000000000004, 0.886, 0.442, 192.0, 0.0, 0.0, 0.0, 0.0, 0.0, 0.0, 0.0, 0.0, 0.0, 1.7297039287915664E9, 0.0, 2024-10-23 22:48:48.791
184.0, -46475.57991451978, -55875.22606554342, -28043.437366895363, -26957.27669683417, -19418.390919970385, -18643.88062284954, -187500.02235174447, -187500.02235174447, -0.036000000000000004, 0.886, 0.442, 192.0, 0.0, 0.0, 0.0, 0.0, 0.0, 0.0, 0.0, 0.0, 0.0, 1.7297039287955902E9, 0.0, 2024-10-23 22:48:48.795
185.0, -46526.47483664451, -55900.081205377726, -24990.41259174497, -26678.75160917659, -19524.71816834428, -18725.17391743349, -187500.02235174447, -187500.02235174447, -0.036000000000000004, 0.886, 0.442, 192.0, 0.0, 0.0, 0.0, 0.0, 0.0, 0.0, 0.0, 0.0, 0.0, 1.729703928799553E9, 0.0, 2024-10-23 22:48:48.799
186.0, -46663.62514062228, -56093.82612631633, -20537.699227058798, -26845.629733279915, -19642.400102901473, -18869.54383487032, -187500.02235174447, -187500.02235174447, -0.036000000000000004, 0.886, 0.442, 192.0, 0.0, 0.0, 0.0, 0.0, 0.0, 0.0, 0.0, 0.0, 0.0, 1.72970392880453E9, 0.0, 2024-10-23 22:48:48.804
187.0, -46647.66599508119, -56153.19235958962, -23175.182721040575, -27560.907907594195, -19518.884363041445, -18814.44678478799, -187500.02235174447, -187500.02235174447, -0.036000000000000004, 0.886, 0.442, 192.0, 0.0, 0.0, 0.0, 0.0, 0.0, 0.0, 0.0, 0.0, 0.0, 1.7297039288075757E9, 0.0, 2024-10-23 22:48:48.807
188.0, -46475.40110056414, -55937.14039768463, -27596.246015578035, -27401.696431839042, -19372.346326392453, -18664.913614381985, -187500.02235174447, -187500.02235174447, -0.036000000000000004, 0.886, 0.442, 192.0, 0.0, 0.0, 0.0, 0.0, 0.0, 0.0, 0.0, 0.0, 0.0, 1.7297039288105948E9, 0.0, 2024-10-23 22:48:48.810
189.0, -46435.70440241151, -55854.4836466889, -28047.281866941677, -26947.732501951756, -19384.908006776335, -18623.45112841739, -187500.02235174447, -187500.02235174447, -0.03, 0.89, 0.436, 192.0, 255.0, 16.0, 27.0, 208.0, 13.0, 160.0, 0.0, 0.0, 0.0, 1.7297039288156593E9, 0.0, 2024-10-23 22:48:48.815
190.0, -46538.50007516147, -55910.78769097182, -25018.508734525294, -26703.22676935515, -19520.024302008667, -18733.108786715125, -187500.02235174447, -187500.02235174447, -0.03, 0.89, 0.436, 192.0, 0.0, 0.0, 0.0, 0.0, 0.0, 0.0, 0.0, 0.0, 0.0, 1.7297039288196008E9, 0.0, 2024-10-23 22:48:48.819
191.0, -46694.44819622615, -56081.19739069908, -20536.82750902504, -26846.32263735803, -19635.292248164686, -18868.560358114286, -187500.02235174447, -187500.02235174447, -0.03, 0.89, 0.436, 192.0, 0.0, 0.0, 0.0, 0.0, 0.0, 0.0, 0.0, 0.0, 0.0, 1.729703928823711E9, 0.0, 2024-10-23 22:48:48.823
192.0, -46675.33745471686, -56160.63549049324, -23121.18090643655, -27574.631878689754, -19511.39652864892, -18815.854944688672, -187500.02235174447, -187500.02235174447, -0.03, 0.89, 0.436, 192.0, 0.0, 0.0, 0.0, 0.0, 0.0, 0.0, 0.0, 0.0, 0.0, 1.7297039288275695E9, 0.0, 2024-10-23 22:48:48.827
193.0, -46487.18046989208, -55960.85559855171, -27572.26259377749, -27426.75273737344, -19356.00720119562, -18664.64539344852, -187500.02235174447, -187500.02235174447, -0.03, 0.89, 0.436, 192.0, 0.0, 0.0, 0.0, 0.0, 0.0, 0.0, 0.0, 0.0, 0.0, 1.7297039288316758E9, 0.0, 2024-10-23 22:48:48.831
194.0, -46475.468155797505, -55888.614760472155, -28039.54816336014, -26967.826720217075, -19390.16066672333, -18632.190660499415, -187500.02235174447, -187500.02235174447, -0.03, 0.89, 0.436, 192.0, 0.0, 0.0, 0.0, 0.0, 0.0, 0.0, 0.0, 0.0, 0.0, 1.7297039288356123E9, 0.0, 2024-10-23 22:48:48.835
195.0, -46545.63028164271, -55923.23761263343, -25024.253132850306, -26712.18981888173, -19520.359578175496, -18734.293429171255, -187500.02235174447, -187500.02235174447, -0.03, 0.89, 0.436, 192.0, 0.0, 0.0, 0.0, 0.0, 0.0, 0.0, 0.0, 0.0, 0.0, 1.7297039288386123E9, 0.0, 2024-10-23 22:48:48.838
196.0, -46689.95549559063, -56088.32759718032, -20536.69339855831, -26876.11751271695, -19655.833501319114, -18892.610835148196, -187500.02235174447, -187500.02235174447, -0.03, 0.89, 0.436, 192.0, 0.0, 0.0, 0.0, 0.0, 0.0, 0.0, 0.0, 0.0, 0.0, 1.72970392884357E9, 0.0, 2024-10-23 22:48:48.843
197.0, -46667.156716246216, -56145.63746996373, -23120.488002358437, -27586.79122767344, -19533.837680082044, -18831.30000010729, -187500.02235174447, -187500.02235174447, -0.03, 0.89, 0.436, 192.0, 0.0, 0.0, 0.0, 0.0, 0.0, 0.0, 0.0, 0.0, 0.0, 1.729703928847635E9, 0.0, 2024-10-23 22:48:48.847
198.0, -46490.39912109365, -55944.09179021022, -27554.26943949097, -27424.003472805438, -19388.1266579779, -18673.384925530547, -187500.02235174447, -187500.02235174447, -0.03, 0.89, 0.436, 192.0, 0.0, 0.0, 0.0, 0.0, 0.0, 0.0, 0.0, 0.0, 0.0, 1.7297039288515885E9, 0.0, 2024-10-23 22:48:48.851
199.0, -46471.422490051096, -55867.090030561696, -28053.83092806708, -26966.820891716587, -19422.280123505607, -18643.41123621598, -187500.02235174447, -187500.02235174447, -0.036000000000000004, 0.894, 0.432, 192.0, 254.0, 224.0, 27.0, 240.0, 13.0, 128.0, 0.0, 0.0, 0.0, 1.7297039288556101E9, 0.0, 2024-10-23 22:48:48.855
200.0, -46545.69733687608, -55914.16280438457, -25033.86438296609, -26696.878873929843, -19557.374066993485, -18738.830833295684, -187500.02235174447, -187500.02235174447, -0.036000000000000004, 0.894, 0.432, 192.0, 0.0, 0.0, 0.0, 0.0, 0.0, 0.0, 0.0, 0.0, 0.0, 1.7297039288596303E9, 0.0, 2024-10-23 22:48:48.859
201.0, -46660.20532372061, -56051.5813292958, -20535.240535168712, -26833.135108129398, -19674.9442428284, -18876.428172162556, -187500.02235174447, -187500.02235174447, -0.036000000000000004, 0.894, 0.432, 192.0, 0.0, 0.0, 0.0, 0.0, 0.0, 0.0, 0.0, 0.0, 0.0, 1.7297039288636253E9, 0.0, 2024-10-23 22:48:48.863
202.0, -46668.87780056927, -56139.937775127626, -23101.399612593606, -27566.004105330005, -19546.15349127692, -18837.960819954973, -187500.02235174447, -187500.02235174447, -0.036000000000000004, 0.894, 0.432, 192.0, 0.0, 0.0, 0.0, 0.0, 0.0, 0.0, 0.0, 0.0, 0.0, 1.7297039288666062E9, 0.0, 2024-10-23 22:48:48.866
203.0, -46497.30581013034, -55945.00821173289, -27601.87865518077, -27423.04234779386, -19389.400707411853, -18681.140980856537, -187500.02235174447, -187500.02235174447, -0.036000000000000004, 0.894, 0.432, 192.0, 0.0, 0.0, 0.0, 0.0, 0.0, 0.0, 0.0, 0.0, 0.0, 1.7297039288715847E9, 0.0, 2024-10-23 22:48:48.871
204.0, -46466.68392022657, -55862.306757248254, -28127.45757430286, -26949.85591767501, -19410.612512899937, -18640.952544325894, -187500.02235174447, -187500.02235174447, -0.036000000000000004, 0.894, 0.432, 192.0, 0.0, 0.0, 0.0, 0.0, 0.0, 0.0, 0.0, 0.0, 0.0, 1.7297039288756268E9, 0.0, 2024-10-23 22:48:48.875
205.0, -46521.35628716425, -55918.700208509, -25095.510494173825, -26687.155865091787, -19539.82794759607, -18739.434330395976, -187500.02235174447, -187500.02235174447, -0.036000000000000004, 0.894, 0.432, 192.0, 0.0, 0.0, 0.0, 0.0, 0.0, 0.0, 0.0, 0.0, 0.0, 1.7297039288796012E9, 0.0, 2024-10-23 22:48:48.879
206.0, -46668.766041847, -56082.20321919957, -20562.68847735983, -26847.440224580794, -19684.04140282171, -18901.238608507945, -187500.02235174447, -187500.02235174447, -0.036000000000000004, 0.894, 0.432, 192.0, 0.0, 0.0, 0.0, 0.0, 0.0, 0.0, 0.0, 0.0, 0.0, 1.7297039288836067E9, 0.0, 2024-10-23 22:48:48.883
207.0, -46671.560009903915, -56152.43240027814, -23097.71157475848, -27569.803901887408, -19557.44112222685, -18847.795587515306, -187500.02235174447, -187500.02235174447, -0.036000000000000004, 0.894, 0.432, 192.0, 0.0, 0.0, 0.0, 0.0, 0.0, 0.0, 0.0, 0.0, 0.0, 1.729703928887679E9, 0.0, 2024-10-23 22:48:48.887
208.0, -46500.0774264428, -55976.4124126926, -27583.661983449696, -27432.832411865285, -19400.509524406138, -18694.820248463184, -187500.02235174447, -187500.02235174447, -0.036000000000000004, 0.894, 0.432, 192.0, 0.0, 0.0, 0.0, 0.0, 0.0, 0.0, 0.0, 0.0, 0.0, 1.729703928892624E9, 0.0, 2024-10-23 22:48:48.892
209.0, -46454.837495665255, -55870.219274785435, -28107.98920488229, -26954.79565319963, -19402.230608729198, -18640.013771058773, -187500.02235174447, -187500.02235174447, -0.034, 0.886, 0.432, 192.0, 254.0, 240.0, 27.0, 176.0, 13.0, 128.0, 0.0, 0.0, 0.0, 1.7297039288956096E9, 0.0, 2024-10-23 22:48:48.895
210.0, -46499.94331597607, -55890.268789561844, -25098.72914537539, -26667.978068349134, -19500.824153521557, -18714.199210905936, -187500.02235174447, -187500.02235174447, -0.034, 0.886, 0.432, 192.0, 0.0, 0.0, 0.0, 0.0, 0.0, 0.0, 0.0, 0.0, 0.0, 1.7297039288986397E9, 0.0, 2024-10-23 22:48:48.898
211.0, -46655.84673355183, -56071.29556790538, -20563.001401782203, -26825.423756292315, -19644.143538968987, -18874.707087839495, -187500.02235174447, -187500.02235174447, -0.034, 0.886, 0.432, 192.0, 0.0, 0.0, 0.0, 0.0, 0.0, 0.0, 0.0, 0.0, 0.0, 1.7297039289036431E9, 0.0, 2024-10-23 22:48:48.903
212.0, -46660.20532372061, -56149.97370838806, -23099.81263873728, -27548.16741325467, -19523.935857288347, -18818.11247087866, -187500.02235174447, -187500.02235174447, -0.034, 0.886, 0.432, 192.0, 0.0, 0.0, 0.0, 0.0, 0.0, 0.0, 0.0, 0.0, 0.0, 1.7297039289076157E9, 0.0, 2024-10-23 22:48:48.907
213.0, -46506.693542801564, -55979.51930517189, -27599.911701668705, -27420.13662101467, -19381.622300341405, -18672.98259413035, -187500.02235174447, -187500.02235174447, -0.034, 0.886, 0.432, 192.0, 0.0, 0.0, 0.0, 0.0, 0.0, 0.0, 0.0, 0.0, 0.0, 1.7297039289116144E9, 0.0, 2024-10-23 22:48:48.911
214.0, -46470.215495850505, -55889.240609316905, -28125.311806835154, -26957.008475900708, -19382.091686974967, -18624.00992202877, -187500.02235174447, -187500.02235174447, -0.034, 0.886, 0.432, 192.0, 0.0, 0.0, 0.0, 0.0, 0.0, 0.0, 0.0, 0.0, 0.0, 1.7297039289156933E9, 0.0, 2024-10-23 22:48:48.915
215.0, -46534.96849953753, -55924.84693823421, -25121.39381425307, -26687.088809858422, -19507.686139069338, -18711.02526319328, -187500.02235174447, -187500.02235174447, -0.034, 0.886, 0.432, 192.0, 0.0, 0.0, 0.0, 0.0, 0.0, 0.0, 0.0, 0.0, 0.0, 1.7297039289196763E9, 0.0, 2024-10-23 22:48:48.919
216.0, -46689.64257116825, -56096.55303913988, -20563.98487853824, -26834.699730241267, -19638.868527277533, -18866.81692204677, -187500.02235174447, -187500.02235174447, -0.034, 0.886, 0.432, 192.0, 0.0, 0.0, 0.0, 0.0, 0.0, 0.0, 0.0, 0.0, 0.0, 1.7297039289227142E9, 0.0, 2024-10-23 22:48:48.922
217.0, -46696.437501482666, -56180.70735701411, -23118.163420935085, -27582.879672393763, -19515.598656606515, -18818.268933089847, -187500.02235174447, -187500.02235174447, -0.034, 0.886, 0.432, 192.0, 0.0, 0.0, 0.0, 0.0, 0.0, 0.0, 0.0, 0.0, 0.0, 1.729703928928704E9, 0.0, 2024-10-23 22:48:48.928
218.0, -46476.38457732017, -55956.139380471635, -27614.395632075746, -27412.51467615541, -19355.247241884143, -18651.21199503088, -187500.02235174447, -187500.02235174447, -0.034, 0.886, 0.432, 192.0, 0.0, 0.0, 0.0, 0.0, 0.0, 0.0, 0.0, 0.0, 0.0, 1.7297039289337027E9, 0.0, 2024-10-23 22:48:48.933
219.0, -46461.5653707463, -55880.09874583468, -28130.922094693437, -26961.501176536225, -19396.419155170817, -18631.587163399123, -187500.02235174447, -187500.02235174447, -0.034, 0.882, 0.432, 192.0, 254.0, 240.0, 27.0, 144.0, 13.0, 128.0, 0.0, 0.0, 0.0, 1.7297039289378328E9, 0.0, 2024-10-23 22:48:48.937
220.0, -46552.49226719049, -55923.841109733716, -25142.627971485614, -26708.077097901954, -19531.446043425327, -18736.215679194414, -187500.02235174447, -187500.02235174447, -0.034, 0.882, 0.432, 192.0, 0.0, 0.0, 0.0, 0.0, 0.0, 0.0, 0.0, 0.0, 0.0, 1.7297039289407542E9, 0.0, 2024-10-23 22:48:48.940
221.0, -46702.27130678551, -56095.70367285058, -20565.705962861295, -26855.531556073616, -19676.620623662548, -18901.618588163685, -187500.02235174447, -187500.02235174447, -0.034, 0.882, 0.432, 192.0, 0.0, 0.0, 0.0, 0.0, 0.0, 0.0, 0.0, 0.0, 0.0, 1.7297039289437559E9, 0.0, 2024-10-23 22:48:48.943
222.0, -46661.72524234358, -56140.20599606109, -23103.500676572407, -27570.340343754335, -19537.615124894994, -18836.127976909636, -187500.02235174447, -187500.02235174447, -0.034, 0.882, 0.432, 192.0, 0.0, 0.0, 0.0, 0.0, 0.0, 0.0, 0.0, 0.0, 0.0, 1.7297039289476824E9, 0.0, 2024-10-23 22:48:48.947
223.0, -46502.15613867714, -55964.65539510911, -27619.38007108928, -27434.173516532603, -19404.354024452452, -18697.144829886536, -187500.02235174447, -187500.02235174447, -0.034, 0.882, 0.432, 192.0, 0.0, 0.0, 0.0, 0.0, 0.0, 0.0, 0.0, 0.0, 0.0, 1.7297039289527252E9, 0.0, 2024-10-23 22:48:48.952
224.0, -46480.09496689975, -55893.80036518579, -28150.122243180544, -26990.223168161294, -19439.915649880844, -18673.384925530547, -187500.02235174447, -187500.02235174447, -0.034, 0.882, 0.432, 192.0, 0.0, 0.0, 0.0, 0.0, 0.0, 0.0, 0.0, 0.0, 0.0, 1.7297039289557164E9, 0.0, 2024-10-23 22:48:48.955
225.0, -46561.27650276143, -55936.35808662869, -25161.89517520609, -26728.975978967665, -19569.712229932815, -18770.257385999845, -187500.02235174447, -187500.02235174447, -0.034, 0.882, 0.432, 192.0, 0.0, 0.0, 0.0, 0.0, 0.0, 0.0, 0.0, 0.0, 0.0, 1.7297039289599936E9, 0.0, 2024-10-23 22:48:48.959
226.0, -46720.24210932757, -56099.99520778599, -20571.562119908587, -26855.12922467342, -19701.76633617477, -18919.321169772287, -187500.02235174447, -187500.02235174447, -0.034, 0.882, 0.432, 192.0, 0.0, 0.0, 0.0, 0.0, 0.0, 0.0, 0.0, 0.0, 0.0, 1.7297039289637253E9, 0.0, 2024-10-23 22:48:48.963
227.0, -46672.677597126676, -56153.86291192328, -23057.299620783284, -27570.2062332876, -19555.9659070928, -18844.62163980265, -187500.02235174447, -187500.02235174447, -0.034, 0.882, 0.432, 192.0, 0.0, 0.0, 0.0, 0.0, 0.0, 0.0, 0.0, 0.0, 0.0, 1.729703928967729E9, 0.0, 2024-10-23 22:48:48.967
228.0, -46505.91123174563, -55987.63298840916, -27582.54439622693, -27443.538897459377, -19400.621283128417, -18689.545236771733, -187500.02235174447, -187500.02235174447, -0.034, 0.882, 0.432, 192.0, 0.0, 0.0, 0.0, 0.0, 0.0, 0.0, 0.0, 0.0, 0.0, 1.7297039289717534E9, 0.0, 2024-10-23 22:48:48.971
229.0, -46472.69653948505, -55894.761490197365, -28121.556713766662, -26979.874310478488, -19421.631922916404, -18649.803835130195, -187500.02235174447, -187500.02235174447, -0.034, 0.882, 0.432, 192.0, 0.0, 0.0, 0.0, 0.0, 0.0, 0.0, 0.0, 0.0, 0.0, 1.7297039289747913E9, 0.0, 2024-10-23 22:48:48.974
230.0, -46533.001546025465, -55898.91891466605, -25134.804860926255, -26690.978013393644, -19547.673409899882, -18729.42074888, -187500.02235174447, -187500.02235174447, -0.03, 0.884, 0.436, 192.0, 255.0, 16.0, 27.0, 160.0, 13.0, 160.0, 0.0, 0.0, 0.0, 1.7297039289787707E9, 0.0, 2024-10-23 22:48:48.978
231.0, -46673.035225037966, -56066.55699808085, -20560.855634314496, -26820.64048297888, -19672.351440471582, -18873.231872705444, -187500.02235174447, -187500.02235174447, -0.03, 0.884, 0.436, 192.0, 0.0, 0.0, 0.0, 0.0, 0.0, 0.0, 0.0, 0.0, 0.0, 1.729703928982847E9, 0.0, 2024-10-23 22:48:48.982
232.0, -46664.921541800686, -56143.33524028483, -23037.853603107167, -27555.364674969278, -19536.49753767223, -18815.966703410948, -187500.02235174447, -187500.02235174447, -0.03, 0.884, 0.436, 192.0, 0.0, 0.0, 0.0, 0.0, 0.0, 0.0, 0.0, 0.0, 0.0, 1.7297039289887908E9, 0.0, 2024-10-23 22:48:48.988
233.0, -46521.02101099742, -55974.98190104746, -27567.009933830494, -27435.939304344574, -19382.40461139734, -18669.89805339552, -187500.02235174447, -187500.02235174447, -0.03, 0.884, 0.436, 192.0, 0.0, 0.0, 0.0, 0.0, 0.0, 0.0, 0.0, 0.0, 0.0, 1.7297039289917903E9, 0.0, 2024-10-23 22:48:48.991
234.0, -46447.05908859481, -55864.63133867161, -28126.787021969205, -26950.034731630654, -19395.88271330389, -18614.912762035463, -187500.02235174447, -187500.02235174447, -0.03, 0.884, 0.436, 192.0, 0.0, 0.0, 0.0, 0.0, 0.0, 0.0, 0.0, 0.0, 0.0, 1.7297039289958017E9, 0.0, 2024-10-23 22:48:48.995
235.0, -46516.48360687299, -55905.82560370274, -25153.580326268715, -26688.18404533673, -19525.701645100315, -18715.69677778444, -187500.02235174447, -187500.02235174447, -0.03, 0.884, 0.436, 192.0, 0.0, 0.0, 0.0, 0.0, 0.0, 0.0, 0.0, 0.0, 0.0, 1.729703928999943E9, 0.0, 2024-10-23 22:48:48.999
236.0, -46684.47931819908, -56087.5899896133, -20586.26956776018, -26841.293494855585, -19649.999696016275, -18867.576881358254, -187500.02235174447, -187500.02235174447, -0.03, 0.884, 0.436, 192.0, 0.0, 0.0, 0.0, 0.0, 0.0, 0.0, 0.0, 0.0, 0.0, 1.7297039290028307E9, 0.0, 2024-10-23 22:48:49.002
237.0, -46679.53958267446, -56153.66174622319, -23038.434748463005, -27565.199442529614, -19511.66474958238, -18811.317540564247, -187500.02235174447, -187500.02235174447, -0.03, 0.884, 0.436, 192.0, 0.0, 0.0, 0.0, 0.0, 0.0, 0.0, 0.0, 0.0, 0.0, 1.729703929006904E9, 0.0, 2024-10-23 22:48:49.006
238.0, -46521.22217669752, -55980.77100286139, -27579.348096769823, -27434.888772355174, -19362.39980010984, -18669.31690803968, -187500.02235174447, -187500.02235174447, -0.03, 0.884, 0.436, 192.0, 0.0, 0.0, 0.0, 0.0, 0.0, 0.0, 0.0, 0.0, 0.0, 1.729703929011652E9, 0.0, 2024-10-23 22:48:49.011
239.0, -46499.20570840904, -55906.853783947685, -28176.38554291553, -26989.86554025001, -19408.824373343512, -18649.53561419673, -187500.02235174447, -187500.02235174447, -0.03, 0.884, 0.436, 192.0, 0.0, 0.0, 0.0, 0.0, 0.0, 0.0, 0.0, 0.0, 0.0, 1.7297039290178163E9, 0.0, 2024-10-23 22:48:49.017
240.0, -46557.54376143739, -55935.3522581282, -25200.921321025053, -26724.662092287792, -19523.1088427435, -18735.254554182837, -187500.02235174447, -187500.02235174447, -0.024, 0.88, 0.438, 192.0, 255.0, 64.0, 27.0, 128.0, 13.0, 176.0, 0.0, 0.0, 0.0, 1.7297039290222385E9, 0.0, 2024-10-23 22:48:49.022
241.0, -46694.694065415155, -56100.62105663074, -20596.774887654174, -26860.113663686952, -19654.715914096345, -18889.369832202177, -187500.02235174447, -187500.02235174447, -0.024, 0.88, 0.438, 192.0, 0.0, 0.0, 0.0, 0.0, 0.0, 0.0, 0.0, 0.0, 0.0, 1.7297039290249052E9, 0.0, 2024-10-23 22:48:49.024
242.0, -46691.87774561378, -56167.81040046339, -23022.207381988454, -27579.348096769823, -19529.76966259118, -18831.30000010729, -187500.02235174447, -187500.02235174447, -0.024, 0.88, 0.438, 192.0, 0.0, 0.0, 0.0, 0.0, 0.0, 0.0, 0.0, 0.0, 0.0, 1.7297039290288568E9, 0.0, 2024-10-23 22:48:49.028
243.0, -46546.703165376566, -55996.90896235812, -27559.946782582618, -27462.403769779656, -19404.465783174728, -18700.18466713246, -187500.02235174447, -187500.02235174447, -0.024, 0.88, 0.438, 192.0, 0.0, 0.0, 0.0, 0.0, 0.0, 0.0, 0.0, 0.0, 0.0, 1.7297039290318518E9, 0.0, 2024-10-23 22:48:49.031
244.0, -46488.119243159206, -55893.75566169687, -28156.268972905753, -26982.24359539075, -19418.569733926026, -18651.301402008703, -187500.02235174447, -187500.02235174447, -0.024, 0.88, 0.438, 192.0, 0.0, 0.0, 0.0, 0.0, 0.0, 0.0, 0.0, 0.0, 0.0, 1.7297039290448427E9, 0.0, 2024-10-23 22:48:49.044
245.0, -46563.86930511824, -55930.904260981595, -25196.160399456072, -26705.305481589498, -19556.927032104377, -18748.129158989093, -187500.02235174447, -187500.02235174447, -0.024, 0.88, 0.438, 192.0, 0.0, 0.0, 0.0, 0.0, 0.0, 0.0, 0.0, 0.0, 0.0, 1.7297039290508788E9, 0.0, 2024-10-23 22:48:49.050
246.0, -46695.99046659356, -56088.14878322468, -20576.72537287776, -26825.91549467033, -19680.532178942227, -18892.610835148196, -187500.02235174447, -187500.02235174447, -0.024, 0.88, 0.438, 192.0, 0.0, 0.0, 0.0, 0.0, 0.0, 0.0, 0.0, 0.0, 0.0, 1.7297039290538921E9, 0.0, 2024-10-23 22:48:49.053
247.0, -46689.15083279024, -56164.83761845084, -22979.64966054555, -27561.533756438945, -19553.283697758165, -18841.58180255673, -187500.02235174447, -187500.02235174447, -0.024, 0.88, 0.438, 192.0, 0.0, 0.0, 0.0, 0.0, 0.0, 0.0, 0.0, 0.0, 0.0, 1.7297039290578835E9, 0.0, 2024-10-23 22:48:49.057
248.0, -46532.91213904764, -55989.51053494341, -27536.499802649, -27449.5291649734, -19417.250981003166, -18704.69971951243, -187500.02235174447, -187500.02235174447, -0.024, 0.88, 0.438, 192.0, 0.0, 0.0, 0.0, 0.0, 0.0, 0.0, 0.0, 0.0, 0.0, 1.7297039290609336E9, 0.0, 2024-10-23 22:48:49.060
249.0, -46508.39227538017, -55906.652618247586, -28181.9511272849, -27006.405831146938, -19431.80196664357, -18668.31107953919, -187500.02235174447, -187500.02235174447, -0.024, 0.88, 0.438, 192.0, 0.0, 0.0, 0.0, 0.0, 0.0, 0.0, 0.0, 0.0, 0.0, 1.7297039290638943E9, 0.0, 2024-10-23 22:48:49.063
250.0, -46543.52921766391, -55923.52818531134, -25223.630693391646, -26713.15094389331, -19539.7608923627, -18742.18359496398, -187500.02235174447, -187500.02235174447, -0.022, 0.874, 0.436, 192.0, 255.0, 80.0, 27.0, 80.0, 13.0, 160.0, 0.0, 0.0, 0.0, 1.7297039290669951E9, 0.0, 2024-10-23 22:48:49.066
251.0, -46666.039129023455, -56071.67554756112, -20612.51051575071, -26812.750317186157, -19657.84515832009, -18876.07054425127, -187500.02235174447, -187500.02235174447, -0.022, 0.874, 0.436, 192.0, 0.0, 0.0, 0.0, 0.0, 0.0, 0.0, 0.0, 0.0, 0.0, 1.7297039290709023E9, 0.0, 2024-10-23 22:48:49.070
252.0, -46661.52407664348, -56147.894996153715, -22999.408602644042, -27543.227677730047, -19542.040770297142, -18825.376787826634, -187500.02235174447, -187500.02235174447, -0.022, 0.874, 0.436, 192.0, 0.0, 0.0, 0.0, 0.0, 0.0, 0.0, 0.0, 0.0, 0.0, 1.72970392907393E9, 0.0, 2024-10-23 22:48:49.073
253.0, -46519.05405748535, -55993.824421623285, -27533.59407586981, -27434.32997874379, -19413.36177746794, -18694.17204787398, -187500.02235174447, -187500.02235174447, -0.022, 0.874, 0.436, 192.0, 0.0, 0.0, 0.0, 0.0, 0.0, 0.0, 0.0, 0.0, 0.0, 1.729703929076929E9, 0.0, 2024-10-23 22:48:49.076
254.0, -46470.841344695255, -55906.18323161403, -28165.90257476599, -26970.643040018447, -19406.768012853627, -18637.711541379875, -187500.02235174447, -187500.02235174447, -0.022, 0.874, 0.436, 192.0, 0.0, 0.0, 0.0, 0.0, 0.0, 0.0, 0.0, 0.0, 0.0, 1.7297039290809202E9, 0.0, 2024-10-23 22:48:49.080
255.0, -46531.660441358144, -55922.365894599665, -25225.307074225795, -26673.096617829397, -19507.999063491712, -18709.862972481606, -187500.02235174447, -187500.02235174447, -0.022, 0.874, 0.436, 192.0, 0.0, 0.0, 0.0, 0.0, 0.0, 0.0, 0.0, 0.0, 0.0, 1.7297039290839376E9, 0.0, 2024-10-23 22:48:49.083
0.0, -46691.94480084715, -56092.90970479366, -20592.37159399648, -26799.607491446437, -19643.674152335425, -18867.129846469146, -187500.02235174447, -187500.02235174447, -0.022, 0.874, 0.436, 192.0, 0.0, 0.0, 0.0, 0.0, 0.0, 0.0, 0.0, 0.0, 0.0, 1.729703929086944E9, 0.0, 2024-10-23 22:48:49.086
1.0, -46679.27136174099, -56175.16412438919, -22989.283262405785, -27544.032340530437, -19517.319740929575, -18812.703348720475, -187500.02235174447, -187500.02235174447, -0.022, 0.874, 0.436, 192.0, 0.0, 0.0, 0.0, 0.0, 0.0, 0.0, 0.0, 0.0, 0.0, 1.7297039290909295E9, 0.0, 2024-10-23 22:48:49.090
2.0, -46490.91321121612, -55971.383270190156, -27537.50563114949, -27402.814019061807, -19352.74384650515, -18652.307230509192, -187500.02235174447, -187500.02235174447, -0.022, 0.874, 0.436, 192.0, 0.0, 0.0, 0.0, 0.0, 0.0, 0.0, 0.0, 0.0, 0.0, 1.7297039290939412E9, 0.0, 2024-10-23 22:48:49.093
3.0, -46462.37003354669, -55886.15606858207, -28164.62852533204, -26941.71988269328, -19368.613585068415, -18613.63871260151, -187500.02235174447, -187500.02235174447, -0.022, 0.874, 0.436, 192.0, 0.0, 0.0, 0.0, 0.0, 0.0, 0.0, 0.0, 0.0, 0.0, 1.7297039290969007E9, 0.0, 2024-10-23 22:48:49.096
4.0, -46530.94518553557, -55919.52722305385, -25248.105853570207, -26683.26666155656, -19485.28969112512, -18706.800783491228, -187500.02235174447, -187500.02235174447, -0.028, 0.876, 0.438, 192.0, 255.0, 32.0, 27.0, 96.0, 13.0, 176.0, 0.0, 0.0, 0.0, 1.7297039291010363E9, 0.0, 2024-10-23 22:48:49.101
5.0, -46709.4238650112, -56096.68714960661, -20641.545431798153, -26823.903837669353, -19644.635277347003, -18879.445657664022, -187500.02235174447, -187500.02235174447, -0.028, 0.876, 0.438, 192.0, 0.0, 0.0, 0.0, 0.0, 0.0, 0.0, 0.0, 0.0, 0.0, 1.7297039291050043E9, 0.0, 2024-10-23 22:48:49.105
6.0, -46676.70091112863, -56175.63351102275, -22985.572872826204, -27570.720323410074, -19510.904790270903, -18827.00846517187, -187500.02235174447, -187500.02235174447, -0.028, 0.876, 0.438, 192.0, 0.0, 0.0, 0.0, 0.0, 0.0, 0.0, 0.0, 0.0, 0.0, 1.729703929107982E9, 0.0, 2024-10-23 22:48:49.107
7.0, -46486.68873151407, -55982.08975578425, -27534.085814247825, -27450.490289984977, -19361.706896031727, -18676.08948660964, -187500.02235174447, -187500.02235174447, -0.028, 0.876, 0.438, 192.0, 0.0, 0.0, 0.0, 0.0, 0.0, 0.0, 0.0, 0.0, 0.0, 1.7297039291119516E9, 0.0, 2024-10-23 22:48:49.111
8.0, -46472.83064995178, -55884.837315659206, -28179.090103994622, -26987.47390359329, -19401.180076739798, -18640.773730370252, -187500.02235174447, -187500.02235174447, -0.028, 0.876, 0.438, 192.0, 0.0, 0.0, 0.0, 0.0, 0.0, 0.0, 0.0, 0.0, 0.0, 1.7297039291149504E9, 0.0, 2024-10-23 22:48:49.114
9.0, -46576.900372135686, -55942.32600239826, -25258.67822869757, -26744.801014042023, -19560.838587384056, -18759.439141683477, -187500.02235174447, -187500.02235174447, -0.028, 0.876, 0.438, 192.0, 0.0, 0.0, 0.0, 0.0, 0.0, 0.0, 0.0, 0.0, 0.0, 1.7297039291189268E9, 0.0, 2024-10-23 22:48:49.118
10.0, -46719.25863257154, -56101.22455373104, -20632.4706235493, -26872.049495226085, -19679.61575741956, -18908.88290511166, -187500.02235174447, -187500.02235174447, -0.028, 0.876, 0.438, 192.0, 0.0, 0.0, 0.0, 0.0, 0.0, 0.0, 0.0, 0.0, 0.0, 1.7297039291229987E9, 0.0, 2024-10-23 22:48:49.122
11.0, -46705.735827176075, -56170.58201677585, -22970.396038341052, -27610.55113202943, -19568.616994454504, -18856.11043645268, -187500.02235174447, -187500.02235174447, -0.028, 0.876, 0.438, 192.0, 0.0, 0.0, 0.0, 0.0, 0.0, 0.0, 0.0, 0.0, 0.0, 1.729703929126973E9, 0.0, 2024-10-23 22:48:49.126
12.0, -46526.58659536679, -55976.837095837254, -27542.423014929656, -27470.897432672675, -19425.565829940537, -18694.037937407247, -187500.02235174447, -187500.02235174447, -0.028, 0.876, 0.438, 192.0, 0.0, 0.0, 0.0, 0.0, 0.0, 0.0, 0.0, 0.0, 0.0, 1.7297039291309905E9, 0.0, 2024-10-23 22:48:49.130
13.0, -46478.128013387686, -55888.905333150076, -28186.220310475866, -27007.29990092515, -19444.833033661012, -18652.664858420474, -187500.02235174447, -187500.02235174447, -0.028, 0.876, 0.438, 192.0, 0.0, 0.0, 0.0, 0.0, 0.0, 0.0, 0.0, 0.0, 0.0, 1.7297039291360493E9, 0.0, 2024-10-23 22:48:49.136
14.0, -46525.20078721056, -55915.41450207407, -25289.210711623517, -26729.423013856773, -19554.066008814098, -18730.94066750296, -187500.02235174447, -187500.02235174447, -0.034, 0.88, 0.442, 192.0, 254.0, 240.0, 27.0, 128.0, 13.0, 208.0, 0.0, 0.0, 0.0, 1.7297039291410828E9, 0.0, 2024-10-23 22:48:49.141
15.0, -46684.45696645462, -56074.87184701823, -20646.574574300597, -26839.59476227698, -19694.32320527115, -18878.417477419076, -187500.02235174447, -187500.02235174447, -0.034, 0.88, 0.442, 192.0, 0.0, 0.0, 0.0, 0.0, 0.0, 0.0, 0.0, 0.0, 0.0, 1.729703929145022E9, 0.0, 2024-10-23 22:48:49.145
16.0, -46662.44049816615, -56145.92804264165, -22961.187119625465, -27566.607602430297, -19564.616032197006, -18812.90451442057, -187500.02235174447, -187500.02235174447, -0.034, 0.88, 0.442, 192.0, 0.0, 0.0, 0.0, 0.0, 0.0, 0.0, 0.0, 0.0, 0.0, 1.7297039291480873E9, 0.0, 2024-10-23 22:48:49.148
17.0, -46494.86946998471, -55970.42214517858, -27529.414299656666, -27447.405749250145, -19430.326751509518, -18670.389791773534, -187500.02235174447, -187500.02235174447, -0.034, 0.88, 0.442, 192.0, 0.0, 0.0, 0.0, 0.0, 0.0, 0.0, 0.0, 0.0, 0.0, 1.7297039291511052E9, 0.0, 2024-10-23 22:48:49.151
18.0, -46450.59066421875, -55880.74694642389, -28210.91898809898, -26977.8179499886, -19439.759187669657, -18615.6950730914, -187500.02235174447, -187500.02235174447, -0.034, 0.88, 0.442, 192.0, 0.0, 0.0, 0.0, 0.0, 0.0, 0.0, 0.0, 0.0, 0.0, 1.7297039291551297E9, 0.0, 2024-10-23 22:48:49.155
19.0, -46527.54772037837, -55913.6487142621, -25300.073659428796, -26699.42697279775, -19561.509139717717, -18700.050556665727, -187500.02235174447, -187500.02235174447, -0.034, 0.88, 0.442, 192.0, 0.0, 0.0, 0.0, 0.0, 0.0, 0.0, 0.0, 0.0, 0.0, 1.7297039291591167E9, 0.0, 2024-10-23 22:48:49.159
20.0, -46668.63193138027, -56073.84366677328, -20645.680504522385, -26810.73866018518, -19700.313472785172, -18846.92386948155, -187500.02235174447, -187500.02235174447, -0.034, 0.88, 0.442, 192.0, 0.0, 0.0, 0.0, 0.0, 0.0, 0.0, 0.0, 0.0, 0.0, 1.7297039291641417E9, 0.0, 2024-10-23 22:48:49.164
21.0, -46637.74182054303, -56151.314813055375, -22929.805270410216, -27542.69123586312, -19561.77736065118, -18783.19904603947, -187500.02235174447, -187500.02235174447, -0.034, 0.88, 0.442, 192.0, 0.0, 0.0, 0.0, 0.0, 0.0, 0.0, 0.0, 0.0, 0.0, 1.7297039291680236E9, 0.0, 2024-10-23 22:48:49.168
22.0, -46469.522591772395, -55961.77202007437, -27515.556218094378, -27410.74888834344, -19409.40551869935, -18620.880677805028, -187500.02235174447, -187500.02235174447, -0.034, 0.88, 0.442, 192.0, 0.0, 0.0, 0.0, 0.0, 0.0, 0.0, 0.0, 0.0, 0.0, 1.7297039291710503E9, 0.0, 2024-10-23 22:48:49.171
23.0, -46437.40313499011, -55877.39418475559, -28216.551627701716, -26944.200926327816, -19414.74758562417, -18565.62716551151, -187500.02235174447, -187500.02235174447, -0.034, 0.88, 0.442, 192.0, 0.0, 0.0, 0.0, 0.0, 0.0, 0.0, 0.0, 0.0, 0.0, 1.7297039291750188E9, 0.0, 2024-10-23 22:48:49.175
24.0, -46510.71685680352, -55926.568022557265, -25328.862706287233, -26680.159769077276, -19532.831851581555, -18655.79410264422, -187500.02235174447, -187500.02235174447, -0.034, 0.876, 0.44, 192.0, 254.0, 240.0, 27.0, 96.0, 13.0, 192.0, 0.0, 0.0, 0.0, 1.7297039291790335E9, 0.0, 2024-10-23 22:48:49.179
25.0, -46629.51637858348, -56078.38107089771, -20647.692161523362, -26779.222700503196, -19659.342725198596, -18804.14263059409, -187500.02235174447, -187500.02235174447, -0.034, 0.876, 0.44, 192.0, 0.0, 0.0, 0.0, 0.0, 0.0, 0.0, 0.0, 0.0, 0.0, 1.7297039291830401E9, 0.0, 2024-10-23 22:48:49.183
26.0, -46631.19275941763, -56161.84248469383, -22903.452563697407, -27529.906038034685, -19544.365351720495, -18770.123275533115, -187500.02235174447, -187500.02235174447, -0.034, 0.876, 0.44, 192.0, 0.0, 0.0, 0.0, 0.0, 0.0, 0.0, 0.0, 0.0, 0.0, 1.729703929187065E9, 0.0, 2024-10-23 22:48:49.187
27.0, -46479.022083165895, -55995.143174546145, -27495.171427151137, -27442.421310236612, -19397.804963327046, -18638.806776858186, -187500.02235174447, -187500.02235174447, -0.034, 0.876, 0.44, 192.0, 0.0, 0.0, 0.0, 0.0, 0.0, 0.0, 0.0, 0.0, 0.0, 1.7297039291910667E9, 0.0, 2024-10-23 22:48:49.191
28.0, -46438.02898383486, -55890.80523142877, -28227.660444696005, -26976.454493576824, -19409.003187299157, -18598.238360671803, -187500.02235174447, -187500.02235174447, -0.034, 0.876, 0.44, 192.0, 0.0, 0.0, 0.0, 0.0, 0.0, 0.0, 0.0, 0.0, 0.0, 1.7297039291960611E9, 0.0, 2024-10-23 22:48:49.196
29.0, -46516.86358652873, -55935.9557552285, -25340.753834337454, -26719.05180442951, -19555.295354759142, -18711.874629482583, -187500.02235174447, -187500.02235174447, -0.034, 0.876, 0.44, 192.0, 0.0, 0.0, 0.0, 0.0, 0.0, 0.0, 0.0, 0.0, 0.0, 1.7297039291991165E9, 0.0, 2024-10-23 22:48:49.199
30.0, -46659.735937087054, -56097.089481006806, -20657.1245976835, -26834.900895941366, -19694.099687826598, -18875.31058493979, -187500.02235174447, -187500.02235174447, -0.034, 0.876, 0.44, 192.0, 0.0, 0.0, 0.0, 0.0, 0.0, 0.0, 0.0, 0.0, 0.0, 1.7297039292030709E9, 0.0, 2024-10-23 22:48:49.203
31.0, -46672.387024448755, -56173.77831623296, -22892.231987980842, -27580.532739225953, -19576.30599454713, -18830.048302417792, -187500.02235174447, -187500.02235174447, -0.034, 0.876, 0.44, 192.0, 0.0, 0.0, 0.0, 0.0, 0.0, 0.0, 0.0, 0.0, 0.0, 1.7297039292070916E9, 0.0, 2024-10-23 22:48:49.207
32.0, -46509.95689749204, -55988.79527912084, -27495.81962774034, -27469.757493705452, -19442.57550747103, -18686.818323948184, -187500.02235174447, -187500.02235174447, -0.034, 0.876, 0.44, 192.0, 0.0, 0.0, 0.0, 0.0, 0.0, 0.0, 0.0, 0.0, 0.0, 1.7297039292110996E9, 0.0, 2024-10-23 22:48:49.211
33.0, -46475.28934184186, -55896.16965009805, -28234.522430243785, -27007.29990092515, -19463.85436819248, -18643.76886412726, -187500.02235174447, -187500.02235174447, -0.034, 0.876, 0.44, 192.0, 0.0, 0.0, 0.0, 0.0, 0.0, 0.0, 0.0, 0.0, 0.0, 1.729703929215119E9, 0.0, 2024-10-23 22:48:49.215
34.0, -46557.052023059376, -55928.46792083597, -25353.963715310543, -26731.881705746855, -19587.325404563595, -18733.131138459583, -187500.02235174447, -187500.02235174447, -0.032, 0.874, 0.444, 192.0, 255.0, 0.0, 27.0, 80.0, 13.0, 224.0, 0.0, 0.0, 0.0, 1.729703929219173E9, 0.0, 2024-10-23 22:48:49.219
35.0, -46710.04971385595, -56094.80960307236, -20659.18095817339, -26846.054416424566, -19736.568002291682, -18899.897503840628, -187500.02235174447, -187500.02235174447, -0.032, 0.874, 0.444, 192.0, 0.0, 0.0, 0.0, 0.0, 0.0, 0.0, 0.0, 0.0, 0.0, 1.7297039292241228E9, 0.0, 2024-10-23 22:48:49.224
36.0, -46685.462794955114, -56170.64907200922, -22864.180548689434, -27580.97977411506, -19609.11835540752, -18845.806282258785, -187500.02235174447, -187500.02235174447, -0.032, 0.874, 0.444, 192.0, 0.0, 0.0, 0.0, 0.0, 0.0, 0.0, 0.0, 0.0, 0.0, 1.7297039292271004E9, 0.0, 2024-10-23 22:48:49.227
37.0, -46504.458368356034, -55972.6126161352, -27470.316287316837, -27454.759473175942, -19452.9914203872, -18683.64437623553, -187500.02235174447, -187500.02235174447, -0.032, 0.874, 0.444, 192.0, 0.0, 0.0, 0.0, 0.0, 0.0, 0.0, 0.0, 0.0, 0.0, 1.7297039292312136E9, 0.0, 2024-10-23 22:48:49.231
38.0, -46485.07940591328, -55892.99570238539, -28203.11822928408, -27000.7731915442, -19471.029278162634, -18647.523957195754, -187500.02235174447, -187500.02235174447, -0.032, 0.874, 0.444, 192.0, 0.0, 0.0, 0.0, 0.0, 0.0, 0.0, 0.0, 0.0, 0.0, 1.7297039292351055E9, 0.0, 2024-10-23 22:48:49.235
39.0, -46556.02384281443, -55927.28327837984, -25344.57598263931, -26725.645569043827, -19591.885160432477, -18732.594696592652, -187500.02235174447, -187500.02235174447, -0.032, 0.874, 0.444, 192.0, 0.0, 0.0, 0.0, 0.0, 0.0, 0.0, 0.0, 0.0, 0.0, 1.7297039292391925E9, 0.0, 2024-10-23 22:48:49.239
40.0, -46680.67952164168, -56067.361660881244, -20660.678525051895, -26807.430602005792, -19720.18417360594, -18869.32031742577, -187500.02235174447, -187500.02235174447, -0.032, 0.874, 0.444, 192.0, 0.0, 0.0, 0.0, 0.0, 0.0, 0.0, 0.0, 0.0, 0.0, 1.7297039292432504E9, 0.0, 2024-10-23 22:48:49.243
41.0, -46677.23735299556, -56162.75890621649, -22864.068789967157, -27553.59888715731, -19590.11937262051, -18819.118299379148, -187500.02235174447, -187500.02235174447, -0.032, 0.874, 0.444, 192.0, 0.0, 0.0, 0.0, 0.0, 0.0, 0.0, 0.0, 0.0, 0.0, 1.7297039292471385E9, 0.0, 2024-10-23 22:48:49.247
42.0, -46514.65076382766, -55987.65534015362, -27493.40563933917, -27452.747816174964, -19434.41712074484, -18668.06521035018, -187500.02235174447, -187500.02235174447, -0.032, 0.874, 0.444, 192.0, 0.0, 0.0, 0.0, 0.0, 0.0, 0.0, 0.0, 0.0, 0.0, 1.7297039292521656E9, 0.0, 2024-10-23 22:48:49.252
43.0, -46468.44970803853, -55896.46022277597, -28248.671084483994, -26981.841263990555, -19443.916612138346, -18616.745605080796, -187500.02235174447, -187500.02235174447, -0.032, 0.874, 0.444, 192.0, 0.0, 0.0, 0.0, 0.0, 0.0, 0.0, 0.0, 0.0, 0.0, 1.7297039292551541E9, 0.0, 2024-10-23 22:48:49.255
44.0, -46534.29794720387, -55929.40669410309, -25381.657526690666, -26705.70781298969, -19559.452779227828, -18703.738594500854, -187500.02235174447, -187500.02235174447, -0.036000000000000004, 0.878, 0.442, 192.0, 254.0, 224.0, 27.0, 112.0, 13.0, 208.0, 0.0, 0.0, 0.0, 1.7297039292602713E9, 0.0, 2024-10-23 22:48:49.260
45.0, -46680.03132105248, -56085.53362912341, -20688.61820562103, -26804.010785104132, -19702.481591997337, -18857.36213414218, -187500.02235174447, -187500.02235174447, -0.036000000000000004, 0.878, 0.442, 192.0, 0.0, 0.0, 0.0, 0.0, 0.0, 0.0, 0.0, 0.0, 0.0, 1.7297039292631257E9, 0.0, 2024-10-23 22:48:49.263
46.0, -46687.988542078565, -56187.39052860624, -22874.81997905016, -27560.639686660732, -19586.431334785382, -18815.184392355015, -187500.02235174447, -187500.02235174447, -0.036000000000000004, 0.878, 0.442, 192.0, 0.0, 0.0, 0.0, 0.0, 0.0, 0.0, 0.0, 0.0, 0.0, 1.7297039292682073E9, 0.0, 2024-10-23 22:48:49.268
47.0, -46509.73338004749, -56005.33557001777, -27481.82743571132, -27451.987856863485, -19415.909876335845, -18653.357762498592, -187500.02235174447, -187500.02235174447, -0.036000000000000004, 0.878, 0.442, 192.0, 0.0, 0.0, 0.0, 0.0, 0.0, 0.0, 0.0, 0.0, 0.0, 1.7297039292721727E9, 0.0, 2024-10-23 22:48:49.272
48.0, -46462.302978313324, -55894.53797275281, -28240.244476824344, -26985.037563447662, -19416.22280075822, -18590.504657090267, -187500.02235174447, -187500.02235174447, -0.036000000000000004, 0.878, 0.442, 192.0, 0.0, 0.0, 0.0, 0.0, 0.0, 0.0, 0.0, 0.0, 0.0, 1.729703929275215E9, 0.0, 2024-10-23 22:48:49.275
49.0, -46525.1337319772, -55925.89747022361, -25399.494218766, -26691.648565727304, -19530.551973647114, -18668.244024305826, -187500.02235174447, -187500.02235174447, -0.036000000000000004, 0.878, 0.442, 192.0, 0.0, 0.0, 0.0, 0.0, 0.0, 0.0, 0.0, 0.0, 0.0, 1.7297039292802348E9, 0.0, 2024-10-23 22:48:49.280
50.0, -46711.279059800996, -56112.69099863661, -20697.089516769593, -26810.023404362608, -19682.588539432116, -18842.095892679205, -187500.02235174447, -187500.02235174447, -0.036000000000000004, 0.878, 0.442, 192.0, 0.0, 0.0, 0.0, 0.0, 0.0, 0.0, 0.0, 0.0, 0.0, 1.7297039292832155E9, 0.0, 2024-10-23 22:48:49.283
51.0, -46672.83405933787, -56175.521752300476, -22854.703409040383, -27545.842831831316, -19547.78516862216, -18783.646080928575, -187500.02235174447, -187500.02235174447, -0.036000000000000004, 0.878, 0.442, 192.0, 0.0, 0.0, 0.0, 0.0, 0.0, 0.0, 0.0, 0.0, 0.0, 1.729703929287218E9, 0.0, 2024-10-23 22:48:49.287
52.0, -46497.59638280826, -55995.81372687981, -27458.648676711164, -27445.796423649364, -19387.612567855427, -18632.50358492179, -187500.02235174447, -187500.02235174447, -0.036000000000000004, 0.878, 0.442, 192.0, 0.0, 0.0, 0.0, 0.0, 0.0, 0.0, 0.0, 0.0, 0.0, 1.729703929291186E9, 0.0, 2024-10-23 22:48:49.291
53.0, -46460.090155612255, -55898.941266410504, -28237.271694811785, -26985.953984970332, -19401.47064941772, -18592.851590258073, -187500.02235174447, -187500.02235174447, -0.036000000000000004, 0.878, 0.442, 192.0, 0.0, 0.0, 0.0, 0.0, 0.0, 0.0, 0.0, 0.0, 0.0, 1.7297039292953365E9, 0.0, 2024-10-23 22:48:49.295
54.0, -46547.10549677676, -55944.98585998844, -25399.605977488278, -26723.835077742944, -19536.25166848322, -18696.541332786244, -187500.02235174447, -187500.02235174447, -0.038, 0.884, 0.442, 192.0, 254.0, 208.0, 27.0, 160.0, 13.0, 208.0, 0.0, 0.0, 0.0, 1.7297039292992308E9, 0.0, 2024-10-23 22:48:49.299
55.0, -46682.177088520184, -56095.99424552849, -20728.650179940483, -26820.953407401255, -19670.786818359713, -18855.328125396743, -187500.02235174447, -187500.02235174447, -0.038, 0.884, 0.442, 192.0, 0.0, 0.0, 0.0, 0.0, 0.0, 0.0, 0.0, 0.0, 0.0, 1.729703929303214E9, 0.0, 2024-10-23 22:48:49.303
56.0, -46690.76015839102, -56179.63447328025, -22882.598386120604, -27575.280079278957, -19570.986279366767, -18831.165889640557, -187500.02235174447, -187500.02235174447, -0.038, 0.884, 0.442, 192.0, 0.0, 0.0, 0.0, 0.0, 0.0, 0.0, 0.0, 0.0, 0.0, 1.7297039293082535E9, 0.0, 2024-10-23 22:48:49.308
57.0, -46518.2270429405, -55996.23841002446, -27499.172389408635, -27472.842034440284, -19427.152803796864, -18688.98644316035, -187500.02235174447, -187500.02235174447, -0.038, 0.884, 0.442, 192.0, 0.0, 0.0, 0.0, 0.0, 0.0, 0.0, 0.0, 0.0, 0.0, 1.7297039293113532E9, 0.0, 2024-10-23 22:48:49.311
58.0, -46471.400138306635, -55886.223123815435, -28268.228860882387, -27001.935482255874, -19439.580373714016, -18644.282954249735, -187500.02235174447, -187500.02235174447, -0.038, 0.884, 0.442, 192.0, 0.0, 0.0, 0.0, 0.0, 0.0, 0.0, 0.0, 0.0, 0.0, 1.7297039293152642E9, 0.0, 2024-10-23 22:48:49.315
59.0, -46533.80620882585, -55907.613743259164, -25403.249311834494, -26720.638778285836, -19562.492616473748, -18730.13600470257, -187500.02235174447, -187500.02235174447, -0.038, 0.884, 0.442, 192.0, 0.0, 0.0, 0.0, 0.0, 0.0, 0.0, 0.0, 0.0, 0.0, 1.72970392931937E9, 0.0, 2024-10-23 22:48:49.319
60.0, -46675.29275122795, -56070.04387021588, -20730.259505541268, -26806.313014783027, -19700.8499146521, -18875.31058493979, -187500.02235174447, -187500.02235174447, -0.038, 0.884, 0.442, 192.0, 0.0, 0.0, 0.0, 0.0, 0.0, 0.0, 0.0, 0.0, 0.0, 1.729703929323262E9, 0.0, 2024-10-23 22:48:49.323
61.0, -46711.39081852327, -56180.08150816936, -22864.605231834084, -27567.188747786135, -19608.60426528505, -18852.958840484484, -187500.02235174447, -187500.02235174447, -0.038, 0.884, 0.442, 192.0, 0.0, 0.0, 0.0, 0.0, 0.0, 0.0, 0.0, 0.0, 0.0, 1.7297039293272839E9, 0.0, 2024-10-23 22:48:49.327
62.0, -46573.3911482562, -56003.72624441698, -27467.209394837548, -27479.4357990546, -19469.174083372844, -18712.791051005253, -187500.02235174447, -187500.02235174447, -0.038, 0.884, 0.442, 192.0, 0.0, 0.0, 0.0, 0.0, 0.0, 0.0, 0.0, 0.0, 0.0, 1.729703929331283E9, 0.0, 2024-10-23 22:48:49.331
63.0, -46472.67418774059, -55883.853838903175, -28233.58365697666, -26987.451551848837, -19459.339315812507, -18638.2479832468, -187500.02235174447, -187500.02235174447, -0.038, 0.884, 0.442, 192.0, 0.0, 0.0, 0.0, 0.0, 0.0, 0.0, 0.0, 0.0, 0.0, 1.729703929335244E9, 0.0, 2024-10-23 22:48:49.335
64.0, -46525.96074652204, -55917.06853116376, -25399.337756554814, -26707.96533917968, -19574.651965457437, -18726.313856400713, -187500.02235174447, -187500.02235174447, -0.032, 0.88, 0.44, 192.0, 255.0, 0.0, 27.0, 128.0, 13.0, 192.0, 0.0, 0.0, 0.0, 1.7297039293412852E9, 0.0, 2024-10-23 22:48:49.341
65.0, -46682.445309453644, -56088.90874253616, -20708.824182608627, -26805.9777386162, -19703.62153096456, -18884.206579233003, -187500.02235174447, -187500.02235174447, -0.032, 0.88, 0.44, 192.0, 0.0, 0.0, 0.0, 0.0, 0.0, 0.0, 0.0, 0.0, 0.0, 1.729703929345292E9, 0.0, 2024-10-23 22:48:49.345
66.0, -46678.690216385156, -56176.61698777878, -22826.629618004517, -27553.1518522682, -19584.01734638421, -18840.955953711982, -187500.02235174447, -187500.02235174447, -0.032, 0.88, 0.44, 192.0, 0.0, 0.0, 0.0, 0.0, 0.0, 0.0, 0.0, 0.0, 0.0, 1.7297039293482916E9, 0.0, 2024-10-23 22:48:49.348
67.0, -46516.59536559527, -56010.07413984229, -27437.90625785664, -27452.546650474866, -19438.105158579965, -18696.049594408225, -187500.02235174447, -187500.02235174447, -0.032, 0.88, 0.44, 192.0, 0.0, 0.0, 0.0, 0.0, 0.0, 0.0, 0.0, 0.0, 0.0, 1.7297039293524358E9, 0.0, 2024-10-23 22:48:49.352
68.0, -46475.91519068661, -55908.038426403815, -28228.889790641046, -26988.211511160316, -19445.45888250576, -18650.563794441678, -187500.02235174447, -187500.02235174447, -0.032, 0.88, 0.44, 192.0, 0.0, 0.0, 0.0, 0.0, 0.0, 0.0, 0.0, 0.0, 0.0, 1.729703929356439E9, 0.0, 2024-10-23 22:48:49.356
69.0, -46522.786798809386, -55928.110292924684, -25427.523306312956, -26701.483333287637, -19540.67731388537, -18720.971789475894, -187500.02235174447, -187500.02235174447, -0.032, 0.88, 0.44, 192.0, 0.0, 0.0, 0.0, 0.0, 0.0, 0.0, 0.0, 0.0, 0.0, 1.7297039293615108E9, 0.0, 2024-10-23 22:48:49.361
70.0, -46655.064422495896, -56084.57250411183, -20731.131223575023, -26782.10607553793, -19664.88595782351, -18862.994773744915, -187500.02235174447, -187500.02235174447, -0.032, 0.88, 0.44, 192.0, 0.0, 0.0, 0.0, 0.0, 0.0, 0.0, 0.0, 0.0, 0.0, 1.7297039293643644E9, 0.0, 2024-10-23 22:48:49.364
71.0, -46681.819460608895, -56194.58779032085, -22814.224399831823, -27540.344302695314, -19568.10290433203, -18832.618753030154, -187500.02235174447, -187500.02235174447, -0.032, 0.88, 0.44, 192.0, 0.0, 0.0, 0.0, 0.0, 0.0, 0.0, 0.0, 0.0, 0.0, 1.729703929367582E9, 0.0, 2024-10-23 22:48:49.367
72.0, -46520.3281069193, -56013.4716049995, -27437.123946800704, -27449.171537062113, -19420.447280460274, -18681.565664001188, -187500.02235174447, -187500.02235174447, -0.032, 0.88, 0.44, 192.0, 0.0, 0.0, 0.0, 0.0, 0.0, 0.0, 0.0, 0.0, 0.0, 1.729703929371362E9, 0.0, 2024-10-23 22:48:49.371
73.0, -46460.38072829017, -55912.68758925052, -28240.892677413547, -26983.048258191142, -19408.287931476585, -18620.29953244919, -187500.02235174447, -187500.02235174447, -0.032, 0.88, 0.44, 192.0, 0.0, 0.0, 0.0, 0.0, 0.0, 0.0, 0.0, 0.0, 0.0, 1.729703929376376E9, 0.0, 2024-10-23 22:48:49.376
74.0, -46534.20854022605, -55954.462999637486, -25428.84205923582, -26714.894379960824, -19515.978636262254, -18697.681271753463, -187500.02235174447, -187500.02235174447, -0.038, 0.884, 0.44, 192.0, 254.0, 208.0, 27.0, 160.0, 13.0, 192.0, 0.0, 0.0, 0.0, 1.7297039293793907E9, 0.0, 2024-10-23 22:48:49.379
75.0, -46686.62508566679, -56108.66768463465, -20753.52767151924, -26799.49573272416, -19651.40785591696, -18834.697465264497, -187500.02235174447, -187500.02235174447, -0.038, 0.884, 0.44, 192.0, 0.0, 0.0, 0.0, 0.0, 0.0, 0.0, 0.0, 0.0, 0.0, 1.7297039293836453E9, 0.0, 2024-10-23 22:48:49.383
76.0, -46716.28585055898, -56220.89579354475, -22811.60924573055, -27564.3053727514, -19563.83372114107, -18809.708214963463, -187500.02235174447, -187500.02235174447, -0.038, 0.884, 0.44, 192.0, 0.0, 0.0, 0.0, 0.0, 0.0, 0.0, 0.0, 0.0, 0.0, 1.729703929387493E9, 0.0, 2024-10-23 22:48:49.387
77.0, -46552.5369706794, -56046.30631760434, -27415.80038259034, -27484.464941557046, -19421.922495594325, -18666.634698705042, -187500.02235174447, -187500.02235174447, -0.038, 0.884, 0.44, 192.0, 0.0, 0.0, 0.0, 0.0, 0.0, 0.0, 0.0, 0.0, 0.0, 1.7297039293914752E9, 0.0, 2024-10-23 22:48:49.391
78.0, -46487.135766403175, -55932.46888309347, -28241.49617451384, -27017.380537674493, -19426.973989841223, -18628.30145696419, -187500.02235174447, -187500.02235174447, -0.038, 0.884, 0.44, 192.0, 0.0, 0.0, 0.0, 0.0, 0.0, 0.0, 0.0, 0.0, 0.0, 1.729703929395383E9, 0.0, 2024-10-23 22:48:49.395
79.0, -46550.39120321169, -55961.43674390754, -25444.734149543543, -26738.944856994734, -19546.131139532466, -18732.23706868137, -187500.02235174447, -187500.02235174447, -0.038, 0.884, 0.44, 192.0, 0.0, 0.0, 0.0, 0.0, 0.0, 0.0, 0.0, 0.0, 0.0, 1.729703929398841E9, 0.0, 2024-10-23 22:48:49.398
80.0, -46696.45985322713, -56117.407216716674, -20736.830918411128, -26820.662834723335, -19700.33582452963, -18902.512657941897, -187500.02235174447, -187500.02235174447, -0.038, 0.884, 0.44, 192.0, 0.0, 0.0, 0.0, 0.0, 0.0, 0.0, 0.0, 0.0, 0.0, 1.7297039294034092E9, 0.0, 2024-10-23 22:48:49.403
81.0, -46711.77079817901, -56206.188345693154, -22796.141838567477, -27581.627974704264, -19598.076593646598, -18873.611852361188, -187500.02235174447, -187500.02235174447, -0.038, 0.884, 0.44, 192.0, 0.0, 0.0, 0.0, 0.0, 0.0, 0.0, 0.0, 0.0, 0.0, 1.7297039294075356E9, 0.0, 2024-10-23 22:48:49.407
82.0, -46539.014165283945, -56020.26653531391, -27456.122929587716, -27483.190892123093, -19449.258679063165, -18719.451870852932, -187500.02235174447, -187500.02235174447, -0.038, 0.884, 0.44, 192.0, 0.0, 0.0, 0.0, 0.0, 0.0, 0.0, 0.0, 0.0, 0.0, 1.7297039294134655E9, 0.0, 2024-10-23 22:48:49.413
83.0, -46503.005504966444, -55921.56123179928, -28276.990744708866, -27018.63223536399, -19463.586147259015, -18678.32466105517, -187500.02235174447, -187500.02235174447, -0.038, 0.884, 0.44, 192.0, 0.0, 0.0, 0.0, 0.0, 0.0, 0.0, 0.0, 0.0, 0.0, 1.7297039294164047E9, 0.0, 2024-10-23 22:48:49.416
84.0, -46578.33088378083, -55955.73704907144, -25480.005202294018, -26743.638723330347, -19593.852113944544, -18766.792865609274, -187500.02235174447, -187500.02235174447, -0.032, 0.878, 0.444, 192.0, 255.0, 0.0, 27.0, 112.0, 13.0, 224.0, 0.0, 0.0, 0.0, 1.7297039294204364E9, 0.0, 2024-10-23 22:48:49.420
85.0, -46698.06917882791, -56095.189582728104, -20772.504302561796, -26809.665776451326, -19722.08407188464, -18901.909160841606, -187500.02235174447, -187500.02235174447, -0.032, 0.878, 0.444, 192.0, 0.0, 0.0, 0.0, 0.0, 0.0, 0.0, 0.0, 0.0, 0.0, 1.7297039294234693E9, 0.0, 2024-10-23 22:48:49.423
86.0, -46705.177033564694, -56184.90948497171, -22805.395460771975, -27551.341360967323, -19603.55277103815, -18853.62939281814, -187500.02235174447, -187500.02235174447, -0.032, 0.878, 0.444, 192.0, 0.0, 0.0, 0.0, 0.0, 0.0, 0.0, 0.0, 0.0, 0.0, 1.729703929428511E9, 0.0, 2024-10-23 22:48:49.428
87.0, -46556.15795328116, -56019.059541113325, -27426.23864725097, -27465.331848303304, -19463.85436819248, -18710.4664695819, -187500.02235174447, -187500.02235174447, -0.032, 0.878, 0.444, 192.0, 0.0, 0.0, 0.0, 0.0, 0.0, 0.0, 0.0, 0.0, 0.0, 1.7297039294325638E9, 0.0, 2024-10-23 22:48:49.432
88.0, -46496.63525779668, -55905.98206591393, -28275.560233063727, -27000.01323223272, -19445.950620883777, -18651.03318107524, -187500.02235174447, -187500.02235174447, -0.032, 0.878, 0.444, 192.0, 0.0, 0.0, 0.0, 0.0, 0.0, 0.0, 0.0, 0.0, 0.0, 1.7297039294364667E9, 0.0, 2024-10-23 22:48:49.436
89.0, -46553.408688713156, -55936.156920928595, -25482.866225584297, -26710.692252003224, -19564.236052541262, -18730.024245980294, -187500.02235174447, -187500.02235174447, -0.032, 0.878, 0.444, 192.0, 0.0, 0.0, 0.0, 0.0, 0.0, 0.0, 0.0, 0.0, 0.0, 1.7297039294404464E9, 0.0, 2024-10-23 22:48:49.440
90.0, -46704.282963786485, -56093.580257127316, -20759.87556694455, -26794.623052432904, -19706.929589143943, -18885.212407733492, -187500.02235174447, -187500.02235174447, -0.032, 0.878, 0.444, 192.0, 0.0, 0.0, 0.0, 0.0, 0.0, 0.0, 0.0, 0.0, 0.0, 1.729703929444504E9, 0.0, 2024-10-23 22:48:49.444
91.0, -46730.032173399, -56204.08728171436, -22785.614166929026, -27564.327724495855, -19606.41379432843, -18863.240642933924, -187500.02235174447, -187500.02235174447, -0.032, 0.878, 0.444, 192.0, 0.0, 0.0, 0.0, 0.0, 0.0, 0.0, 0.0, 0.0, 0.0, 1.7297039294495063E9, 0.0, 2024-10-23 22:48:49.449
92.0, -46531.25810995795, -56006.98959910746, -27411.821772077295, -27458.603973222256, -19445.61534471695, -18698.687100253952, -187500.02235174447, -187500.02235174447, -0.032, 0.878, 0.444, 192.0, 0.0, 0.0, 0.0, 0.0, 0.0, 0.0, 0.0, 0.0, 0.0, 1.7297039294525769E9, 0.0, 2024-10-23 22:48:49.452
93.0, -46465.63338823717, -55889.88880990611, -28263.222070124397, -26977.035638932663, -19436.540536468096, -18632.72710236634, -187500.02235174447, -187500.02235174447, -0.032, 0.878, 0.444, 192.0, 0.0, 0.0, 0.0, 0.0, 0.0, 0.0, 0.0, 0.0, 0.0, 1.7297039294564915E9, 0.0, 2024-10-23 22:48:49.456
94.0, -46533.91796754813, -55941.4542843645, -25489.66115589871, -26707.361842079383, -19535.178784749365, -18709.237123636856, -187500.02235174447, -187500.02235174447, -0.026000000000000002, 0.878, 0.448, 192.0, 255.0, 48.0, 27.0, 112.0, 14.0, 0.0, 0.0, 0.0, 0.0, 1.7297039294594762E9, 0.0, 2024-10-23 22:48:49.459
95.0, -46686.73684438907, -56103.61619038775, -20760.993154167314, -26784.117732538907, -19671.56912941565, -18859.82082603226, -187500.02235174447, -187500.02235174447, -0.026000000000000002, 0.878, 0.448, 192.0, 0.0, 0.0, 0.0, 0.0, 0.0, 0.0, 0.0, 0.0, 0.0, 1.7297039294655523E9, 0.0, 2024-10-23 22:48:49.465
96.0, -46706.0711033429, -56198.588752578355, -22744.799881553638, -27539.383177683732, -19560.54801470614, -18817.91130517856, -187500.02235174447, -187500.02235174447, -0.026000000000000002, 0.878, 0.448, 192.0, 0.0, 0.0, 0.0, 0.0, 0.0, 0.0, 0.0, 0.0, 0.0, 1.7297039294705095E9, 0.0, 2024-10-23 22:48:49.470
97.0, -46542.992775796985, -56019.41716902461, -27370.67221053508, -27454.11127258674, -19415.954579824756, -18667.104085338604, -187500.02235174447, -187500.02235174447, -0.026000000000000002, 0.878, 0.448, 192.0, 0.0, 0.0, 0.0, 0.0, 0.0, 0.0, 0.0, 0.0, 0.0, 1.729703929473506E9, 0.0, 2024-10-23 22:48:49.473
98.0, -46489.5721065488, -55917.82849047524, -28249.811023451213, -26996.258139164227, -19429.432681731305, -18613.906933534974, -187500.02235174447, -187500.02235174447, -0.026000000000000002, 0.878, 0.448, 192.0, 0.0, 0.0, 0.0, 0.0, 0.0, 0.0, 0.0, 0.0, 0.0, 1.729703929476526E9, 0.0, 2024-10-23 22:48:49.476
99.0, -46563.131697551216, -55953.70304032601, -25480.876920327773, -26720.638778285836, -19537.458662683806, -18688.919387926984, -187500.02235174447, -187500.02235174447, -0.026000000000000002, 0.878, 0.448, 192.0, 0.0, 0.0, 0.0, 0.0, 0.0, 0.0, 0.0, 0.0, 0.0, 1.7297039294805055E9, 0.0, 2024-10-23 22:48:49.480
100.0, -46699.589097450866, -56102.029216531424, -20752.387732552022, -26793.30429951004, -19676.732382384824, -18833.892802464106, -187500.02235174447, -187500.02235174447, -0.026000000000000002, 0.878, 0.448, 192.0, 0.0, 0.0, 0.0, 0.0, 0.0, 0.0, 0.0, 0.0, 0.0, 1.7297039294835424E9, 0.0, 2024-10-23 22:48:49.483
101.0, -46719.88448141629, -56198.856973511814, -22737.669675072393, -27550.626105144755, -19575.09900034654, -18796.408927012555, -187500.02235174447, -187500.02235174447, -0.026000000000000002, 0.878, 0.448, 192.0, 0.0, 0.0, 0.0, 0.0, 0.0, 0.0, 0.0, 0.0, 0.0, 1.7297039294866984E9, 0.0, 2024-10-23 22:48:49.486
102.0, -46542.6351478857, -56009.80591890883, -27421.14244951516, -27455.564135976332, -19407.84089658748, -18631.385997699024, -187500.02235174447, -187500.02235174447, -0.026000000000000002, 0.878, 0.448, 192.0, 0.0, 0.0, 0.0, 0.0, 0.0, 0.0, 0.0, 0.0, 0.0, 1.7297039294915056E9, 0.0, 2024-10-23 22:48:49.491
103.0, -46506.984115479485, -55915.1462811406, -28298.671936830517, -26993.66533680741, -19430.0361788316, -18599.64652057249, -187500.02235174447, -187500.02235174447, -0.026000000000000002, 0.878, 0.448, 192.0, 0.0, 0.0, 0.0, 0.0, 0.0, 0.0, 0.0, 0.0, 0.0, 1.7297039294955533E9, 0.0, 2024-10-23 22:48:49.495
104.0, -46582.01892161595, -55958.575720617264, -25521.512391747525, -26728.037205700544, -19555.295354759142, -18711.293484126745, -187500.02235174447, -187500.02235174447, -0.026000000000000002, 0.878, 0.448, 192.0, 0.0, 0.0, 0.0, 0.0, 0.0, 0.0, 0.0, 0.0, 0.0, 1.7297039294995673E9, 0.0, 2024-10-23 22:48:49.499
105.0, -46719.526853505, -56098.609399629764, -20776.997003197313, -26800.613319946926, -19701.967501874864, -18880.049154764314, -187500.02235174447, -187500.02235174447, -0.028, 0.872, 0.454, 192.0, 255.0, 32.0, 27.0, 64.0, 14.0, 48.0, 0.0, 0.0, 0.0, 1.7297039295036228E9, 0.0, 2024-10-23 22:48:49.503
106.0, -46719.43744652718, -56188.798688506926, -22747.862070544015, -27559.522099437967, -19600.244712858763, -18858.54677659831, -187500.02235174447, -187500.02235174447, -0.028, 0.872, 0.454, 192.0, 0.0, 0.0, 0.0, 0.0, 0.0, 0.0, 0.0, 0.0, 0.0, 1.7297039295085683E9, 0.0, 2024-10-23 22:48:49.508
107.0, -46570.91010462167, -56017.20434632354, -27384.329126397268, -27478.54172927639, -19460.255737335174, -18721.687045298462, -187500.02235174447, -187500.02235174447, -0.028, 0.872, 0.454, 192.0, 0.0, 0.0, 0.0, 0.0, 0.0, 0.0, 0.0, 0.0, 0.0, 1.7297039295115423E9, 0.0, 2024-10-23 22:48:49.511
108.0, -46509.845138769764, -55914.4980805514, -28267.8712329711, -27017.134668485483, -19462.982650158723, -18673.675498208464, -187500.02235174447, -187500.02235174447, -0.028, 0.872, 0.454, 192.0, 0.0, 0.0, 0.0, 0.0, 0.0, 0.0, 0.0, 0.0, 0.0, 1.729703929516588E9, 0.0, 2024-10-23 22:48:49.516
109.0, -46571.31243602186, -55949.23269143495, -25523.61345572632, -26739.19072618374, -19578.362355037018, -18757.986278293884, -187500.02235174447, -187500.02235174447, -0.028, 0.872, 0.454, 192.0, 0.0, 0.0, 0.0, 0.0, 0.0, 0.0, 0.0, 0.0, 0.0, 1.7297039295205636E9, 0.0, 2024-10-23 22:48:49.520
110.0, -46722.00789713954, -56108.31005672337, -20787.122343435567, -26813.063241608532, -19728.253153354308, -18917.868306382694, -187500.02235174447, -187500.02235174447, -0.028, 0.872, 0.454, 192.0, 0.0, 0.0, 0.0, 0.0, 0.0, 0.0, 0.0, 0.0, 0.0, 1.7297039295235744E9, 0.0, 2024-10-23 22:48:49.523
111.0, -46720.04094362747, -56196.621799066284, -22702.376270577464, -27566.205271030103, -19601.317596592617, -18875.511750639886, -187500.02235174447, -187500.02235174447, -0.028, 0.872, 0.454, 192.0, 0.0, 0.0, 0.0, 0.0, 0.0, 0.0, 0.0, 0.0, 0.0, 1.729703929527567E9, 0.0, 2024-10-23 22:48:49.527
112.0, -46520.03753424138, -56005.44732874005, -27370.582803557256, -27460.772092434418, -19432.27135327713, -18706.64432128004, -187500.02235174447, -187500.02235174447, -0.028, 0.872, 0.454, 192.0, 0.0, 0.0, 0.0, 0.0, 0.0, 0.0, 0.0, 0.0, 0.0, 1.729703929531566E9, 0.0, 2024-10-23 22:48:49.531
113.0, -46495.450615340545, -55920.68951376552, -28284.590337823673, -27007.925749769896, -19445.525937739127, -18663.25958529229, -187500.02235174447, -187500.02235174447, -0.028, 0.872, 0.454, 192.0, 0.0, 0.0, 0.0, 0.0, 0.0, 0.0, 0.0, 0.0, 0.0, 1.7297039295355873E9, 0.0, 2024-10-23 22:48:49.535
114.0, -46566.14918305269, -55960.58737761824, -25538.790290211477, -26733.111051691896, -19566.73944792026, -18745.692818843465, -187500.02235174447, -187500.02235174447, -0.028, 0.872, 0.454, 192.0, 0.0, 0.0, 0.0, 0.0, 0.0, 0.0, 0.0, 0.0, 0.0, 1.7297039295386035E9, 0.0, 2024-10-23 22:48:49.538
115.0, -46704.79705390895, -56114.43443470412, -20799.616968586084, -26799.58513970198, -19699.173533817953, -18892.387317703644, -187500.02235174447, -187500.02235174447, -0.036000000000000004, 0.872, 0.45, 192.0, 254.0, 224.0, 27.0, 64.0, 14.0, 16.0, 0.0, 0.0, 0.0, 1.7297039295427122E9, 0.0, 2024-10-23 22:48:49.542
116.0, -46700.86314688482, -56205.5177933595, -22733.668712814895, -27550.11201502228, -19585.514913262716, -18853.02589571785, -187500.02235174447, -187500.02235174447, -0.036000000000000004, 0.872, 0.45, 192.0, 0.0, 0.0, 0.0, 0.0, 0.0, 0.0, 0.0, 0.0, 0.0, 1.7297039295475976E9, 0.0, 2024-10-23 22:48:49.547
117.0, -46533.73915359249, -56026.14504410566, -27375.008448959405, -27470.115121616738, -19431.84667013248, -18705.549085801733, -187500.02235174447, -187500.02235174447, -0.036000000000000004, 0.872, 0.45, 192.0, 0.0, 0.0, 0.0, 0.0, 0.0, 0.0, 0.0, 0.0, 0.0, 1.7297039295526268E9, 0.0, 2024-10-23 22:48:49.552
118.0, -46493.841289739765, -55921.672990521554, -28273.59327955166, -27007.411659647427, -19432.964257355245, -18647.948640340404, -187500.02235174447, -187500.02235174447, -0.036000000000000004, 0.872, 0.45, 192.0, 0.0, 0.0, 0.0, 0.0, 0.0, 0.0, 0.0, 0.0, 0.0, 1.7297039295556312E9, 0.0, 2024-10-23 22:48:49.555
119.0, -46568.02672958693, -55960.74383982943, -25552.313095606936, -26734.72037729268, -19548.075741300076, -18731.74533030335, -187500.02235174447, -187500.02235174447, -0.036000000000000004, 0.872, 0.45, 192.0, 0.0, 0.0, 0.0, 0.0, 0.0, 0.0, 0.0, 0.0, 0.0, 1.7297039295586276E9, 0.0, 2024-10-23 22:48:49.558
120.0, -46719.14687384926, -56121.58699292982, -20805.49547737783, -26802.40145950335, -19691.819809892157, -18885.212407733492, -187500.02235174447, -187500.02235174447, -0.036000000000000004, 0.872, 0.45, 192.0, 0.0, 0.0, 0.0, 0.0, 0.0, 0.0, 0.0, 0.0, 0.0, 1.729703929563615E9, 0.0, 2024-10-23 22:48:49.563
121.0, -46773.4392611312, -56236.94434606366, -22721.44230859784, -27588.244091063036, -19602.323425093105, -18864.760561556883, -187500.02235174447, -187500.02235174447, -0.036000000000000004, 0.872, 0.45, 192.0, 0.0, 0.0, 0.0, 0.0, 0.0, 0.0, 0.0, 0.0, 0.0, 1.7297039295677536E9, 0.0, 2024-10-23 22:48:49.567
122.0, -46549.36302296675, -56034.41518955412, -27373.80145475882, -27489.58349103731, -19401.60475988445, -18680.73864945634, -187500.02235174447, -187500.02235174447, -0.036000000000000004, 0.872, 0.45, 192.0, 0.0, 0.0, 0.0, 0.0, 0.0, 0.0, 0.0, 0.0, 0.0, 1.7297039295716586E9, 0.0, 2024-10-23 22:48:49.571
123.0, -46489.52740305989, -55916.75560674138, -28299.007212997345, -27019.59336037557, -19411.37247221142, -18623.965218539863, -187500.02235174447, -187500.02235174447, -0.036000000000000004, 0.872, 0.45, 192.0, 0.0, 0.0, 0.0, 0.0, 0.0, 0.0, 0.0, 0.0, 0.0, 1.7297039295756435E9, 0.0, 2024-10-23 22:48:49.575
124.0, -46588.07624436334, -55967.181142232555, -25573.793122028488, -26747.8632030324, -19547.896927344435, -18718.490745841355, -187500.02235174447, -187500.02235174447, -0.036000000000000004, 0.872, 0.45, 192.0, 0.0, 0.0, 0.0, 0.0, 0.0, 0.0, 0.0, 0.0, 0.0, 1.7297039295796857E9, 0.0, 2024-10-23 22:48:49.579
125.0, -46729.24986234306, -56117.2954579944, -20806.769526811782, -26803.96608161522, -19693.675004681947, -18867.3533639137, -187500.02235174447, -187500.02235174447, -0.032, 0.872, 0.448, 192.0, 255.0, 0.0, 27.0, 64.0, 14.0, 0.0, 0.0, 0.0, 0.0, 1.7297039295846467E9, 0.0, 2024-10-23 22:48:49.584
126.0, -46776.769671055044, -56241.50410193254, -22675.889453397926, -27586.768875928985, -19595.88612268998, -18851.483625350433, -187500.02235174447, -187500.02235174447, -0.032, 0.872, 0.448, 192.0, 0.0, 0.0, 0.0, 0.0, 0.0, 0.0, 0.0, 0.0, 0.0, 1.7297039295886588E9, 0.0, 2024-10-23 22:48:49.588
127.0, -46585.37168328425, -56041.500692546455, -27354.087216149237, -27502.3910406102, -19441.726141181727, -18696.563684530698, -187500.02235174447, -187500.02235174447, -0.032, 0.872, 0.448, 192.0, 0.0, 0.0, 0.0, 0.0, 0.0, 0.0, 0.0, 0.0, 0.0, 1.7297039295926845E9, 0.0, 2024-10-23 22:48:49.592
128.0, -46501.84321425477, -55922.58941204422, -28284.053895956746, -27022.00734877674, -19428.449204975273, -18637.979762313338, -187500.02235174447, -187500.02235174447, -0.032, 0.872, 0.448, 192.0, 0.0, 0.0, 0.0, 0.0, 0.0, 0.0, 0.0, 0.0, 0.0, 1.7297039295966685E9, 0.0, 2024-10-23 22:48:49.596
129.0, -46565.07629931883, -55944.76234254389, -25566.461749847145, -26731.2111534132, -19539.090340029044, -18721.619990065097, -187500.02235174447, -187500.02235174447, -0.032, 0.872, 0.448, 192.0, 0.0, 0.0, 0.0, 0.0, 0.0, 0.0, 0.0, 0.0, 0.0, 1.7297039296006856E9, 0.0, 2024-10-23 22:48:49.600
130.0, -46725.91945241922, -56095.30134145038, -20802.120363965078, -26786.30820349553, -19698.592388462115, -18892.767297359384, -187500.02235174447, -187500.02235174447, -0.032, 0.872, 0.448, 192.0, 0.0, 0.0, 0.0, 0.0, 0.0, 0.0, 0.0, 0.0, 0.0, 1.7297039296057255E9, 0.0, 2024-10-23 22:48:49.605
131.0, -46726.6794117307, -56195.4148048657, -22650.944906585803, -27551.386064456234, -19595.774363967703, -18871.5554918713, -187500.02235174447, -187500.02235174447, -0.032, 0.872, 0.448, 192.0, 0.0, 0.0, 0.0, 0.0, 0.0, 0.0, 0.0, 0.0, 0.0, 1.729703929608748E9, 0.0, 2024-10-23 22:48:49.608
132.0, -46556.31441549235, -56022.30054405935, -27332.78600368333, -27474.87604318572, -19426.772824141124, -18711.785222504765, -187500.02235174447, -187500.02235174447, -0.032, 0.872, 0.448, 192.0, 0.0, 0.0, 0.0, 0.0, 0.0, 0.0, 0.0, 0.0, 0.0, 1.7297039296117067E9, 0.0, 2024-10-23 22:48:49.611
133.0, -46525.31254593284, -55920.890679465614, -28295.207416439942, -27022.521438899214, -19443.246059804686, -18667.707582438896, -187500.02235174447, -187500.02235174447, -0.032, 0.872, 0.448, 192.0, 0.0, 0.0, 0.0, 0.0, 0.0, 0.0, 0.0, 0.0, 0.0, 1.7297039296157193E9, 0.0, 2024-10-23 22:48:49.615
134.0, -46542.8363135858, -55923.79640624481, -25602.336299697912, -26723.611560298392, -19548.67923840037, -18736.059216983227, -187500.02235174447, -187500.02235174447, -0.032, 0.872, 0.448, 192.0, 0.0, 0.0, 0.0, 0.0, 0.0, 0.0, 0.0, 0.0, 0.0, 1.7297039296198027E9, 0.0, 2024-10-23 22:48:49.619
135.0, -46685.686312399666, -56081.085631976806, -20842.040579562257, -26772.092494021952, -19693.51854247076, -18887.559340901298, -187500.02235174447, -187500.02235174447, -0.032, 0.874, 0.444, 192.0, 255.0, 0.0, 27.0, 80.0, 13.0, 224.0, 0.0, 0.0, 0.0, 1.7297039296236997E9, 0.0, 2024-10-23 22:48:49.623
136.0, -46714.65417321374, -56191.30208388592, -22657.806892133583, -27528.989616512015, -19584.754953951237, -18855.90927075258, -187500.02235174447, -187500.02235174447, -0.032, 0.874, 0.444, 192.0, 0.0, 0.0, 0.0, 0.0, 0.0, 0.0, 0.0, 0.0, 0.0, 1.729703929627777E9, 0.0, 2024-10-23 22:48:49.627
137.0, -46526.072505244316, -56000.887572871165, -27322.459497744978, -27443.58360094829, -19405.13633550839, -18684.806666947206, -187500.02235174447, -187500.02235174447, -0.032, 0.874, 0.444, 192.0, 0.0, 0.0, 0.0, 0.0, 0.0, 0.0, 0.0, 0.0, 0.0, 1.7297039296317148E9, 0.0, 2024-10-23 22:48:49.631
138.0, -46476.40692906463, -55913.425196817545, -28296.436762384983, -26994.984089730275, -19413.74175712368, -18632.034198288227, -187500.02235174447, -187500.02235174447, -0.032, 0.874, 0.444, 192.0, 0.0, 0.0, 0.0, 0.0, 0.0, 0.0, 0.0, 0.0, 0.0, 1.729703929634746E9, 0.0, 2024-10-23 22:48:49.634
139.0, -46570.35131101028, -55955.62529034916, -25616.194381260204, -26728.037205700544, -19537.369255705984, -18717.283751640767, -187500.02235174447, -187500.02235174447, -0.032, 0.874, 0.444, 192.0, 0.0, 0.0, 0.0, 0.0, 0.0, 0.0, 0.0, 0.0, 0.0, 1.7297039296387267E9, 0.0, 2024-10-23 22:48:49.638
140.0, -46723.55016750695, -56094.496678649986, -20840.990047572857, -26770.594927143447, -19678.52052194125, -18862.145407455613, -187500.02235174447, -187500.02235174447, -0.032, 0.874, 0.444, 192.0, 0.0, 0.0, 0.0, 0.0, 0.0, 0.0, 0.0, 0.0, 0.0, 1.7297039296427503E9, 0.0, 2024-10-23 22:48:49.642
141.0, -46754.57438881092, -56219.286467943966, -22660.086770068025, -27548.949724310605, -19587.794791197157, -18844.956915969484, -187500.02235174447, -187500.02235174447, -0.032, 0.874, 0.444, 192.0, 0.0, 0.0, 0.0, 0.0, 0.0, 0.0, 0.0, 0.0, 0.0, 1.72970392964682E9, 0.0, 2024-10-23 22:48:49.646
142.0, -46568.563171453854, -56030.3248203188, -27338.686864219533, -27472.730275718008, -19420.1343560379, -18676.98355638785, -187500.02235174447, -187500.02235174447, -0.032, 0.874, 0.444, 192.0, 0.0, 0.0, 0.0, 0.0, 0.0, 0.0, 0.0, 0.0, 0.0, 1.72970392965175E9, 0.0, 2024-10-23 22:48:49.651
