%OpenBCI Raw EXG Data
%Number of channels = 8
%Sample Rate = 250 Hz
%Board = OpenBCI_GUI$BoardCytonSerial
Sample Index, EXG Channel 0, EXG Channel 1, EXG Channel 2, EXG Channel 3, EXG Channel 4, EXG Channel 5, EXG Channel 6, EXG Channel 7, Accel Channel 0, Accel Channel 1, Accel Channel 2, Other, Other, Other, Other, Other, Other, Other, Analog Channel 0, Analog Channel 1, Analog Channel 2, Timestamp, Other, Timestamp (Formatted)
0.0, 0.0, 0.0, 0.0, 0.0, 0.0, 0.0, 0.0, 0.0, -0.156, 0.742, 0.622, 192.0, 251.0, 32.0, 23.0, 48.0, 19.0, 112.0, 0.0, 0.0, 0.0, 1.7297052562900853E9, 0.0, 2024-10-23 23:10:56.290
1.0, -43417.79421780041, -51140.25487187563, -33367.30997172713, -19658.672172864935, -11004.70256861479, -10467.41133539812, -187500.02235174447, -187500.02235174447, -0.156, 0.742, 0.622, 192.0, 0.0, 0.0, 0.0, 0.0, 0.0, 0.0, 0.0, 0.0, 0.0, 1.7297052563070004E9, 0.0, 2024-10-23 23:10:56.307
2.0, -44292.23916438093, -52731.11793173766, -19034.455005461576, -19704.13562108703, -12342.92386089848, -11882.097945463413, -187500.02235174447, -187500.02235174447, -0.156, 0.742, 0.622, 192.0, 0.0, 0.0, 0.0, 0.0, 0.0, 0.0, 0.0, 0.0, 0.0, 1.7297052563100092E9, 0.0, 2024-10-23 23:10:56.310
3.0, -45904.60460240896, -54139.277832422005, -5842.097800028062, -21249.334067026863, -13809.622980311273, -13243.363886280524, -187500.02235174447, -187500.02235174447, -0.156, 0.742, 0.622, 192.0, 0.0, 0.0, 0.0, 0.0, 0.0, 0.0, 0.0, 0.0, 0.0, 1.729705256313958E9, 0.0, 2024-10-23 23:10:56.313
4.0, -46125.0375062272, -53452.81105671061, -11809.678293428218, -22283.951614374117, -13431.364408894111, -12701.736414639523, -187500.02235174447, -187500.02235174447, -0.156, 0.742, 0.622, 192.0, 0.0, 0.0, 0.0, 0.0, 0.0, 0.0, 0.0, 0.0, 0.0, 1.7297052563169572E9, 0.0, 2024-10-23 23:10:56.316
5.0, -44668.79900321949, -51670.41589861106, -28097.88621638849, -21320.16674520573, -11791.372214719322, -11048.333173791549, -187500.02235174447, -187500.02235174447, -0.156, 0.742, 0.622, 192.0, 0.0, 0.0, 0.0, 0.0, 0.0, 0.0, 0.0, 0.0, 0.0, 1.729705256320974E9, 0.0, 2024-10-23 23:10:56.320
6.0, -43439.14013375522, -51150.000232458144, -33178.19186189078, -19668.79751310319, -11055.552787250614, -10473.759230823425, -187500.02235174447, -187500.02235174447, -0.156, 0.742, 0.622, 192.0, 0.0, 0.0, 0.0, 0.0, 0.0, 0.0, 0.0, 0.0, 0.0, 1.7297052563249967E9, 0.0, 2024-10-23 23:10:56.324
7.0, -44306.43252211005, -52727.38519041362, -18922.003379106925, -19712.316359557673, -12354.233843592865, -11857.622785284851, -187500.02235174447, -187500.02235174447, -0.156, 0.742, 0.622, 192.0, 0.0, 0.0, 0.0, 0.0, 0.0, 0.0, 0.0, 0.0, 0.0, 1.729705256328992E9, 0.0, 2024-10-23 23:10:56.328
8.0, -45903.41995995283, -54123.78807351447, -5833.045343523663, -21243.455558235117, -13779.112849129779, -13192.491315900244, -187500.02235174447, -187500.02235174447, -0.162, 0.748, 0.616, 192.0, 250.0, 240.0, 23.0, 96.0, 19.0, 64.0, 0.0, 0.0, 0.0, 1.7297052563330157E9, 0.0, 2024-10-23 23:10:56.333
9.0, -46110.15124441996, -53433.119169845486, -11739.449112349643, -22250.31223896888, -13381.74353620333, -12635.798768496368, -187500.02235174447, -187500.02235174447, -0.162, 0.748, 0.616, 192.0, 0.0, 0.0, 0.0, 0.0, 0.0, 0.0, 0.0, 0.0, 0.0, 1.729705256337018E9, 0.0, 2024-10-23 23:10:56.337
10.0, -44662.11583162735, -51666.05730844227, -27946.877830848436, -21288.471971568106, -11735.22463264759, -10983.356652659972, -187500.02235174447, -187500.02235174447, -0.162, 0.748, 0.616, 192.0, 0.0, 0.0, 0.0, 0.0, 0.0, 0.0, 0.0, 0.0, 0.0, 1.7297052563400726E9, 0.0, 2024-10-23 23:10:56.340
11.0, -43433.59690113031, -51143.518226566106, -33108.1638465123, -19642.578916857114, -10987.60348410648, -10395.304607785298, -187500.02235174447, -187500.02235174447, -0.162, 0.748, 0.616, 192.0, 0.0, 0.0, 0.0, 0.0, 0.0, 0.0, 0.0, 0.0, 0.0, 1.7297052563450167E9, 0.0, 2024-10-23 23:10:56.345
12.0, -44300.59871680722, -52724.61357410116, -18946.769111963407, -19685.56132144467, -12304.724729624359, -11784.867857082827, -187500.02235174447, -187500.02235174447, -0.162, 0.748, 0.616, 192.0, 0.0, 0.0, 0.0, 0.0, 0.0, 0.0, 0.0, 0.0, 0.0, 1.729705256349038E9, 0.0, 2024-10-23 23:10:56.349
13.0, -45910.61722166744, -54150.05137324946, -5753.204912329306, -21227.25054350502, -13765.277119311944, -13148.41367583438, -187500.02235174447, -187500.02235174447, -0.162, 0.748, 0.616, 192.0, 0.0, 0.0, 0.0, 0.0, 0.0, 0.0, 0.0, 0.0, 0.0, 1.7297052563520799E9, 0.0, 2024-10-23 23:10:56.352
14.0, -46127.27268067273, -53468.345519107046, -11523.017170788906, -22253.709704126086, -13379.463658268889, -12608.97667515, -187500.02235174447, -187500.02235174447, -0.162, 0.748, 0.616, 192.0, 0.0, 0.0, 0.0, 0.0, 0.0, 0.0, 0.0, 0.0, 0.0, 1.7297052563582215E9, 0.0, 2024-10-23 23:10:56.358
15.0, -44665.31213108446, -51682.932875506034, -27824.434974722266, -21300.0278234515, -11712.135280625258, -10950.45488482176, -187500.02235174447, -187500.02235174447, -0.162, 0.748, 0.616, 192.0, 0.0, 0.0, 0.0, 0.0, 0.0, 0.0, 0.0, 0.0, 0.0, 1.7297052563610234E9, 0.0, 2024-10-23 23:10:56.361
16.0, -43411.08869446382, -51136.85740671842, -33206.891501771395, -19648.144501226485, -10944.576376030014, -10354.378563687631, -187500.02235174447, -187500.02235174447, -0.162, 0.748, 0.616, 192.0, 0.0, 0.0, 0.0, 0.0, 0.0, 0.0, 0.0, 0.0, 0.0, 1.7297052563650396E9, 0.0, 2024-10-23 23:10:56.365
17.0, -44261.03612912132, -52713.21418442896, -19031.01283681546, -19672.217330004853, -12252.779275510225, -11754.13420845678, -187500.02235174447, -187500.02235174447, -0.162, 0.748, 0.616, 192.0, 0.0, 0.0, 0.0, 0.0, 0.0, 0.0, 0.0, 0.0, 0.0, 1.7297052563691711E9, 0.0, 2024-10-23 23:10:56.369
18.0, -45880.01768350812, -54142.72000106812, -5780.854020220521, -21220.76853761298, -13723.43465369161, -13144.256251365692, -187500.02235174447, -187500.02235174447, -0.154, 0.748, 0.614, 192.0, 251.0, 48.0, 23.0, 96.0, 19.0, 48.0, 0.0, 0.0, 0.0, 1.7297052563733249E9, 0.0, 2024-10-23 23:10:56.373
19.0, -46115.135683433495, -53474.13462092097, -11547.492330967467, -22263.052733308403, -13355.591995190622, -12636.379913852206, -187500.02235174447, -187500.02235174447, -0.154, 0.748, 0.614, 192.0, 0.0, 0.0, 0.0, 0.0, 0.0, 0.0, 0.0, 0.0, 0.0, 1.7297052563760917E9, 0.0, 2024-10-23 23:10:56.376
20.0, -44655.365604801846, -51679.37894813764, -27824.03264332207, -21299.938416473677, -11698.858344418806, -10987.916408528854, -187500.02235174447, -187500.02235174447, -0.154, 0.748, 0.614, 192.0, 0.0, 0.0, 0.0, 0.0, 0.0, 0.0, 0.0, 0.0, 0.0, 1.7297052563800805E9, 0.0, 2024-10-23 23:10:56.380
21.0, -43423.94094752562, -51140.14311315335, -33189.47949284071, -19659.521539154237, -10957.071001180531, -10413.118948116178, -187500.02235174447, -187500.02235174447, -0.154, 0.748, 0.614, 192.0, 0.0, 0.0, 0.0, 0.0, 0.0, 0.0, 0.0, 0.0, 0.0, 1.7297052563840525E9, 0.0, 2024-10-23 23:10:56.384
22.0, -44281.845603209214, -52708.788539026806, -19074.419924547663, -19689.919911613455, -12289.458488161385, -11821.43531101171, -187500.02235174447, -187500.02235174447, -0.154, 0.748, 0.614, 192.0, 0.0, 0.0, 0.0, 0.0, 0.0, 0.0, 0.0, 0.0, 0.0, 1.7297052563880796E9, 0.0, 2024-10-23 23:10:56.388
23.0, -45886.812613822534, -54115.60733504383, -5909.734178749822, -21218.421604445175, -13754.548281973397, -13193.698310100832, -187500.02235174447, -187500.02235174447, -0.154, 0.748, 0.614, 192.0, 0.0, 0.0, 0.0, 0.0, 0.0, 0.0, 0.0, 0.0, 0.0, 1.729705256393103E9, 0.0, 2024-10-23 23:10:56.393
24.0, -46112.22995665431, -53441.791646694146, -11677.937111608639, -22244.79135808842, -13391.064213641193, -12676.724812594035, -187500.02235174447, -187500.02235174447, -0.154, 0.748, 0.614, 192.0, 0.0, 0.0, 0.0, 0.0, 0.0, 0.0, 0.0, 0.0, 0.0, 1.729705256398073E9, 0.0, 2024-10-23 23:10:56.398
25.0, -44658.5395525145, -51663.79978225229, -27904.163647194346, -21289.008413435033, -11758.291632925468, -11045.47215050127, -187500.02235174447, -187500.02235174447, -0.154, 0.748, 0.614, 192.0, 0.0, 0.0, 0.0, 0.0, 0.0, 0.0, 0.0, 0.0, 0.0, 1.729705256402158E9, 0.0, 2024-10-23 23:10:56.402
26.0, -43426.46669464907, -51128.05081940303, -33251.416176726365, -19653.866547807043, -11017.577173421047, -10467.232521442476, -187500.02235174447, -187500.02235174447, -0.154, 0.748, 0.614, 192.0, 0.0, 0.0, 0.0, 0.0, 0.0, 0.0, 0.0, 0.0, 0.0, 1.729705256405108E9, 0.0, 2024-10-23 23:10:56.405
27.0, -44287.500594556404, -52709.21322217146, -19157.3225447324, -19695.239626793817, -12343.281488809764, -11866.697593533707, -187500.02235174447, -187500.02235174447, -0.154, 0.748, 0.614, 192.0, 0.0, 0.0, 0.0, 0.0, 0.0, 0.0, 0.0, 0.0, 0.0, 1.7297052564101028E9, 0.0, 2024-10-23 23:10:56.410
28.0, -45885.31504694403, -54119.98827695707, -5992.480336723368, -21226.69174989364, -13798.312997616888, -13227.13651980597, -187500.02235174447, -187500.02235174447, -0.148, 0.75, 0.61, 192.0, 251.0, 96.0, 23.0, 112.0, 19.0, 16.0, 0.0, 0.0, 0.0, 1.729705256413102E9, 0.0, 2024-10-23 23:10:56.413
29.0, -46114.59924156657, -53456.78966722365, -11694.611512972298, -22253.039151792425, -13435.834757785173, -12708.777214142945, -187500.02235174447, -187500.02235174447, -0.148, 0.75, 0.61, 192.0, 0.0, 0.0, 0.0, 0.0, 0.0, 0.0, 0.0, 0.0, 0.0, 1.729705256418076E9, 0.0, 2024-10-23 23:10:56.418
30.0, -44668.79900321949, -51692.36531166617, -27876.179263136302, -21310.756660790048, -11805.342055003888, -11068.829723457065, -187500.02235174447, -187500.02235174447, -0.148, 0.75, 0.61, 192.0, 0.0, 0.0, 0.0, 0.0, 0.0, 0.0, 0.0, 0.0, 0.0, 1.7297052564210775E9, 0.0, 2024-10-23 23:10:56.421
31.0, -43436.88260756524, -51156.571645328004, -33300.768828483684, -19681.023917320243, -11033.245746284218, -10470.227655199487, -187500.02235174447, -187500.02235174447, -0.148, 0.75, 0.61, 192.0, 0.0, 0.0, 0.0, 0.0, 0.0, 0.0, 0.0, 0.0, 0.0, 1.7297052564281876E9, 0.0, 2024-10-23 23:10:56.428
32.0, -44286.315952100274, -52730.805007315284, -19208.03865290149, -19708.024824622255, -12321.53324145475, -11844.278793845033, -187500.02235174447, -187500.02235174447, -0.148, 0.75, 0.61, 192.0, 0.0, 0.0, 0.0, 0.0, 0.0, 0.0, 0.0, 0.0, 0.0, 1.7297052564311345E9, 0.0, 2024-10-23 23:10:56.431
33.0, -45891.864108069436, -54154.70053609616, -5860.023899081219, -21228.72575863907, -13782.242093353521, -13207.221115496293, -187500.02235174447, -187500.02235174447, -0.148, 0.75, 0.61, 192.0, 0.0, 0.0, 0.0, 0.0, 0.0, 0.0, 0.0, 0.0, 0.0, 1.7297052564351208E9, 0.0, 2024-10-23 23:10:56.435
34.0, -46153.603035641085, -53515.530051652204, -11380.055413252761, -22280.576500961364, -13439.165167709014, -12716.242696791018, -187500.02235174447, -187500.02235174447, -0.148, 0.75, 0.61, 192.0, 0.0, 0.0, 0.0, 0.0, 0.0, 0.0, 0.0, 0.0, 0.0, 1.7297052564381661E9, 0.0, 2024-10-23 23:10:56.438
35.0, -44697.14101518882, -51721.13200678015, -27707.736516921108, -21336.237649469098, -11776.70947035664, -11046.321516790571, -187500.02235174447, -187500.02235174447, -0.148, 0.75, 0.61, 192.0, 0.0, 0.0, 0.0, 0.0, 0.0, 0.0, 0.0, 0.0, 0.0, 1.7297052564421663E9, 0.0, 2024-10-23 23:10:56.442
36.0, -43420.65524109069, -51133.88462470587, -33498.11238027959, -19672.150274771488, -10979.065117724553, -10403.083014855745, -187500.02235174447, -187500.02235174447, -0.148, 0.75, 0.61, 192.0, 0.0, 0.0, 0.0, 0.0, 0.0, 0.0, 0.0, 0.0, 0.0, 1.729705256445253E9, 0.0, 2024-10-23 23:10:56.445
37.0, -44257.97394013094, -52711.04606521679, -19421.676626405315, -19668.752809614278, -12298.734462110337, -11791.95336007516, -187500.02235174447, -187500.02235174447, -0.148, 0.75, 0.61, 192.0, 0.0, 0.0, 0.0, 0.0, 0.0, 0.0, 0.0, 0.0, 0.0, 1.7297052564492345E9, 0.0, 2024-10-23 23:10:56.449
38.0, -45898.52492791712, -54173.20778050516, -5878.151163834473, -21211.403156686207, -13787.360642833788, -13191.060804255105, -187500.02235174447, -187500.02235174447, -0.15, 0.75, 0.608, 192.0, 251.0, 80.0, 23.0, 112.0, 19.0, 0.0, 0.0, 0.0, 0.0, 1.7297052564531534E9, 0.0, 2024-10-23 23:10:56.453
39.0, -46167.46111720337, -53530.438665203896, -11299.723243680388, -22272.663983424187, -13436.237089185368, -12689.398251700193, -187500.02235174447, -187500.02235174447, -0.15, 0.75, 0.608, 192.0, 0.0, 0.0, 0.0, 0.0, 0.0, 0.0, 0.0, 0.0, 0.0, 1.729705256460149E9, 0.0, 2024-10-23 23:10:56.460
40.0, -44689.36260811837, -51706.782186839846, -27616.07201290989, -21307.158029932743, -11733.078865179881, -10998.55583888958, -187500.02235174447, -187500.02235174447, -0.15, 0.75, 0.608, 192.0, 0.0, 0.0, 0.0, 0.0, 0.0, 0.0, 0.0, 0.0, 0.0, 1.7297052564642067E9, 0.0, 2024-10-23 23:10:56.464
41.0, -43411.55808109738, -51118.08194137597, -33380.78807363368, -19644.501166880273, -10932.662896235335, -10369.644805150605, -187500.02235174447, -187500.02235174447, -0.15, 0.75, 0.608, 192.0, 0.0, 0.0, 0.0, 0.0, 0.0, 0.0, 0.0, 0.0, 0.0, 1.7297052564672093E9, 0.0, 2024-10-23 23:10:56.467
42.0, -44247.110992325666, -52689.7895562398, -19312.82363090797, -19647.764521570745, -12243.592708539094, -11775.703641856151, -187500.02235174447, -187500.02235174447, -0.15, 0.75, 0.608, 192.0, 0.0, 0.0, 0.0, 0.0, 0.0, 0.0, 0.0, 0.0, 0.0, 1.7297052564712968E9, 0.0, 2024-10-23 23:10:56.471
43.0, -45885.20328822175, -54148.59850985987, -5857.744021146777, -21194.52758962245, -13717.62320013323, -13195.821725824086, -187500.02235174447, -187500.02235174447, -0.15, 0.75, 0.608, 192.0, 0.0, 0.0, 0.0, 0.0, 0.0, 0.0, 0.0, 0.0, 0.0, 1.7297052564741902E9, 0.0, 2024-10-23 23:10:56.474
44.0, -46142.0918872466, -53494.89939151995, -11317.939915411464, -22248.45704417909, -13367.88545464104, -12711.638237433224, -187500.02235174447, -187500.02235174447, -0.15, 0.75, 0.608, 192.0, 0.0, 0.0, 0.0, 0.0, 0.0, 0.0, 0.0, 0.0, 0.0, 1.7297052564772997E9, 0.0, 2024-10-23 23:10:56.477
45.0, -44672.576448032436, -51675.98148298043, -27640.122489943802, -21287.667308767715, -11695.103251350314, -11045.695667945824, -187500.02235174447, -187500.02235174447, -0.15, 0.75, 0.608, 192.0, 0.0, 0.0, 0.0, 0.0, 0.0, 0.0, 0.0, 0.0, 0.0, 1.729705256481198E9, 0.0, 2024-10-23 23:10:56.481
46.0, -43417.481293378034, -51096.51250797659, -33441.204838896374, -19643.137710468498, -10926.11383510993, -10435.44834082703, -187500.02235174447, -187500.02235174447, -0.15, 0.75, 0.608, 192.0, 0.0, 0.0, 0.0, 0.0, 0.0, 0.0, 0.0, 0.0, 0.0, 1.7297052564851801E9, 0.0, 2024-10-23 23:10:56.485
47.0, -44275.58711476173, -52693.03055918581, -19369.97704148019, -19666.249414235284, -12270.034822229723, -11855.231148628134, -187500.02235174447, -187500.02235174447, -0.15, 0.75, 0.608, 192.0, 0.0, 0.0, 0.0, 0.0, 0.0, 0.0, 0.0, 0.0, 0.0, 1.7297052564891796E9, 0.0, 2024-10-23 23:10:56.489
48.0, -45922.6424601844, -54166.032870535004, -5818.159081716429, -21220.276799234965, -13785.617206766274, -13273.494037806278, -187500.02235174447, -187500.02235174447, -0.156, 0.75, 0.602, 192.0, 251.0, 32.0, 23.0, 112.0, 18.0, 208.0, 0.0, 0.0, 0.0, 1.7297052564932373E9, 0.0, 2024-10-23 23:10:56.493
49.0, -46185.87895463454, -53514.85949931855, -11279.472563203879, -22286.25384405301, -13448.552900380242, -12778.022918465485, -187500.02235174447, -187500.02235174447, -0.156, 0.75, 0.602, 192.0, 0.0, 0.0, 0.0, 0.0, 0.0, 0.0, 0.0, 0.0, 0.0, 1.729705256496248E9, 0.0, 2024-10-23 23:10:56.496
50.0, -44683.618209793356, -51666.75021252039, -27721.616950227854, -21311.047233467965, -11753.530711356487, -11076.675185760878, -187500.02235174447, -187500.02235174447, -0.156, 0.75, 0.602, 192.0, 0.0, 0.0, 0.0, 0.0, 0.0, 0.0, 0.0, 0.0, 0.0, 1.7297052565002255E9, 0.0, 2024-10-23 23:10:56.500
51.0, -43394.01196169996, -51070.740946619626, -33664.31995204925, -19645.998733758777, -10953.002983689665, -10434.330753604265, -187500.02235174447, -187500.02235174447, -0.156, 0.75, 0.602, 192.0, 0.0, 0.0, 0.0, 0.0, 0.0, 0.0, 0.0, 0.0, 0.0, 1.7297052565042212E9, 0.0, 2024-10-23 23:10:56.504
52.0, -44237.164466043054, -52669.65063448556, -19535.44700568283, -19655.095893752088, -12289.458488161385, -11848.972660180649, -187500.02235174447, -187500.02235174447, -0.156, 0.75, 0.602, 192.0, 0.0, 0.0, 0.0, 0.0, 0.0, 0.0, 0.0, 0.0, 0.0, 1.7297052565092301E9, 0.0, 2024-10-23 23:10:56.509
53.0, -45903.4870151862, -54171.352585715365, -5802.110529197518, -21221.237924246543, -13827.414968897698, -13289.520238580733, -187500.02235174447, -187500.02235174447, -0.156, 0.75, 0.602, 192.0, 0.0, 0.0, 0.0, 0.0, 0.0, 0.0, 0.0, 0.0, 0.0, 1.7297052565142596E9, 0.0, 2024-10-23 23:10:56.514
54.0, -46192.13744308203, -53542.732124654314, -11089.19216265585, -22305.18577160666, -13499.939560882995, -12807.169593235207, -187500.02235174447, -187500.02235174447, -0.156, 0.75, 0.602, 192.0, 0.0, 0.0, 0.0, 0.0, 0.0, 0.0, 0.0, 0.0, 0.0, 1.7297052565183122E9, 0.0, 2024-10-23 23:10:56.518
55.0, -44690.815471507965, -51681.65882607208, -27624.14099265826, -21333.80130932347, -11781.693909370173, -11082.687805019355, -187500.02235174447, -187500.02235174447, -0.156, 0.75, 0.602, 192.0, 0.0, 0.0, 0.0, 0.0, 0.0, 0.0, 0.0, 0.0, 0.0, 1.7297052565212467E9, 0.0, 2024-10-23 23:10:56.521
56.0, -43377.38226382521, -51053.37364117785, -33781.957183117534, -19641.193108700885, -10943.16821612933, -10399.752604931904, -187500.02235174447, -187500.02235174447, -0.156, 0.75, 0.602, 192.0, 0.0, 0.0, 0.0, 0.0, 0.0, 0.0, 0.0, 0.0, 0.0, 1.729705256524268E9, 0.0, 2024-10-23 23:10:56.524
57.0, -44215.0362390323, -52655.74784943436, -19660.393257187996, -19628.944352739378, -12271.510037363772, -11806.929028860215, -187500.02235174447, -187500.02235174447, -0.156, 0.75, 0.602, 192.0, 0.0, 0.0, 0.0, 0.0, 0.0, 0.0, 0.0, 0.0, 0.0, 1.7297052565282426E9, 0.0, 2024-10-23 23:10:56.528
58.0, -45904.26932624213, -54178.77336487453, -5814.046360736652, -21207.648063617715, -13827.772596808982, -13266.520293536221, -187500.02235174447, -187500.02235174447, -0.162, 0.758, 0.608, 192.0, 250.0, 240.0, 23.0, 176.0, 19.0, 0.0, 0.0, 0.0, 0.0, 1.7297052565322497E9, 0.0, 2024-10-23 23:10:56.532
59.0, -46196.98777162883, -53555.249101549285, -10996.901809799887, -22304.470515784087, -13505.728662696918, -12786.114249958307, -187500.02235174447, -187500.02235174447, -0.162, 0.758, 0.608, 192.0, 0.0, 0.0, 0.0, 0.0, 0.0, 0.0, 0.0, 0.0, 0.0, 1.7297052565372558E9, 0.0, 2024-10-23 23:10:56.537
60.0, -44691.5977825639, -51689.638398842624, -27515.73503205002, -21335.432986668708, -11776.128325000802, -11053.18350233835, -187500.02235174447, -187500.02235174447, -0.162, 0.758, 0.608, 192.0, 0.0, 0.0, 0.0, 0.0, 0.0, 0.0, 0.0, 0.0, 0.0, 1.7297052565413003E9, 0.0, 2024-10-23 23:10:56.541
61.0, -43377.069339402835, -51053.03836501102, -33727.10600222421, -19645.819919803136, -10918.983628628688, -10364.1462760146, -187500.02235174447, -187500.02235174447, -0.162, 0.758, 0.608, 192.0, 0.0, 0.0, 0.0, 0.0, 0.0, 0.0, 0.0, 0.0, 0.0, 1.7297052565452936E9, 0.0, 2024-10-23 23:10:56.545
62.0, -44220.825340846226, -52658.49711400236, -19674.720725383846, -19641.349570912073, -12250.208824897865, -11782.409165192743, -187500.02235174447, -187500.02235174447, -0.162, 0.758, 0.608, 192.0, 0.0, 0.0, 0.0, 0.0, 0.0, 0.0, 0.0, 0.0, 0.0, 1.7297052565482876E9, 0.0, 2024-10-23 23:10:56.548
63.0, -45912.74063739069, -54184.87539111083, -5874.552532977168, -21221.14851726872, -13801.844573240825, -13249.600022983555, -187500.02235174447, -187500.02235174447, -0.162, 0.758, 0.608, 192.0, 0.0, 0.0, 0.0, 0.0, 0.0, 0.0, 0.0, 0.0, 0.0, 1.729705256552298E9, 0.0, 2024-10-23 23:10:56.552
64.0, -46203.223908331864, -53555.69613643839, -11007.027150038142, -22312.56184727691, -13478.079554805703, -12768.501075327526, -187500.02235174447, -187500.02235174447, -0.162, 0.758, 0.608, 192.0, 0.0, 0.0, 0.0, 0.0, 0.0, 0.0, 0.0, 0.0, 0.0, 1.7297052565563023E9, 0.0, 2024-10-23 23:10:56.556
65.0, -44688.89322148481, -51678.61898882616, -27432.76535663192, -21329.50977438805, -11742.533653084476, -11023.52273744616, -187500.02235174447, -187500.02235174447, -0.162, 0.758, 0.608, 192.0, 0.0, 0.0, 0.0, 0.0, 0.0, 0.0, 0.0, 0.0, 0.0, 1.729705256560313E9, 0.0, 2024-10-23 23:10:56.560
66.0, -43375.77293822443, -51034.62052757985, -33655.781585667326, -19643.249469190774, -10899.761128397124, -10343.605022860173, -187500.02235174447, -187500.02235174447, -0.162, 0.758, 0.608, 192.0, 0.0, 0.0, 0.0, 0.0, 0.0, 0.0, 0.0, 0.0, 0.0, 1.729705256565314E9, 0.0, 2024-10-23 23:10:56.565
67.0, -44231.97886132942, -52651.456314498944, -19679.191074274906, -19649.619716360536, -12241.80456898267, -11782.655034381753, -187500.02235174447, -187500.02235174447, -0.162, 0.758, 0.608, 192.0, 0.0, 0.0, 0.0, 0.0, 0.0, 0.0, 0.0, 0.0, 0.0, 1.7297052565693858E9, 0.0, 2024-10-23 23:10:56.569
68.0, -45922.86597762895, -54185.07655681093, -5911.5670217951565, -21237.57704944337, -13796.413099338186, -13259.211273099336, -187500.02235174447, -187500.02235174447, -0.154, 0.752, 0.606, 192.0, 251.0, 48.0, 23.0, 128.0, 18.0, 240.0, 0.0, 0.0, 0.0, 1.7297052565733805E9, 0.0, 2024-10-23 23:10:56.573
69.0, -46213.59511775913, -53563.16161908646, -10972.784277532612, -22323.89418171575, -13472.268101247324, -12790.271674426995, -187500.02235174447, -187500.02235174447, -0.154, 0.752, 0.606, 192.0, 0.0, 0.0, 0.0, 0.0, 0.0, 0.0, 0.0, 0.0, 0.0, 1.7297052565763404E9, 0.0, 2024-10-23 23:10:56.576
70.0, -44693.22945990914, -51674.75213703539, -27348.78985271333, -21336.058835513453, -11734.822301247395, -11053.585833738547, -187500.02235174447, -187500.02235174447, -0.154, 0.752, 0.606, 192.0, 0.0, 0.0, 0.0, 0.0, 0.0, 0.0, 0.0, 0.0, 0.0, 1.7297052565813692E9, 0.0, 2024-10-23 23:10:56.581
71.0, -43375.325903335324, -51024.38342861932, -33673.81944344276, -19648.70329483787, -10884.047852045042, -10364.19097950351, -187500.02235174447, -187500.02235174447, -0.154, 0.752, 0.606, 192.0, 0.0, 0.0, 0.0, 0.0, 0.0, 0.0, 0.0, 0.0, 0.0, 1.7297052565863504E9, 0.0, 2024-10-23 23:10:56.586
72.0, -44232.336489240704, -52651.4786662434, -19760.417313625494, -19653.50891989576, -12238.250641614277, -11808.024264338526, -187500.02235174447, -187500.02235174447, -0.154, 0.752, 0.606, 192.0, 0.0, 0.0, 0.0, 0.0, 0.0, 0.0, 0.0, 0.0, 0.0, 1.729705256590405E9, 0.0, 2024-10-23 23:10:56.590
73.0, -45933.34894577849, -54199.873411640336, -5921.580603311134, -21241.466252978596, -13817.893125759736, -13298.885619507506, -187500.02235174447, -187500.02235174447, -0.154, 0.752, 0.606, 192.0, 0.0, 0.0, 0.0, 0.0, 0.0, 0.0, 0.0, 0.0, 0.0, 1.7297052565933795E9, 0.0, 2024-10-23 23:10:56.593
74.0, -46231.476513323374, -53580.908904183976, -10881.633863643869, -22334.466556843112, -13501.303017294767, -12831.39888422476, -187500.02235174447, -187500.02235174447, -0.154, 0.752, 0.606, 192.0, 0.0, 0.0, 0.0, 0.0, 0.0, 0.0, 0.0, 0.0, 0.0, 1.7297052565973828E9, 0.0, 2024-10-23 23:10:56.597
75.0, -44703.108930958384, -51682.26232317237, -27289.043639784297, -21343.21139373915, -11762.583167860887, -11081.704328263322, -187500.02235174447, -187500.02235174447, -0.154, 0.752, 0.606, 192.0, 0.0, 0.0, 0.0, 0.0, 0.0, 0.0, 0.0, 0.0, 0.0, 1.7297052566013727E9, 0.0, 2024-10-23 23:10:56.601
76.0, -43373.023673656426, -51020.13659717281, -33721.94274925503, -19649.37384717153, -10905.952561611242, -10379.05488956629, -187500.02235174447, -187500.02235174447, -0.154, 0.752, 0.606, 192.0, 0.0, 0.0, 0.0, 0.0, 0.0, 0.0, 0.0, 0.0, 0.0, 1.729705256604391E9, 0.0, 2024-10-23 23:10:56.604
77.0, -44215.59503264368, -52635.60892768013, -19846.806805945256, -19638.734416810803, -12248.957127208369, -11804.470336970131, -187500.02235174447, -187500.02235174447, -0.154, 0.752, 0.606, 192.0, 0.0, 0.0, 0.0, 0.0, 0.0, 0.0, 0.0, 0.0, 0.0, 1.7297052566084087E9, 0.0, 2024-10-23 23:10:56.608
78.0, -45919.15558804937, -54185.881219611314, -5989.7534238998205, -21223.96483707009, -13834.344009678844, -13291.934226981906, -187500.02235174447, -187500.02235174447, -0.162, 0.754, 0.61, 192.0, 250.0, 240.0, 23.0, 144.0, 19.0, 16.0, 0.0, 0.0, 0.0, 1.729705256614453E9, 0.0, 2024-10-23 23:10:56.614
79.0, -46218.51250153929, -53570.73886045681, -10878.459915931215, -22318.75328049103, -13513.730587211918, -12819.820680596911, -187500.02235174447, -187500.02235174447, -0.162, 0.754, 0.61, 192.0, 0.0, 0.0, 0.0, 0.0, 0.0, 0.0, 0.0, 0.0, 0.0, 1.7297052566173887E9, 0.0, 2024-10-23 23:10:56.617
80.0, -44700.672590812756, -51677.836677770225, -27295.078610787226, -21338.249306470076, -11762.314946927423, -11069.299110090627, -187500.02235174447, -187500.02235174447, -0.162, 0.754, 0.61, 192.0, 0.0, 0.0, 0.0, 0.0, 0.0, 0.0, 0.0, 0.0, 0.0, 1.729705256621403E9, 0.0, 2024-10-23 23:10:56.621
81.0, -43368.24040034299, -51003.57395453143, -33819.843389969275, -19643.40593140196, -10892.183887026775, -10353.126865998134, -187500.02235174447, -187500.02235174447, -0.162, 0.754, 0.61, 192.0, 0.0, 0.0, 0.0, 0.0, 0.0, 0.0, 0.0, 0.0, 0.0, 1.7297052566254373E9, 0.0, 2024-10-23 23:10:56.625
82.0, -44194.45028238896, -52609.569145389694, -19971.551891750325, -19615.443899088372, -12216.837670426092, -11761.689098082674, -187500.02235174447, -187500.02235174447, -0.162, 0.754, 0.61, 192.0, 0.0, 0.0, 0.0, 0.0, 0.0, 0.0, 0.0, 0.0, 0.0, 1.7297052566294272E9, 0.0, 2024-10-23 23:10:56.629
83.0, -45883.817480065525, -54158.45562916466, -6026.3208778287035, -21189.65490933119, -13787.651215511707, -13238.33474377808, -187500.02235174447, -187500.02235174447, -0.162, 0.754, 0.61, 192.0, 0.0, 0.0, 0.0, 0.0, 0.0, 0.0, 0.0, 0.0, 0.0, 1.729705256632426E9, 0.0, 2024-10-23 23:10:56.632
84.0, -46203.223908331864, -53574.09162212511, -10795.624350979848, -22304.872847184284, -13495.536267225298, -12791.232799438572, -187500.02235174447, -187500.02235174447, -0.162, 0.754, 0.61, 192.0, 0.0, 0.0, 0.0, 0.0, 0.0, 0.0, 0.0, 0.0, 0.0, 1.7297052566364324E9, 0.0, 2024-10-23 23:10:56.636
85.0, -44705.47821587065, -51705.865765317176, -27221.72018548491, -21355.884832845313, -11772.529694143497, -11060.403115797415, -187500.02235174447, -187500.02235174447, -0.162, 0.754, 0.61, 192.0, 0.0, 0.0, 0.0, 0.0, 0.0, 0.0, 0.0, 0.0, 0.0, 1.7297052566404326E9, 0.0, 2024-10-23 23:10:56.640
86.0, -43373.89539169019, -51030.95484148918, -33951.02577817748, -19674.117228283554, -10890.775727126089, -10335.826615789725, -187500.02235174447, -187500.02235174447, -0.162, 0.754, 0.61, 192.0, 0.0, 0.0, 0.0, 0.0, 0.0, 0.0, 0.0, 0.0, 0.0, 1.7297052566444447E9, 0.0, 2024-10-23 23:10:56.644
87.0, -44171.27152338881, -52606.81988082169, -20149.136501447738, -19613.566352554128, -12180.337271730576, -11718.885507450761, -187500.02235174447, -187500.02235174447, -0.162, 0.754, 0.61, 192.0, 0.0, 0.0, 0.0, 0.0, 0.0, 0.0, 0.0, 0.0, 0.0, 1.7297052566484468E9, 0.0, 2024-10-23 23:10:56.648
88.0, -45875.18970670578, -54166.68107112421, -6007.612467719611, -21178.52374059245, -13767.467590268565, -13219.13459529097, -187500.02235174447, -187500.02235174447, -0.166, 0.748, 0.608, 192.0, 250.0, 208.0, 23.0, 96.0, 19.0, 0.0, 0.0, 0.0, 0.0, 1.729705256653428E9, 0.0, 2024-10-23 23:10:56.653
89.0, -46227.85553072161, -53604.31118062868, -10567.144819157698, -22325.52585906099, -13504.409909774055, -12806.141412990262, -187500.02235174447, -187500.02235174447, -0.166, 0.748, 0.608, 192.0, 0.0, 0.0, 0.0, 0.0, 0.0, 0.0, 0.0, 0.0, 0.0, 1.729705256657503E9, 0.0, 2024-10-23 23:10:56.657
90.0, -44741.17395176577, -51729.826835373264, -27063.469834741336, -21401.594150256416, -11777.3800226903, -11080.609092785013, -187500.02235174447, -187500.02235174447, -0.166, 0.748, 0.608, 192.0, 0.0, 0.0, 0.0, 0.0, 0.0, 0.0, 0.0, 0.0, 0.0, 1.729705256661697E9, 0.0, 2024-10-23 23:10:56.661
91.0, -43398.3929036132, -51027.66913505425, -34005.07229627041, -19713.501002013803, -10889.7698986256, -10343.359153671165, -187500.02235174447, -187500.02235174447, -0.166, 0.748, 0.608, 192.0, 0.0, 0.0, 0.0, 0.0, 0.0, 0.0, 0.0, 0.0, 0.0, 1.7297052566644783E9, 0.0, 2024-10-23 23:10:56.664
92.0, -44180.50279384885, -52584.468136366384, -20251.887470708785, -19621.12124218002, -12171.128353014989, -11715.577449271375, -187500.02235174447, -187500.02235174447, -0.166, 0.748, 0.608, 192.0, 0.0, 0.0, 0.0, 0.0, 0.0, 0.0, 0.0, 0.0, 0.0, 1.7297052566684675E9, 0.0, 2024-10-23 23:10:56.668
93.0, -45875.36852066142, -54138.96490799963, -6000.214040304904, -21168.979545710034, -13733.559993929863, -13196.715795602298, -187500.02235174447, -187500.02235174447, -0.166, 0.748, 0.608, 192.0, 0.0, 0.0, 0.0, 0.0, 0.0, 0.0, 0.0, 0.0, 0.0, 1.7297052566746633E9, 0.0, 2024-10-23 23:10:56.674
94.0, -46232.43763833495, -53582.80880246268, -10474.519190134906, -22319.289722357957, -13474.995014070872, -12794.809078551421, -187500.02235174447, -187500.02235174447, -0.166, 0.748, 0.608, 192.0, 0.0, 0.0, 0.0, 0.0, 0.0, 0.0, 0.0, 0.0, 0.0, 1.7297052566775005E9, 0.0, 2024-10-23 23:10:56.677
95.0, -44741.643338399335, -51705.21756472797, -26982.601223302034, -21401.66120548978, -11771.702679598651, -11080.005595684719, -187500.02235174447, -187500.02235174447, -0.166, 0.748, 0.608, 192.0, 0.0, 0.0, 0.0, 0.0, 0.0, 0.0, 0.0, 0.0, 0.0, 1.729705256681458E9, 0.0, 2024-10-23 23:10:56.681
96.0, -43380.153880137674, -50984.79848918897, -33978.49607211305, -19706.1025745991, -10882.527933422081, -10345.147293227588, -187500.02235174447, -187500.02235174447, -0.166, 0.748, 0.608, 192.0, 0.0, 0.0, 0.0, 0.0, 0.0, 0.0, 0.0, 0.0, 0.0, 1.7297052566854856E9, 0.0, 2024-10-23 23:10:56.685
97.0, -44150.618511512104, -52539.02703988875, -20271.06526745144, -19608.64896877396, -12185.701690399848, -11734.375266358289, -187500.02235174447, -187500.02235174447, -0.166, 0.748, 0.608, 192.0, 0.0, 0.0, 0.0, 0.0, 0.0, 0.0, 0.0, 0.0, 0.0, 1.7297052566884956E9, 0.0, 2024-10-23 23:10:56.688
98.0, -45853.70968028423, -54110.15350939674, -6053.321785130714, -21164.75506600798, -13797.106003416302, -13247.454255515846, -187500.02235174447, -187500.02235174447, -0.152, 0.744, 0.608, 192.0, 251.0, 64.0, 23.0, 64.0, 19.0, 0.0, 0.0, 0.0, 0.0, 1.7297052566924937E9, 0.0, 2024-10-23 23:10:56.692
99.0, -46219.25010910632, -53569.50951451177, -10475.21209421302, -22320.40730958072, -13533.958915943971, -12842.552404707958, -187500.02235174447, -187500.02235174447, -0.152, 0.744, 0.608, 192.0, 0.0, 0.0, 0.0, 0.0, 0.0, 0.0, 0.0, 0.0, 0.0, 1.72970525669652E9, 0.0, 2024-10-23 23:10:56.696
100.0, -44723.538425390536, -51689.25841918688, -26889.08152450103, -21388.80895242798, -11801.072871812925, -11103.810203529622, -187500.02235174447, -187500.02235174447, -0.152, 0.744, 0.608, 192.0, 0.0, 0.0, 0.0, 0.0, 0.0, 0.0, 0.0, 0.0, 0.0, 1.729705256700498E9, 0.0, 2024-10-23 23:10:56.700
101.0, -43365.893467175185, -50974.89666639527, -33858.914239277154, -19685.024879577744, -10885.008977056621, -10342.733304826415, -187500.02235174447, -187500.02235174447, -0.152, 0.744, 0.608, 192.0, 0.0, 0.0, 0.0, 0.0, 0.0, 0.0, 0.0, 0.0, 0.0, 1.7297052567045329E9, 0.0, 2024-10-23 23:10:56.704
102.0, -44140.98490965187, -52535.18253984243, -20190.107249034318, -19587.59362549706, -12163.528759900184, -11707.486117778555, -187500.02235174447, -187500.02235174447, -0.152, 0.744, 0.608, 192.0, 0.0, 0.0, 0.0, 0.0, 0.0, 0.0, 0.0, 0.0, 0.0, 1.7297052567105348E9, 0.0, 2024-10-23 23:10:56.710
103.0, -45851.11687792741, -54110.19821288565, -6078.132221476105, -21150.65111525668, -13768.607529235785, -13214.32897023308, -187500.02235174447, -187500.02235174447, -0.152, 0.744, 0.608, 192.0, 0.0, 0.0, 0.0, 0.0, 0.0, 0.0, 0.0, 0.0, 0.0, 1.7297052567165575E9, 0.0, 2024-10-23 23:10:56.716
104.0, -46215.49501603783, -53574.248084336294, -10507.376254484208, -22300.715422715595, -13519.832613448218, -12811.751700848545, -187500.02235174447, -187500.02235174447, -0.152, 0.744, 0.608, 192.0, 0.0, 0.0, 0.0, 0.0, 0.0, 0.0, 0.0, 0.0, 0.0, 1.7297052567197063E9, 0.0, 2024-10-23 23:10:56.719
105.0, -44726.533559147545, -51707.2068699845, -26813.01853811962, -21368.424161484738, -11799.016511323038, -11078.23980787275, -187500.02235174447, -187500.02235174447, -0.152, 0.744, 0.608, 192.0, 0.0, 0.0, 0.0, 0.0, 0.0, 0.0, 0.0, 0.0, 0.0, 1.7297052567225757E9, 0.0, 2024-10-23 23:10:56.722
106.0, -43384.64658077319, -51007.21728887765, -33674.914678921064, -19683.929644099433, -10906.44429998926, -10335.021952989335, -187500.02235174447, -187500.02235174447, -0.152, 0.744, 0.608, 192.0, 0.0, 0.0, 0.0, 0.0, 0.0, 0.0, 0.0, 0.0, 0.0, 1.7297052567265909E9, 0.0, 2024-10-23 23:10:56.726
107.0, -44155.69235750346, -52561.53524655524, -20068.603166175268, -19599.7753262252, -12184.472344454807, -11699.685358963652, -187500.02235174447, -187500.02235174447, -0.152, 0.744, 0.608, 192.0, 0.0, 0.0, 0.0, 0.0, 0.0, 0.0, 0.0, 0.0, 0.0, 1.7297052567305577E9, 0.0, 2024-10-23 23:10:56.730
108.0, -45829.1674648723, -54108.164204140216, -6088.101099503172, -21146.404283810174, -13755.509406984975, -13178.923807015874, -187500.02235174447, -187500.02235174447, -0.152, 0.744, 0.608, 192.0, 0.0, 0.0, 0.0, 0.0, 0.0, 0.0, 0.0, 0.0, 0.0, 1.7297052567335389E9, 0.0, 2024-10-23 23:10:56.733
109.0, -46188.35999826909, -53575.43272679242, -10516.562821455338, -22297.22855058057, -13503.29232255129, -12782.716784801101, -187500.02235174447, -187500.02235174447, -0.15, 0.744, 0.61, 192.0, 251.0, 80.0, 23.0, 64.0, 19.0, 16.0, 0.0, 0.0, 0.0, 1.7297052567365868E9, 0.0, 2024-10-23 23:10:56.736
110.0, -44718.79985556601, -51733.15724529711, -26775.065276034507, -21386.70788844918, -11799.642360167785, -11078.508028806214, -187500.02235174447, -187500.02235174447, -0.15, 0.744, 0.61, 192.0, 0.0, 0.0, 0.0, 0.0, 0.0, 0.0, 0.0, 0.0, 0.0, 1.729705256741574E9, 0.0, 2024-10-23 23:10:56.741
111.0, -43390.860365731765, -51039.493207871106, -33728.64827259163, -19722.32994107365, -10904.499698221649, -10350.467008407952, -187500.02235174447, -187500.02235174447, -0.15, 0.744, 0.61, 192.0, 0.0, 0.0, 0.0, 0.0, 0.0, 0.0, 0.0, 0.0, 0.0, 1.729705256744595E9, 0.0, 2024-10-23 23:10:56.744
112.0, -44146.19286610995, -52577.427336862966, -20166.794379567433, -19617.768480511724, -12161.964137788313, -11698.433661274155, -187500.02235174447, -187500.02235174447, -0.15, 0.744, 0.61, 192.0, 0.0, 0.0, 0.0, 0.0, 0.0, 0.0, 0.0, 0.0, 0.0, 1.7297052567486222E9, 0.0, 2024-10-23 23:10:56.748
113.0, -45829.92742418378, -54135.12040795331, -6015.681447467977, -21151.165205379155, -13728.977886316525, -13183.774135562675, -187500.02235174447, -187500.02235174447, -0.15, 0.744, 0.61, 192.0, 0.0, 0.0, 0.0, 0.0, 0.0, 0.0, 0.0, 0.0, 0.0, 1.7297052567536235E9, 0.0, 2024-10-23 23:10:56.753
114.0, -46217.52902478326, -53625.433579138946, -10265.84330390016, -22318.820335724395, -13498.106717837658, -12811.483479915081, -187500.02235174447, -187500.02235174447, -0.15, 0.744, 0.61, 192.0, 0.0, 0.0, 0.0, 0.0, 0.0, 0.0, 0.0, 0.0, 0.0, 1.729705256757588E9, 0.0, 2024-10-23 23:10:56.757
115.0, -44764.12919332137, -51778.73245224148, -26623.587503860894, -21428.080967435955, -11797.921275844727, -11108.884049520975, -187500.02235174447, -187500.02235174447, -0.15, 0.744, 0.61, 192.0, 0.0, 0.0, 0.0, 0.0, 0.0, 0.0, 0.0, 0.0, 0.0, 1.7297052567626595E9, 0.0, 2024-10-23 23:10:56.762
116.0, -43419.35883991228, -51053.463048155674, -33827.77825925091, -19748.63794429755, -10875.598892640935, -10342.800360059782, -187500.02235174447, -187500.02235174447, -0.15, 0.744, 0.61, 192.0, 0.0, 0.0, 0.0, 0.0, 0.0, 0.0, 0.0, 0.0, 0.0, 1.7297052567666256E9, 0.0, 2024-10-23 23:10:56.766
117.0, -44141.49899977434, -52563.68101402295, -20303.542352145, -19601.49641054826, -12113.885535464948, -11671.142181294224, -187500.02235174447, -187500.02235174447, -0.15, 0.744, 0.61, 192.0, 0.0, 0.0, 0.0, 0.0, 0.0, 0.0, 0.0, 0.0, 0.0, 1.729705256770671E9, 0.0, 2024-10-23 23:10:56.770
118.0, -45822.81956944699, -54113.99800944305, -6064.385898636091, -21116.94468461808, -13698.847734790772, -13166.831513265553, -187500.02235174447, -187500.02235174447, -0.15, 0.744, 0.61, 192.0, 0.0, 0.0, 0.0, 0.0, 0.0, 0.0, 0.0, 0.0, 0.0, 1.729705256773617E9, 0.0, 2024-10-23 23:10:56.773
119.0, -46234.62810929157, -53611.866070254575, -10251.98522233787, -22301.02834713797, -13500.945389383483, -12816.624381139802, -187500.02235174447, -187500.02235174447, -0.148, 0.75, 0.614, 192.0, 251.0, 96.0, 23.0, 112.0, 19.0, 48.0, 0.0, 0.0, 0.0, 1.7297052567776208E9, 0.0, 2024-10-23 23:10:56.777
120.0, -44778.00962662812, -51762.39332704465, -26570.613869501816, -21419.6543597763, -11823.446968012688, -11129.470006164314, -187500.02235174447, -187500.02235174447, -0.148, 0.75, 0.614, 192.0, 0.0, 0.0, 0.0, 0.0, 0.0, 0.0, 0.0, 0.0, 0.0, 1.729705256780654E9, 0.0, 2024-10-23 23:10:56.780
121.0, -43424.320927181354, -51030.328992644434, -33754.08455778177, -19741.530089560758, -10924.660971720336, -10381.647691923106, -187500.02235174447, -187500.02235174447, -0.148, 0.75, 0.614, 192.0, 0.0, 0.0, 0.0, 0.0, 0.0, 0.0, 0.0, 0.0, 0.0, 1.7297052567846553E9, 0.0, 2024-10-23 23:10:56.784
122.0, -44138.816790439705, -52534.288470064224, -20296.00981426356, -19589.717041220312, -12161.49475115475, -11705.385053799755, -187500.02235174447, -187500.02235174447, -0.148, 0.75, 0.614, 192.0, 0.0, 0.0, 0.0, 0.0, 0.0, 0.0, 0.0, 0.0, 0.0, 1.729705256788766E9, 0.0, 2024-10-23 23:10:56.788
123.0, -45798.99260985763, -54070.70268043312, -6165.12521089616, -21097.006928563944, -13737.650363165185, -13180.264911683193, -187500.02235174447, -187500.02235174447, -0.148, 0.75, 0.614, 192.0, 0.0, 0.0, 0.0, 0.0, 0.0, 0.0, 0.0, 0.0, 0.0, 1.7297052567927015E9, 0.0, 2024-10-23 23:10:56.792
124.0, -46206.08493162214, -53581.17712511744, -10322.437920860997, -22275.83793113684, -13526.918116440549, -12829.431930712693, -187500.02235174447, -187500.02235174447, -0.148, 0.75, 0.614, 192.0, 0.0, 0.0, 0.0, 0.0, 0.0, 0.0, 0.0, 0.0, 0.0, 1.7297052567976527E9, 0.0, 2024-10-23 23:10:56.797
125.0, -44772.0193591141, -51758.12414385368, -26535.901610362722, -21410.266627105073, -11866.809352255983, -11160.136599556996, -187500.02235174447, -187500.02235174447, -0.148, 0.75, 0.614, 192.0, 0.0, 0.0, 0.0, 0.0, 0.0, 0.0, 0.0, 0.0, 0.0, 1.7297052568006608E9, 0.0, 2024-10-23 23:10:56.800
126.0, -43433.30632845239, -51038.28621367052, -33693.801902985804, -19745.10636867361, -10973.36542288845, -10404.625285223161, -187500.02235174447, -187500.02235174447, -0.148, 0.75, 0.614, 192.0, 0.0, 0.0, 0.0, 0.0, 0.0, 0.0, 0.0, 0.0, 0.0, 1.729705256804696E9, 0.0, 2024-10-23 23:10:56.804
127.0, -44139.06265962871, -52528.0970368501, -20293.34995667338, -19585.425506284893, -12170.927187314892, -11694.097422849825, -187500.02235174447, -187500.02235174447, -0.148, 0.75, 0.614, 192.0, 0.0, 0.0, 0.0, 0.0, 0.0, 0.0, 0.0, 0.0, 0.0, 1.7297052568086858E9, 0.0, 2024-10-23 23:10:56.808
128.0, -45787.07913006296, -54058.34216574934, -6161.638338761132, -21077.002117276446, -13685.23552241749, -13144.055085665595, -187500.02235174447, -187500.02235174447, -0.148, 0.75, 0.614, 192.0, 0.0, 0.0, 0.0, 0.0, 0.0, 0.0, 0.0, 0.0, 0.0, 1.729705256812682E9, 0.0, 2024-10-23 23:10:56.812
129.0, -46194.216155316375, -53574.829229692135, -10210.96977126238, -22251.36277095828, -13493.390499757588, -12795.971369263098, -187500.02235174447, -187500.02235174447, -0.158, 0.752, 0.608, 192.0, 251.0, 16.0, 23.0, 128.0, 19.0, 0.0, 0.0, 0.0, 0.0, 1.72970525681668E9, 0.0, 2024-10-23 23:10:56.816
130.0, -44765.559704966516, -51759.19702758754, -26429.239085822, -21396.94498740971, -11838.310878075466, -11122.764482827723, -187500.02235174447, -187500.02235174447, -0.158, 0.752, 0.608, 192.0, 0.0, 0.0, 0.0, 0.0, 0.0, 0.0, 0.0, 0.0, 0.0, 1.7297052568207579E9, 0.0, 2024-10-23 23:10:56.820
131.0, -43413.41327588717, -51023.690524541205, -33758.599610161735, -19733.61757202358, -10918.201317572752, -10346.577804872728, -187500.02235174447, -187500.02235174447, -0.158, 0.752, 0.608, 192.0, 0.0, 0.0, 0.0, 0.0, 0.0, 0.0, 0.0, 0.0, 0.0, 1.729705256825718E9, 0.0, 2024-10-23 23:10:56.825
132.0, -44103.992772578335, -52514.82010064365, -20416.977455255685, -19561.665601928904, -12129.710570539304, -11648.768085094463, -187500.02235174447, -187500.02235174447, -0.158, 0.752, 0.608, 192.0, 0.0, 0.0, 0.0, 0.0, 0.0, 0.0, 0.0, 0.0, 0.0, 1.729705256828704E9, 0.0, 2024-10-23 23:10:56.828
133.0, -45767.901333320304, -54076.335320035854, -6184.191248916537, -21074.11874224171, -13703.765118570938, -13136.611954761978, -187500.02235174447, -187500.02235174447, -0.158, 0.752, 0.608, 192.0, 0.0, 0.0, 0.0, 0.0, 0.0, 0.0, 0.0, 0.0, 0.0, 1.7297052568327181E9, 0.0, 2024-10-23 23:10:56.832
134.0, -46195.959591383886, -53619.979753491854, -10148.586052487619, -22281.202349806113, -13527.812186218762, -12812.668122371213, -187500.02235174447, -187500.02235174447, -0.158, 0.752, 0.608, 192.0, 0.0, 0.0, 0.0, 0.0, 0.0, 0.0, 0.0, 0.0, 0.0, 1.7297052568367624E9, 0.0, 2024-10-23 23:10:56.836
135.0, -44770.231219557674, -51809.82372877881, -26375.393733429162, -21439.502708852615, -11861.1990643977, -11146.837311606087, -187500.02235174447, -187500.02235174447, -0.158, 0.752, 0.608, 192.0, 0.0, 0.0, 0.0, 0.0, 0.0, 0.0, 0.0, 0.0, 0.0, 1.7297052568409452E9, 0.0, 2024-10-23 23:10:56.840
136.0, -43420.81170330187, -51072.5067344316, -33729.47528713647, -19779.01396501231, -10933.06522763553, -10381.223008778454, -187500.02235174447, -187500.02235174447, -0.158, 0.752, 0.608, 192.0, 0.0, 0.0, 0.0, 0.0, 0.0, 0.0, 0.0, 0.0, 0.0, 1.7297052568451242E9, 0.0, 2024-10-23 23:10:56.845
137.0, -44112.75465640482, -52550.784057472236, -20401.688862048253, -19597.338986079572, -12134.940878741847, -11678.920588364672, -187500.02235174447, -187500.02235174447, -0.158, 0.752, 0.608, 192.0, 0.0, 0.0, 0.0, 0.0, 0.0, 0.0, 0.0, 0.0, 0.0, 1.7297052568487213E9, 0.0, 2024-10-23 23:10:56.848
138.0, -45779.18896427023, -54104.14089013826, -6245.099752557248, -21103.153658289153, -13704.055691248857, -13162.6070335635, -187500.02235174447, -187500.02235174447, -0.158, 0.752, 0.608, 192.0, 0.0, 0.0, 0.0, 0.0, 0.0, 0.0, 0.0, 0.0, 0.0, 1.729705256854008E9, 0.0, 2024-10-23 23:10:56.854
139.0, -46196.83130941765, -53631.20032920842, -10248.096018802646, -22297.78734419195, -13510.713101710451, -12828.135529534286, -187500.02235174447, -187500.02235174447, -0.16, 0.75, 0.606, 192.0, 251.0, 0.0, 23.0, 112.0, 18.0, 240.0, 0.0, 0.0, 0.0, 1.729705256856741E9, 0.0, 2024-10-23 23:10:56.856
140.0, -44768.04074860105, -51807.07446421081, -26391.531692925895, -21439.502708852615, -11844.211738611668, -11155.330974499104, -187500.02235174447, -187500.02235174447, -0.16, 0.75, 0.606, 192.0, 0.0, 0.0, 0.0, 0.0, 0.0, 0.0, 0.0, 0.0, 0.0, 1.7297052568604186E9, 0.0, 2024-10-23 23:10:56.860
141.0, -43433.5521976414, -51070.42802219725, -33645.96916985144, -19781.450305157938, -10936.440341048283, -10394.477593240452, -187500.02235174447, -187500.02235174447, -0.16, 0.75, 0.606, 192.0, 0.0, 0.0, 0.0, 0.0, 0.0, 0.0, 0.0, 0.0, 0.0, 1.7297052568657663E9, 0.0, 2024-10-23 23:10:56.865
142.0, -44132.9159299035, -52547.006612659294, -20363.109751118394, -19611.599399042057, -12148.195463203843, -11697.092556606836, -187500.02235174447, -187500.02235174447, -0.16, 0.75, 0.606, 192.0, 0.0, 0.0, 0.0, 0.0, 0.0, 0.0, 0.0, 0.0, 0.0, 1.7297052568687532E9, 0.0, 2024-10-23 23:10:56.868
143.0, -45778.183135769745, -54070.99325311104, -6323.375561639734, -21104.964149590036, -13706.357920927754, -13163.076420197061, -187500.02235174447, -187500.02235174447, -0.16, 0.75, 0.606, 192.0, 0.0, 0.0, 0.0, 0.0, 0.0, 0.0, 0.0, 0.0, 0.0, 1.7297052568748152E9, 0.0, 2024-10-23 23:10:56.874
144.0, -46188.561163969185, -53593.78350899024, -10308.602191043163, -22283.996317863028, -13528.795662974795, -12828.984895823587, -187500.02235174447, -187500.02235174447, -0.16, 0.75, 0.606, 192.0, 0.0, 0.0, 0.0, 0.0, 0.0, 0.0, 0.0, 0.0, 0.0, 1.7297052568778408E9, 0.0, 2024-10-23 23:10:56.877
145.0, -44767.05727184502, -51784.946237200056, -26382.97097479951, -21432.171336671276, -11868.932767979237, -11166.126867071018, -187500.02235174447, -187500.02235174447, -0.16, 0.75, 0.606, 192.0, 0.0, 0.0, 0.0, 0.0, 0.0, 0.0, 0.0, 0.0, 0.0, 1.7297052568808453E9, 0.0, 2024-10-23 23:10:56.880
146.0, -43445.800953602906, -51062.403745937794, -33675.272306832354, -19793.497895419347, -10970.236178664707, -10415.622343495172, -187500.02235174447, -187500.02235174447, -0.16, 0.75, 0.606, 192.0, 0.0, 0.0, 0.0, 0.0, 0.0, 0.0, 0.0, 0.0, 0.0, 1.7297052568848448E9, 0.0, 2024-10-23 23:10:56.884
147.0, -44128.0656013567, -52530.53337699573, -20423.638275103363, -19618.617846801026, -12165.428658178886, -11701.920533409184, -187500.02235174447, -187500.02235174447, -0.16, 0.75, 0.606, 192.0, 0.0, 0.0, 0.0, 0.0, 0.0, 0.0, 0.0, 0.0, 0.0, 1.7297052568878345E9, 0.0, 2024-10-23 23:10:56.887
148.0, -45771.34350196642, -54063.81834314088, -6320.313372649357, -21104.047728067366, -13715.611543132252, -13167.055030710106, -187500.02235174447, -187500.02235174447, -0.16, 0.75, 0.606, 192.0, 0.0, 0.0, 0.0, 0.0, 0.0, 0.0, 0.0, 0.0, 0.0, 1.7297052568928845E9, 0.0, 2024-10-23 23:10:56.892
149.0, -46199.13353909654, -53604.869974240064, -10196.35173038861, -22296.669756969186, -13551.68384929703, -12845.59224195388, -187500.02235174447, -187500.02235174447, -0.156, 0.752, 0.612, 192.0, 251.0, 32.0, 23.0, 128.0, 19.0, 32.0, 0.0, 0.0, 0.0, 1.7297052568968604E9, 0.0, 2024-10-23 23:10:56.896
150.0, -44785.318647065, -51796.41268210563, -26313.859380943704, -21459.90985154031, -11901.990998028637, -11177.526256743224, -187500.02235174447, -187500.02235174447, -0.156, 0.752, 0.612, 192.0, 0.0, 0.0, 0.0, 0.0, 0.0, 0.0, 0.0, 0.0, 0.0, 1.7297052569008574E9, 0.0, 2024-10-23 23:10:56.900
151.0, -43443.498723924014, -51048.83623705342, -33818.234064368495, -19804.07027054671, -10974.125382199929, -10391.258942038887, -187500.02235174447, -187500.02235174447, -0.156, 0.752, 0.612, 192.0, 0.0, 0.0, 0.0, 0.0, 0.0, 0.0, 0.0, 0.0, 0.0, 1.7297052569048479E9, 0.0, 2024-10-23 23:10:56.904
152.0, -44108.44076972494, -52513.36723725405, -20610.45415526082, -19592.667471488414, -12146.876710280982, -11666.872998103261, -187500.02235174447, -187500.02235174447, -0.156, 0.752, 0.612, 192.0, 0.0, 0.0, 0.0, 0.0, 0.0, 0.0, 0.0, 0.0, 0.0, 1.7297052569088852E9, 0.0, 2024-10-23 23:10:56.908
153.0, -45756.47959190364, -54061.29259601743, -6273.374709293212, -21067.949660772047, -13703.47454589302, -13131.426350048347, -187500.02235174447, -187500.02235174447, -0.156, 0.752, 0.612, 192.0, 0.0, 0.0, 0.0, 0.0, 0.0, 0.0, 0.0, 0.0, 0.0, 1.7297052569128375E9, 0.0, 2024-10-23 23:10:56.912
154.0, -46219.25010910632, -53635.782436821755, -9955.444628649311, -22294.009899379005, -13574.54968387481, -12824.626305654801, -187500.02235174447, -187500.02235174447, -0.156, 0.752, 0.612, 192.0, 0.0, 0.0, 0.0, 0.0, 0.0, 0.0, 0.0, 0.0, 0.0, 1.7297052569158435E9, 0.0, 2024-10-23 23:10:56.915
155.0, -44813.079513678495, -51823.6818103411, -26151.876288876094, -21476.38308720387, -11919.492413937141, -11157.454390222358, -187500.02235174447, -187500.02235174447, -0.156, 0.752, 0.612, 192.0, 0.0, 0.0, 0.0, 0.0, 0.0, 0.0, 0.0, 0.0, 0.0, 1.7297052569209895E9, 0.0, 2024-10-23 23:10:56.920
156.0, -43451.74651762802, -51056.01114702358, -33813.920177688626, -19813.30154100675, -10947.236233620195, -10355.607909632672, -187500.02235174447, -187500.02235174447, -0.156, 0.752, 0.612, 192.0, 0.0, 0.0, 0.0, 0.0, 0.0, 0.0, 0.0, 0.0, 0.0, 1.7297052569248586E9, 0.0, 2024-10-23 23:10:56.924
157.0, -44094.24741199582, -52506.90758310647, -20636.650399762442, -19582.229206827786, -12093.836020688537, -11617.25212541248, -187500.02235174447, -187500.02235174447, -0.156, 0.752, 0.612, 192.0, 0.0, 0.0, 0.0, 0.0, 0.0, 0.0, 0.0, 0.0, 0.0, 1.7297052569289193E9, 0.0, 2024-10-23 23:10:56.928
158.0, -45756.59135062592, -54070.74738392203, -6341.614585115264, -21070.967146273513, -13674.66314729013, -13109.566343971055, -187500.02235174447, -187500.02235174447, -0.156, 0.752, 0.612, 192.0, 0.0, 0.0, 0.0, 0.0, 0.0, 0.0, 0.0, 0.0, 0.0, 1.729705256932882E9, 0.0, 2024-10-23 23:10:56.932
159.0, -46224.94980394242, -53654.513198675304, -10018.387141035455, -22312.450088554633, -13554.187244676024, -12827.084997544885, -187500.02235174447, -187500.02235174447, -0.152, 0.754, 0.61, 192.0, 251.0, 64.0, 23.0, 144.0, 19.0, 16.0, 0.0, 0.0, 0.0, 1.7297052569369564E9, 0.0, 2024-10-23 23:10:56.936
160.0, -44820.92497598231, -51850.74977287648, -26137.101785791136, -21501.953482860743, -11904.673207363274, -11170.35134677307, -187500.02235174447, -187500.02235174447, -0.152, 0.754, 0.61, 192.0, 0.0, 0.0, 0.0, 0.0, 0.0, 0.0, 0.0, 0.0, 0.0, 1.7297052569408743E9, 0.0, 2024-10-23 23:10:56.940
161.0, -43462.229485777556, -51086.16365029379, -33734.571484872286, -19847.03032338981, -10944.732838241202, -10379.747793644405, -187500.02235174447, -187500.02235174447, -0.152, 0.754, 0.61, 192.0, 0.0, 0.0, 0.0, 0.0, 0.0, 0.0, 0.0, 0.0, 0.0, 1.7297052569439418E9, 0.0, 2024-10-23 23:10:56.943
162.0, -44112.55349070472, -52537.68593522143, -20627.285018835668, -19624.384596870495, -12105.034244660646, -11648.745733350008, -187500.02235174447, -187500.02235174447, -0.152, 0.754, 0.61, 192.0, 0.0, 0.0, 0.0, 0.0, 0.0, 0.0, 0.0, 0.0, 0.0, 1.7297052569479115E9, 0.0, 2024-10-23 23:10:56.947
163.0, -45752.05394650149, -54075.39654676874, -6419.108083141814, -21095.866989596725, -13653.093713890757, -13120.898678409896, -187500.02235174447, -187500.02235174447, -0.152, 0.754, 0.61, 192.0, 0.0, 0.0, 0.0, 0.0, 0.0, 0.0, 0.0, 0.0, 0.0, 1.7297052569529684E9, 0.0, 2024-10-23 23:10:56.952
164.0, -46205.77200719977, -53644.47726541487, -10082.894275533472, -22315.802850222928, -13525.040569906303, -12832.069436558419, -187500.02235174447, -187500.02235174447, -0.152, 0.754, 0.61, 192.0, 0.0, 0.0, 0.0, 0.0, 0.0, 0.0, 0.0, 0.0, 0.0, 1.7297052569569297E9, 0.0, 2024-10-23 23:10:56.956
165.0, -44805.90460370834, -51841.54085416089, -26136.475936946386, -21505.038023595574, -11899.331140438455, -11186.73517545881, -187500.02235174447, -187500.02235174447, -0.152, 0.754, 0.61, 192.0, 0.0, 0.0, 0.0, 0.0, 0.0, 0.0, 0.0, 0.0, 0.0, 1.7297052569609585E9, 0.0, 2024-10-23 23:10:56.960
166.0, -43468.42091899168, -51086.29776076052, -33738.885371552155, -19861.514253796846, -10972.158428687862, -10415.868212684181, -187500.02235174447, -187500.02235174447, -0.152, 0.754, 0.61, 192.0, 0.0, 0.0, 0.0, 0.0, 0.0, 0.0, 0.0, 0.0, 0.0, 1.7297052569640045E9, 0.0, 2024-10-23 23:10:56.964
167.0, -44100.148272532024, -52510.86384187506, -20670.066257723127, -19618.729605523302, -12110.845698219026, -11669.443448715621, -187500.02235174447, -187500.02235174447, -0.152, 0.754, 0.61, 192.0, 0.0, 0.0, 0.0, 0.0, 0.0, 0.0, 0.0, 0.0, 0.0, 1.7297052569679215E9, 0.0, 2024-10-23 23:10:56.967
168.0, -45734.57488233744, -54040.84074984083, -6493.718206133629, -21080.868969067214, -13674.506685078943, -13137.617783262467, -187500.02235174447, -187500.02235174447, -0.152, 0.754, 0.61, 192.0, 0.0, 0.0, 0.0, 0.0, 0.0, 0.0, 0.0, 0.0, 0.0, 1.7297052569719388E9, 0.0, 2024-10-23 23:10:56.971
169.0, -46197.72537919586, -53623.93601226044, -10075.764069052228, -22303.062355883405, -13557.830579022238, -12853.281242046505, -187500.02235174447, -187500.02235174447, -0.15, 0.752, 0.614, 192.0, 251.0, 80.0, 23.0, 128.0, 19.0, 48.0, 0.0, 0.0, 0.0, 1.7297052569759488E9, 0.0, 2024-10-23 23:10:56.975
170.0, -44826.82583651851, -51843.664269884146, -26132.65378864453, -21520.438375525282, -11948.46027475122, -11230.61164982458, -187500.02235174447, -187500.02235174447, -0.15, 0.752, 0.614, 192.0, 0.0, 0.0, 0.0, 0.0, 0.0, 0.0, 0.0, 0.0, 0.0, 1.7297052569809935E9, 0.0, 2024-10-23 23:10:56.980
171.0, -43479.12740458577, -51069.06456578548, -33919.62157721777, -19876.93695747101, -11007.094205271507, -10430.486253557952, -187500.02235174447, -187500.02235174447, -0.15, 0.752, 0.614, 192.0, 0.0, 0.0, 0.0, 0.0, 0.0, 0.0, 0.0, 0.0, 0.0, 1.7297052569850008E9, 0.0, 2024-10-23 23:10:56.985
172.0, -44082.42333917896, -52470.65305359996, -20905.43012683751, -19598.702442491347, -12127.87772749397, -11654.914814819673, -187500.02235174447, -187500.02235174447, -0.15, 0.752, 0.614, 192.0, 0.0, 0.0, 0.0, 0.0, 0.0, 0.0, 0.0, 0.0, 0.0, 1.7297052569889228E9, 0.0, 2024-10-23 23:10:56.988
173.0, -45715.50884431706, -54014.51039487248, -6514.684142432707, -21042.669837793095, -13679.424068859109, -13120.719864454255, -187500.02235174447, -187500.02235174447, -0.15, 0.752, 0.614, 192.0, 0.0, 0.0, 0.0, 0.0, 0.0, 0.0, 0.0, 0.0, 0.0, 1.7297052569919538E9, 0.0, 2024-10-23 23:10:56.991
174.0, -46208.23069908985, -53625.27711692776, -9903.67798849082, -22289.94188188814, -13581.92575954506, -12858.891529904788, -187500.02235174447, -187500.02235174447, -0.15, 0.752, 0.614, 192.0, 0.0, 0.0, 0.0, 0.0, 0.0, 0.0, 0.0, 0.0, 0.0, 1.72970525699604E9, 0.0, 2024-10-23 23:10:56.996
175.0, -44841.086249481, -51843.8877873287, -26011.932016841416, -21520.59483773647, -11961.737210957672, -11211.88088797103, -187500.02235174447, -187500.02235174447, -0.15, 0.752, 0.614, 192.0, 0.0, 0.0, 0.0, 0.0, 0.0, 0.0, 0.0, 0.0, 0.0, 1.72970525700003E9, 0.0, 2024-10-23 23:10:57.000
176.0, -43482.502517998524, -51059.900350558804, -33957.373673602786, -19870.097323667684, -11011.721016373756, -10389.716671671471, -187500.02235174447, -187500.02235174447, -0.15, 0.752, 0.614, 192.0, 0.0, 0.0, 0.0, 0.0, 0.0, 0.0, 0.0, 0.0, 0.0, 1.729705257004016E9, 0.0, 2024-10-23 23:10:57.004
177.0, -44071.269818695764, -52458.60546333855, -20999.687433205538, -19568.996974110243, -12124.457910592308, -11604.846907239784, -187500.02235174447, -187500.02235174447, -0.15, 0.752, 0.614, 192.0, 0.0, 0.0, 0.0, 0.0, 0.0, 0.0, 0.0, 0.0, 0.0, 1.7297052570090065E9, 0.0, 2024-10-23 23:10:57.009
178.0, -45697.649800497275, -54001.03229296593, -6581.784079287539, -21000.559151239297, -13659.732181993984, -13064.6840411048, -187500.02235174447, -187500.02235174447, -0.15, 0.752, 0.614, 192.0, 0.0, 0.0, 0.0, 0.0, 0.0, 0.0, 0.0, 0.0, 0.0, 1.729705257013138E9, 0.0, 2024-10-23 23:10:57.013
179.0, -46194.9537628834, -53627.57934660666, -9885.438965015288, -22255.58725066033, -13543.167834659558, -12808.600104880346, -187500.02235174447, -187500.02235174447, -0.152, 0.754, 0.61, 192.0, 251.0, 64.0, 23.0, 144.0, 19.0, 16.0, 0.0, 0.0, 0.0, 1.7297052570181377E9, 0.0, 2024-10-23 23:10:57.018
180.0, -44836.79471454558, -51858.14820029119, -25942.216925885314, -21503.652215439346, -11925.84030936245, -11172.385355518503, -187500.02235174447, -187500.02235174447, -0.152, 0.754, 0.61, 192.0, 0.0, 0.0, 0.0, 0.0, 0.0, 0.0, 0.0, 0.0, 0.0, 1.7297052570220387E9, 0.0, 2024-10-23 23:10:57.022
181.0, -43476.69106444014, -51070.606836152896, -33889.78199836994, -19857.915622939545, -10935.948602670265, -10344.52144438284, -187500.02235174447, -187500.02235174447, -0.152, 0.754, 0.61, 192.0, 0.0, 0.0, 0.0, 0.0, 0.0, 0.0, 0.0, 0.0, 0.0, 1.729705257025106E9, 0.0, 2024-10-23 23:10:57.025
182.0, -44052.85198126459, -52459.05249822766, -20990.567921467773, -19551.316744246094, -12030.513528646652, -11550.062781579827, -187500.02235174447, -187500.02235174447, -0.152, 0.754, 0.61, 192.0, 0.0, 0.0, 0.0, 0.0, 0.0, 0.0, 0.0, 0.0, 0.0, 1.729705257028077E9, 0.0, 2024-10-23 23:10:57.028
183.0, -45682.80824217895, -54006.17319419065, -6631.606117678419, -20987.48338073294, -13588.988910792938, -13032.229308155693, -187500.02235174447, -187500.02235174447, -0.152, 0.754, 0.61, 192.0, 0.0, 0.0, 0.0, 0.0, 0.0, 0.0, 0.0, 0.0, 0.0, 1.7297052570320716E9, 0.0, 2024-10-23 23:10:57.032
184.0, -46203.26861182077, -53651.42865794047, -9911.568154283543, -22257.93418382814, -13527.365151329655, -12812.042273526464, -187500.02235174447, -187500.02235174447, -0.152, 0.754, 0.61, 192.0, 0.0, 0.0, 0.0, 0.0, 0.0, 0.0, 0.0, 0.0, 0.0, 1.7297052570370128E9, 0.0, 2024-10-23 23:10:57.037
185.0, -44851.613921119446, -51880.85757265778, -25933.65620775893, -21512.928189388298, -11936.993829845647, -11200.950884932387, -187500.02235174447, -187500.02235174447, -0.152, 0.754, 0.61, 192.0, 0.0, 0.0, 0.0, 0.0, 0.0, 0.0, 0.0, 0.0, 0.0, 1.72970525704115E9, 0.0, 2024-10-23 23:10:57.041
186.0, -43492.493747770044, -51078.96638857918, -33998.34442118936, -19872.287794624306, -10978.662786324358, -10386.162744303077, -187500.02235174447, -187500.02235174447, -0.152, 0.754, 0.61, 192.0, 0.0, 0.0, 0.0, 0.0, 0.0, 0.0, 0.0, 0.0, 0.0, 1.7297052570450194E9, 0.0, 2024-10-23 23:10:57.045
187.0, -44058.283455167235, -52451.34114639058, -21183.061144716878, -19552.948421591333, -12052.753514379683, -11584.77504071892, -187500.02235174447, -187500.02235174447, -0.152, 0.754, 0.61, 192.0, 0.0, 0.0, 0.0, 0.0, 0.0, 0.0, 0.0, 0.0, 0.0, 1.72970525704904E9, 0.0, 2024-10-23 23:10:57.049
188.0, -45687.07742536991, -54002.954542989086, -6731.943098538291, -20982.76716265287, -13597.057890541302, -13066.561587639046, -187500.02235174447, -187500.02235174447, -0.152, 0.754, 0.61, 192.0, 0.0, 0.0, 0.0, 0.0, 0.0, 0.0, 0.0, 0.0, 0.0, 1.729705257052055E9, 0.0, 2024-10-23 23:10:57.052
189.0, -46211.91873692498, -53654.177922508476, -9868.76456365163, -22263.745637386517, -13556.422419121554, -12858.35508803786, -187500.02235174447, -187500.02235174447, -0.156, 0.746, 0.604, 192.0, 251.0, 32.0, 23.0, 80.0, 18.0, 224.0, 0.0, 0.0, 0.0, 1.7297052570560641E9, 0.0, 2024-10-23 23:10:57.056
190.0, -44861.44868867978, -51878.35417727878, -25932.292751347155, -21537.87273620042, -11968.778010461094, -11246.079056987652, -187500.02235174447, -187500.02235174447, -0.156, 0.746, 0.604, 192.0, 0.0, 0.0, 0.0, 0.0, 0.0, 0.0, 0.0, 0.0, 0.0, 1.7297052570601966E9, 0.0, 2024-10-23 23:10:57.060
191.0, -43489.29744831294, -51059.00628078059, -34172.59862096293, -19904.809582806778, -10993.07966149803, -10419.623305752672, -187500.02235174447, -187500.02235174447, -0.156, 0.746, 0.604, 192.0, 0.0, 0.0, 0.0, 0.0, 0.0, 0.0, 0.0, 0.0, 0.0, 1.7297052570640728E9, 0.0, 2024-10-23 23:10:57.064
192.0, -44030.12025715355, -52416.338314573564, -21386.394964026807, -19559.430427483374, -12057.67089815985, -11604.332817117313, -187500.02235174447, -187500.02235174447, -0.156, 0.746, 0.604, 192.0, 0.0, 0.0, 0.0, 0.0, 0.0, 0.0, 0.0, 0.0, 0.0, 1.72970525706905E9, 0.0, 2024-10-23 23:10:57.069
193.0, -45657.90839885574, -53971.282121095915, -6811.560012288095, -20979.950842851504, -13622.047140842336, -13088.82392511653, -187500.02235174447, -187500.02235174447, -0.156, 0.746, 0.604, 192.0, 0.0, 0.0, 0.0, 0.0, 0.0, 0.0, 0.0, 0.0, 0.0, 1.7297052570733025E9, 0.0, 2024-10-23 23:10:57.073
194.0, -46198.57474548516, -53640.96804153539, -9828.084388742971, -22282.16347481769, -13597.92960857506, -12895.302521622483, -187500.02235174447, -187500.02235174447, -0.156, 0.746, 0.604, 192.0, 0.0, 0.0, 0.0, 0.0, 0.0, 0.0, 0.0, 0.0, 0.0, 1.729705257077091E9, 0.0, 2024-10-23 23:10:57.077
195.0, -44854.474944409725, -51871.53689521991, -25903.682518444362, -21568.13699819291, -12015.224935439222, -11280.120763793084, -187500.02235174447, -187500.02235174447, -0.156, 0.746, 0.604, 192.0, 0.0, 0.0, 0.0, 0.0, 0.0, 0.0, 0.0, 0.0, 0.0, 1.7297052570892415E9, 0.0, 2024-10-23 23:10:57.089
196.0, -43494.2148320931, -51056.14525749031, -34182.1651675898, -19929.12828077415, -11028.887156115432, -10437.951736206023, -187500.02235174447, -187500.02235174447, -0.156, 0.746, 0.604, 192.0, 0.0, 0.0, 0.0, 0.0, 0.0, 0.0, 0.0, 0.0, 0.0, 1.7297052570921533E9, 0.0, 2024-10-23 23:10:57.092
197.0, -44043.75482127128, -52416.38301806248, -21419.27438012056, -19578.272948059195, -12081.229636815744, -11611.48537534301, -187500.02235174447, -187500.02235174447, -0.156, 0.746, 0.604, 192.0, 0.0, 0.0, 0.0, 0.0, 0.0, 0.0, 0.0, 0.0, 0.0, 1.7297052570954275E9, 0.0, 2024-10-23 23:10:57.095
198.0, -45665.10566057035, -53962.00614714696, -6879.93399857688, -20989.785610411836, -13618.426158240576, -13074.027070287118, -187500.02235174447, -187500.02235174447, -0.156, 0.746, 0.604, 192.0, 0.0, 0.0, 0.0, 0.0, 0.0, 0.0, 0.0, 0.0, 0.0, 1.7297052570981236E9, 0.0, 2024-10-23 23:10:57.098
199.0, -46198.01595187378, -53625.41122739449, -9879.895732390372, -22274.474474725066, -13568.224140193957, -12858.891529904788, -187500.02235174447, -187500.02235174447, -0.156, 0.756, 0.604, 192.0, 251.0, 32.0, 23.0, 160.0, 18.0, 224.0, 0.0, 0.0, 0.0, 1.72970525710211E9, 0.0, 2024-10-23 23:10:57.102
200.0, -44851.613921119446, -51857.18707527961, -25896.865236385496, -21549.294477617084, -11980.557379789041, -11231.148091691506, -187500.02235174447, -187500.02235174447, -0.156, 0.756, 0.604, 192.0, 0.0, 0.0, 0.0, 0.0, 0.0, 0.0, 0.0, 0.0, 0.0, 1.7297052571052375E9, 0.0, 2024-10-23 23:10:57.105
201.0, -43498.2157943506, -51044.36588816236, -34143.451946193214, -19911.515106143368, -11011.497498929204, -10386.945055359014, -187500.02235174447, -187500.02235174447, -0.156, 0.756, 0.604, 192.0, 0.0, 0.0, 0.0, 0.0, 0.0, 0.0, 0.0, 0.0, 0.0, 1.729705257108146E9, 0.0, 2024-10-23 23:10:57.108
202.0, -44048.96277772937, -52405.76593944621, -21406.28801659203, -19562.693782173847, -12073.697098934306, -11566.111334098738, -187500.02235174447, -187500.02235174447, -0.156, 0.756, 0.604, 192.0, 0.0, 0.0, 0.0, 0.0, 0.0, 0.0, 0.0, 0.0, 0.0, 1.7297052571121345E9, 0.0, 2024-10-23 23:10:57.112
203.0, -45666.111489070834, -53955.16651334364, -6912.254621059254, -20973.87116835966, -13605.708015645507, -13035.515014590623, -187500.02235174447, -187500.02235174447, -0.156, 0.756, 0.604, 192.0, 0.0, 0.0, 0.0, 0.0, 0.0, 0.0, 0.0, 0.0, 0.0, 1.729705257115264E9, 0.0, 2024-10-23 23:10:57.115
204.0, -46198.194765829416, -53632.72024783138, -9877.369985266923, -22260.12465478476, -13550.20863416298, -12824.335732976882, -187500.02235174447, -187500.02235174447, -0.156, 0.756, 0.604, 192.0, 0.0, 0.0, 0.0, 0.0, 0.0, 0.0, 0.0, 0.0, 0.0, 1.729705257119125E9, 0.0, 2024-10-23 23:10:57.119
205.0, -44857.64889212238, -51873.88382838772, -25836.940209500815, -21541.35960833545, -11951.343649785955, -11205.018902423251, -187500.02235174447, -187500.02235174447, -0.156, 0.756, 0.604, 192.0, 0.0, 0.0, 0.0, 0.0, 0.0, 0.0, 0.0, 0.0, 0.0, 1.7297052571222427E9, 0.0, 2024-10-23 23:10:57.122
206.0, -43494.55010825993, -51060.12386800336, -34075.5920500269, -19911.17982997654, -10976.02528047863, -10371.678813896038, -187500.02235174447, -187500.02235174447, -0.156, 0.756, 0.604, 192.0, 0.0, 0.0, 0.0, 0.0, 0.0, 0.0, 0.0, 0.0, 0.0, 1.7297052571251357E9, 0.0, 2024-10-23 23:10:57.125
207.0, -44048.09105969561, -52426.776579234196, -21387.914882649766, -19575.143703835452, -12023.293915187587, -11551.068610080316, -187500.02235174447, -187500.02235174447, -0.156, 0.756, 0.604, 192.0, 0.0, 0.0, 0.0, 0.0, 0.0, 0.0, 0.0, 0.0, 0.0, 1.7297052571291504E9, 0.0, 2024-10-23 23:10:57.129
208.0, -45681.288323555986, -53993.83503125132, -6900.743472664771, -21001.721441950973, -13568.291195427322, -13035.805587268542, -187500.02235174447, -187500.02235174447, -0.156, 0.756, 0.604, 192.0, 0.0, 0.0, 0.0, 0.0, 0.0, 0.0, 0.0, 0.0, 0.0, 1.72970525713327E9, 0.0, 2024-10-23 23:10:57.133
209.0, -46216.43378930495, -53672.46164947291, -9778.374109074368, -22292.735849945053, -13529.443863564, -12839.847843628866, -187500.02235174447, -187500.02235174447, -0.152, 0.752, 0.608, 192.0, 251.0, 64.0, 23.0, 128.0, 19.0, 0.0, 0.0, 0.0, 0.0, 1.7297052571371896E9, 0.0, 2024-10-23 23:10:57.137
210.0, -44862.76744160264, -51893.575715252846, -25736.33500770748, -21568.9416609933, -11952.908271897826, -11211.567963548656, -187500.02235174447, -187500.02235174447, -0.152, 0.752, 0.608, 192.0, 0.0, 0.0, 0.0, 0.0, 0.0, 0.0, 0.0, 0.0, 0.0, 1.7297052571401498E9, 0.0, 2024-10-23 23:10:57.140
211.0, -43498.84164319535, -51060.28033021454, -34156.34890274393, -19932.771615120368, -10974.79593453359, -10366.783781860326, -187500.02235174447, -187500.02235174447, -0.152, 0.752, 0.608, 192.0, 0.0, 0.0, 0.0, 0.0, 0.0, 0.0, 0.0, 0.0, 0.0, 1.7297052571441872E9, 0.0, 2024-10-23 23:10:57.144
212.0, -44034.18827464441, -52409.498680770244, -21542.812471725043, -19568.39347700995, -12022.243383198189, -11549.839264135273, -187500.02235174447, -187500.02235174447, -0.152, 0.752, 0.608, 192.0, 0.0, 0.0, 0.0, 0.0, 0.0, 0.0, 0.0, 0.0, 0.0, 1.729705257150182E9, 0.0, 2024-10-23 23:10:57.150
213.0, -45672.839364151885, -53989.454089338076, -6932.70646723586, -20995.61941571467, -13592.565189905787, -13063.946433537774, -187500.02235174447, -187500.02235174447, -0.152, 0.752, 0.608, 192.0, 0.0, 0.0, 0.0, 0.0, 0.0, 0.0, 0.0, 0.0, 0.0, 1.7297052571531956E9, 0.0, 2024-10-23 23:10:57.153
214.0, -46231.476513323374, -53685.269199045804, -9660.289843116982, -22305.386937306757, -13593.280445728356, -12898.565876312958, -187500.02235174447, -187500.02235174447, -0.152, 0.752, 0.608, 192.0, 0.0, 0.0, 0.0, 0.0, 0.0, 0.0, 0.0, 0.0, 0.0, 1.7297052571571956E9, 0.0, 2024-10-23 23:10:57.157
215.0, -44874.658569652864, -51894.492136775516, -25637.719111170663, -21586.107800734975, -12011.268676670632, -11271.448286944424, -187500.02235174447, -187500.02235174447, -0.152, 0.752, 0.608, 192.0, 0.0, 0.0, 0.0, 0.0, 0.0, 0.0, 0.0, 0.0, 0.0, 1.7297052571611712E9, 0.0, 2024-10-23 23:10:57.161
216.0, -43482.68133195416, -51033.882920012824, -34167.636533693854, -19933.12924303165, -11011.229277995739, -10400.624322965661, -187500.02235174447, -187500.02235174447, -0.152, 0.752, 0.608, 192.0, 0.0, 0.0, 0.0, 0.0, 0.0, 0.0, 0.0, 0.0, 0.0, 1.7297052571641731E9, 0.0, 2024-10-23 23:10:57.164
217.0, -44014.3399255681, -52386.31992177009, -21613.779260370644, -19563.990183352256, -12057.246215015199, -11580.662319739142, -187500.02235174447, -187500.02235174447, -0.152, 0.752, 0.608, 192.0, 0.0, 0.0, 0.0, 0.0, 0.0, 0.0, 0.0, 0.0, 0.0, 1.7297052571682184E9, 0.0, 2024-10-23 23:10:57.168
218.0, -45658.04250932247, -53974.433717064116, -7016.234936265342, -20989.316223778274, -13615.11810006119, -13091.617893173445, -187500.02235174447, -187500.02235174447, -0.152, 0.752, 0.608, 192.0, 0.0, 0.0, 0.0, 0.0, 0.0, 0.0, 0.0, 0.0, 0.0, 1.72970525717224E9, 0.0, 2024-10-23 23:10:57.172
219.0, -46210.82350144667, -53674.719175662896, -9702.646398859788, -22290.12069584378, -13611.31830350379, -12915.12851895434, -187500.02235174447, -187500.02235174447, -0.148, 0.752, 0.612, 192.0, 251.0, 96.0, 23.0, 128.0, 19.0, 32.0, 0.0, 0.0, 0.0, 1.7297052571764345E9, 0.0, 2024-10-23 23:10:57.176
220.0, -44854.966682787745, -51884.88088665973, -25625.425651720245, -21564.31484989105, -12033.508662403663, -11279.651377159522, -187500.02235174447, -187500.02235174447, -0.148, 0.752, 0.612, 192.0, 0.0, 0.0, 0.0, 0.0, 0.0, 0.0, 0.0, 0.0, 0.0, 1.7297052571822498E9, 0.0, 2024-10-23 23:10:57.182
221.0, -43477.22750630707, -51035.67105956925, -34142.759042115096, -19919.248809724904, -11027.478996214748, -10408.91682015858, -187500.02235174447, -187500.02235174447, -0.148, 0.752, 0.612, 192.0, 0.0, 0.0, 0.0, 0.0, 0.0, 0.0, 0.0, 0.0, 0.0, 1.7297052571862388E9, 0.0, 2024-10-23 23:10:57.186
222.0, -44016.01630640225, -52398.21104982031, -21622.31762675257, -19556.100017559533, -12045.712714876261, -11578.874180182718, -187500.02235174447, -187500.02235174447, -0.148, 0.752, 0.612, 192.0, 0.0, 0.0, 0.0, 0.0, 0.0, 0.0, 0.0, 0.0, 0.0, 1.7297052571906598E9, 0.0, 2024-10-23 23:10:57.190
223.0, -45659.696538412165, -53985.65429278067, -7063.821800210691, -20983.43771498653, -13601.125908032169, -13079.68206163431, -187500.02235174447, -187500.02235174447, -0.148, 0.752, 0.612, 192.0, 0.0, 0.0, 0.0, 0.0, 0.0, 0.0, 0.0, 0.0, 0.0, 1.72970525719427E9, 0.0, 2024-10-23 23:10:57.194
224.0, -46208.0071816453, -53682.78815541127, -9696.052634245472, -22274.31801251388, -13585.256169468901, -12891.703890765179, -187500.02235174447, -187500.02235174447, -0.148, 0.752, 0.612, 192.0, 0.0, 0.0, 0.0, 0.0, 0.0, 0.0, 0.0, 0.0, 0.0, 1.7297052571972291E9, 0.0, 2024-10-23 23:10:57.197
225.0, -44854.51964789863, -51896.436738543125, -25568.16048242575, -21540.867869957434, -11992.85083923946, -11250.102370989605, -187500.02235174447, -187500.02235174447, -0.148, 0.752, 0.612, 192.0, 0.0, 0.0, 0.0, 0.0, 0.0, 0.0, 0.0, 0.0, 0.0, 1.729705257202306E9, 0.0, 2024-10-23 23:10:57.202
226.0, -43476.24402955104, -51040.0967049714, -34090.63477404532, -19895.667719324556, -10988.586960862513, -10373.824581363748, -187500.02235174447, -187500.02235174447, -0.148, 0.752, 0.612, 192.0, 0.0, 0.0, 0.0, 0.0, 0.0, 0.0, 0.0, 0.0, 0.0, 1.7297052572052996E9, 0.0, 2024-10-23 23:10:57.205
227.0, -44017.156245369464, -52402.54728824464, -21612.058176047587, -19543.404226708917, -12022.75747332066, -11552.633232192187, -187500.02235174447, -187500.02235174447, -0.148, 0.752, 0.612, 192.0, 0.0, 0.0, 0.0, 0.0, 0.0, 0.0, 0.0, 0.0, 0.0, 1.72970525720839E9, 0.0, 2024-10-23 23:10:57.208
228.0, -45659.92005585672, -53998.64065630921, -7023.4321979799515, -20979.39204924012, -13581.568131633776, -13058.91729103533, -187500.02235174447, -187500.02235174447, -0.148, 0.752, 0.612, 192.0, 0.0, 0.0, 0.0, 0.0, 0.0, 0.0, 0.0, 0.0, 0.0, 1.729705257213284E9, 0.0, 2024-10-23 23:10:57.213
229.0, -46218.91483293949, -53705.6763417335, -9547.614699317777, -22281.828198650863, -13576.583692620241, -12885.713623251157, -187500.02235174447, -187500.02235174447, -0.154, 0.752, 0.606, 192.0, 251.0, 48.0, 23.0, 128.0, 18.0, 240.0, 0.0, 0.0, 0.0, 1.729705257217279E9, 0.0, 2024-10-23 23:10:57.217
230.0, -44862.298054969084, -51907.07616890385, -25428.149155157706, -21564.15838767986, -11987.776993248104, -11242.011039496785, -187500.02235174447, -187500.02235174447, -0.154, 0.752, 0.606, 192.0, 0.0, 0.0, 0.0, 0.0, 0.0, 0.0, 0.0, 0.0, 0.0, 1.7297052572203069E9, 0.0, 2024-10-23 23:10:57.220
231.0, -43467.79507014693, -51029.345515888395, -34129.839733819936, -19918.019463779863, -10953.427666834315, -10346.488397894907, -187500.02235174447, -187500.02235174447, -0.154, 0.752, 0.606, 192.0, 0.0, 0.0, 0.0, 0.0, 0.0, 0.0, 0.0, 0.0, 0.0, 1.7297052572242887E9, 0.0, 2024-10-23 23:10:57.224
232.0, -44000.30303005016, -52382.96716010179, -21721.49231690077, -19546.466415699295, -11973.673042496806, -11524.09005452276, -187500.02235174447, -187500.02235174447, -0.154, 0.752, 0.606, 192.0, 0.0, 0.0, 0.0, 0.0, 0.0, 0.0, 0.0, 0.0, 0.0, 1.72970525722833E9, 0.0, 2024-10-23 23:10:57.228
233.0, -45666.64793093776, -53992.8962579842, -6980.248627692298, -20983.34830800871, -13567.553587860297, -13057.464427645735, -187500.02235174447, -187500.02235174447, -0.154, 0.752, 0.606, 192.0, 0.0, 0.0, 0.0, 0.0, 0.0, 0.0, 0.0, 0.0, 0.0, 1.7297052572323265E9, 0.0, 2024-10-23 23:10:57.232
234.0, -46244.19465591844, -53707.10685337864, -9332.926193824553, -22289.293681298936, -13581.29991070031, -12897.805917001477, -187500.02235174447, -187500.02235174447, -0.154, 0.752, 0.606, 192.0, 0.0, 0.0, 0.0, 0.0, 0.0, 0.0, 0.0, 0.0, 0.0, 1.7297052572364593E9, 0.0, 2024-10-23 23:10:57.236
235.0, -44892.60702045048, -51901.01884615646, -25277.94543241804, -21574.753114551677, -11970.633205250884, -11258.551330393711, -187500.02235174447, -187500.02235174447, -0.154, 0.752, 0.606, 192.0, 0.0, 0.0, 0.0, 0.0, 0.0, 0.0, 0.0, 0.0, 0.0, 1.7297052572413225E9, 0.0, 2024-10-23 23:10:57.241
236.0, -43487.91164015671, -51003.93158244272, -34186.41199903632, -19919.18175449154, -10935.792140459078, -10358.178360245032, -187500.02235174447, -187500.02235174447, -0.154, 0.752, 0.606, 192.0, 0.0, 0.0, 0.0, 0.0, 0.0, 0.0, 0.0, 0.0, 0.0, 1.7297052572453191E9, 0.0, 2024-10-23 23:10:57.245
237.0, -43999.43131201641, -52343.717496838275, -21851.579469630655, -19520.024302008667, -11985.18419089129, -11525.878194079185, -187500.02235174447, -187500.02235174447, -0.154, 0.752, 0.606, 192.0, 0.0, 0.0, 0.0, 0.0, 0.0, 0.0, 0.0, 0.0, 0.0, 1.7297052572483263E9, 0.0, 2024-10-23 23:10:57.248
238.0, -45650.822895863406, -53948.63980396269, -7061.787791465258, -20937.929563275524, -13591.179381749556, -13060.258395702649, -187500.02235174447, -187500.02235174447, -0.154, 0.752, 0.606, 192.0, 0.0, 0.0, 0.0, 0.0, 0.0, 0.0, 0.0, 0.0, 0.0, 1.7297052572523067E9, 0.0, 2024-10-23 23:10:57.252
239.0, -46227.96728944389, -53674.45095472944, -9345.979612586452, -22251.206308747092, -13603.428137711066, -12909.98761772962, -187500.02235174447, -187500.02235174447, -0.154, 0.752, 0.606, 192.0, 0.0, 0.0, 0.0, 0.0, 0.0, 0.0, 0.0, 0.0, 0.0, 1.7297052572563424E9, 0.0, 2024-10-23 23:10:57.256
240.0, -44863.37093870294, -51869.48053473003, -25238.18167903205, -21533.715311731736, -11990.459202582742, -11262.596996140122, -187500.02235174447, -187500.02235174447, -0.15, 0.748, 0.612, 192.0, 251.0, 80.0, 23.0, 96.0, 19.0, 32.0, 0.0, 0.0, 0.0, 1.7297052572603345E9, 0.0, 2024-10-23 23:10:57.260
241.0, -43463.190610789134, -50983.502088010566, -34174.85614715292, -19889.386879132617, -10962.748344272179, -10362.693412625005, -187500.02235174447, -187500.02235174447, -0.15, 0.748, 0.612, 192.0, 0.0, 0.0, 0.0, 0.0, 0.0, 0.0, 0.0, 0.0, 0.0, 1.7297052572643564E9, 0.0, 2024-10-23 23:10:57.264
242.0, -43975.33613149359, -52326.21608092977, -21910.878647670586, -19496.040880208122, -12007.714749302238, -11529.298010980847, -187500.02235174447, -187500.02235174447, -0.15, 0.748, 0.612, 192.0, 0.0, 0.0, 0.0, 0.0, 0.0, 0.0, 0.0, 0.0, 0.0, 1.7297052572693827E9, 0.0, 2024-10-23 23:10:57.269
243.0, -45627.71119209662, -53937.68744917959, -7158.056754834266, -20909.27462688382, -13606.579733679264, -13059.431381157801, -187500.02235174447, -187500.02235174447, -0.15, 0.748, 0.612, 192.0, 0.0, 0.0, 0.0, 0.0, 0.0, 0.0, 0.0, 0.0, 0.0, 1.7297052572733867E9, 0.0, 2024-10-23 23:10:57.273
244.0, -46213.88569043705, -53682.05054784424, -9383.75406071592, -22229.949799770093, -13626.271620544388, -12925.812652803977, -187500.02235174447, -187500.02235174447, -0.15, 0.748, 0.612, 192.0, 0.0, 0.0, 0.0, 0.0, 0.0, 0.0, 0.0, 0.0, 0.0, 1.729705257276394E9, 0.0, 2024-10-23 23:10:57.276
245.0, -44870.92582832883, -51898.56015426638, -25258.43235950856, -21534.58702976549, -12021.461072142252, -11289.106165064117, -187500.02235174447, -187500.02235174447, -0.15, 0.748, 0.612, 192.0, 0.0, 0.0, 0.0, 0.0, 0.0, 0.0, 0.0, 0.0, 0.0, 1.7297052572833476E9, 0.0, 2024-10-23 23:10:57.283
246.0, -43476.5122504845, -51005.652666765774, -34262.00559878416, -19901.188600205016, -10990.88919054141, -10381.200657034, -187500.02235174447, -187500.02235174447, -0.15, 0.748, 0.612, 192.0, 0.0, 0.0, 0.0, 0.0, 0.0, 0.0, 0.0, 0.0, 0.0, 1.7297052572864163E9, 0.0, 2024-10-23 23:10:57.286
247.0, -43965.926047077905, -52325.79139778512, -22027.107718838182, -19483.0992201685, -11990.727423516206, -11509.382606671168, -187500.02235174447, -187500.02235174447, -0.15, 0.748, 0.612, 192.0, 0.0, 0.0, 0.0, 0.0, 0.0, 0.0, 0.0, 0.0, 0.0, 1.7297052572894104E9, 0.0, 2024-10-23 23:10:57.289
248.0, -45609.38276164327, -53938.24624279097, -7189.125679627143, -20888.956891173948, -13561.228044179446, -13025.568488308012, -187500.02235174447, -187500.02235174447, -0.15, 0.748, 0.612, 192.0, 0.0, 0.0, 0.0, 0.0, 0.0, 0.0, 0.0, 0.0, 0.0, 1.7297052572924232E9, 0.0, 2024-10-23 23:10:57.292
249.0, -46203.089797865134, -53693.740510194366, -9247.475474771914, -22215.48822110751, -13595.515620173886, -12890.608655286867, -187500.02235174447, -187500.02235174447, -0.15, 0.748, 0.612, 192.0, 0.0, 0.0, 0.0, 0.0, 0.0, 0.0, 0.0, 0.0, 0.0, 1.7297052572974634E9, 0.0, 2024-10-23 23:10:57.297
250.0, -44888.874279126445, -51927.818587758375, -25136.63770397159, -21550.54617530658, -12016.700150573273, -11265.167446752483, -187500.02235174447, -187500.02235174447, -0.152, 0.752, 0.608, 192.0, 251.0, 64.0, 23.0, 128.0, 19.0, 0.0, 0.0, 0.0, 0.0, 1.7297052573013964E9, 0.0, 2024-10-23 23:10:57.301
251.0, -43496.65117223873, -51024.0928559414, -34357.80517551961, -19927.295437728815, -10974.527713600126, -10347.069543250745, -187500.02235174447, -187500.02235174447, -0.152, 0.752, 0.608, 192.0, 0.0, 0.0, 0.0, 0.0, 0.0, 0.0, 0.0, 0.0, 0.0, 1.7297052573043933E9, 0.0, 2024-10-23 23:10:57.304
252.0, -43953.94551204986, -52317.565955825565, -22167.700191462063, -19473.912653197367, -11948.259109051121, -11461.75103923691, -187500.02235174447, -187500.02235174447, -0.152, 0.752, 0.608, 192.0, 0.0, 0.0, 0.0, 0.0, 0.0, 0.0, 0.0, 0.0, 0.0, 1.729705257308433E9, 0.0, 2024-10-23 23:10:57.308
253.0, -45596.39639811473, -53935.45227473406, -7201.977932688944, -20868.259175808333, -13525.375846073133, -12985.178886077272, -187500.02235174447, -187500.02235174447, -0.152, 0.752, 0.608, 192.0, 0.0, 0.0, 0.0, 0.0, 0.0, 0.0, 0.0, 0.0, 0.0, 1.7297052573124232E9, 0.0, 2024-10-23 23:10:57.312
254.0, -46231.8117894902, -53727.715161766435, -9169.892569767544, -22236.431805662134, -13593.146335261625, -12895.302521622483, -187500.02235174447, -187500.02235174447, -0.152, 0.752, 0.608, 192.0, 0.0, 0.0, 0.0, 0.0, 0.0, 0.0, 0.0, 0.0, 0.0, 1.7297052573163857E9, 0.0, 2024-10-23 23:10:57.316
255.0, -44933.5554162926, -51969.839867334354, -25018.106403125097, -21598.51301890767, -12031.564060636052, -11301.28786579226, -187500.02235174447, -187500.02235174447, -0.152, 0.752, 0.608, 192.0, 0.0, 0.0, 0.0, 0.0, 0.0, 0.0, 0.0, 0.0, 0.0, 1.72970525732042E9, 0.0, 2024-10-23 23:10:57.320
0.0, -43547.54609436347, -51071.21033325319, -34164.015551092096, -19984.515903534404, -11001.170992990852, -10396.265732796875, -187500.02235174447, -187500.02235174447, -0.152, 0.752, 0.608, 192.0, 0.0, 0.0, 0.0, 0.0, 0.0, 0.0, 0.0, 0.0, 0.0, 1.7297052573244877E9, 0.0, 2024-10-23 23:10:57.324
1.0, -43999.833643416605, -52355.63097663295, -22016.267122777357, -19534.843508582533, -11981.18322863379, -11509.002627015429, -187500.02235174447, -187500.02235174447, -0.152, 0.752, 0.608, 192.0, 0.0, 0.0, 0.0, 0.0, 0.0, 0.0, 0.0, 0.0, 0.0, 1.7297052573294811E9, 0.0, 2024-10-23 23:10:57.329
2.0, -45614.30014542343, -53937.1286555682, -7161.4989234803825, -20908.648778039074, -13535.143558400103, -13015.554906792035, -187500.02235174447, -187500.02235174447, -0.152, 0.752, 0.608, 192.0, 0.0, 0.0, 0.0, 0.0, 0.0, 0.0, 0.0, 0.0, 0.0, 1.729705257333469E9, 0.0, 2024-10-23 23:10:57.333
3.0, -46229.68837376695, -53706.34689406716, -9140.09769440862, -22245.707779611086, -13596.566152163286, -12917.900135266798, -187500.02235174447, -187500.02235174447, -0.152, 0.752, 0.608, 192.0, 0.0, 0.0, 0.0, 0.0, 0.0, 0.0, 0.0, 0.0, 0.0, 1.7297052573364275E9, 0.0, 2024-10-23 23:10:57.336
4.0, -44932.12490464746, -51950.125628724774, -24922.284474645196, -21599.787068341622, -12044.48336893122, -11327.99820041635, -187500.02235174447, -187500.02235174447, -0.15, 0.754, 0.61, 192.0, 251.0, 80.0, 23.0, 144.0, 19.0, 16.0, 0.0, 0.0, 0.0, 1.7297052573404784E9, 0.0, 2024-10-23 23:10:57.340
5.0, -43538.56069309243, -51045.215254451665, -34061.041064386496, -19978.52563602038, -11001.372158690949, -10419.645657497127, -187500.02235174447, -187500.02235174447, -0.15, 0.754, 0.61, 192.0, 0.0, 0.0, 0.0, 0.0, 0.0, 0.0, 0.0, 0.0, 0.0, 1.7297052573445392E9, 0.0, 2024-10-23 23:10:57.344
6.0, -43977.861878617034, -52319.108226192984, -21995.658814389564, -19516.872706040467, -11979.283330355089, -11516.579868385777, -187500.02235174447, -187500.02235174447, -0.15, 0.754, 0.61, 192.0, 0.0, 0.0, 0.0, 0.0, 0.0, 0.0, 0.0, 0.0, 0.0, 1.729705257348497E9, 0.0, 2024-10-23 23:10:57.348
7.0, -45594.7647207695, -53901.87995456219, -7227.458921367994, -20886.677013239507, -13553.449637108999, -13017.298342859549, -187500.02235174447, -187500.02235174447, -0.15, 0.754, 0.61, 192.0, 0.0, 0.0, 0.0, 0.0, 0.0, 0.0, 0.0, 0.0, 0.0, 1.729705257354508E9, 0.0, 2024-10-23 23:10:57.354
8.0, -46215.115036382085, -53685.24684730135, -9182.029567006775, -22222.797241544395, -13618.068530329292, -12922.83987079142, -187500.02235174447, -187500.02235174447, -0.15, 0.754, 0.61, 192.0, 0.0, 0.0, 0.0, 0.0, 0.0, 0.0, 0.0, 0.0, 0.0, 1.729705257357527E9, 0.0, 2024-10-23 23:10:57.357
9.0, -44916.74690446221, -51935.55229133991, -24952.906364548966, -21568.87460575993, -12052.1947207683, -11325.673618993, -187500.02235174447, -187500.02235174447, -0.15, 0.754, 0.61, 192.0, 0.0, 0.0, 0.0, 0.0, 0.0, 0.0, 0.0, 0.0, 0.0, 1.7297052573604972E9, 0.0, 2024-10-23 23:10:57.360
10.0, -43540.393536137766, -51044.36588816236, -34172.77743491858, -19963.974650379976, -11035.257403285195, -10422.68549474305, -187500.02235174447, -187500.02235174447, -0.15, 0.754, 0.61, 192.0, 0.0, 0.0, 0.0, 0.0, 0.0, 0.0, 0.0, 0.0, 0.0, 1.7297052573644614E9, 0.0, 2024-10-23 23:10:57.364
11.0, -43978.37596873951, -52323.243298917216, -22165.844996672273, -19505.540371601626, -12005.814851023539, -11521.184327743571, -187500.02235174447, -187500.02235174447, -0.15, 0.754, 0.61, 192.0, 0.0, 0.0, 0.0, 0.0, 0.0, 0.0, 0.0, 0.0, 0.0, 1.7297052573685155E9, 0.0, 2024-10-23 23:10:57.368
12.0, -45582.62772353026, -53900.96353303952, -7317.424692800605, -20862.760646672326, -13553.2484714089, -13015.733720747678, -187500.02235174447, -187500.02235174447, -0.15, 0.754, 0.61, 192.0, 0.0, 0.0, 0.0, 0.0, 0.0, 0.0, 0.0, 0.0, 0.0, 1.729705257372542E9, 0.0, 2024-10-23 23:10:57.372
13.0, -46208.968306656876, -53695.14867009505, -9131.894604193521, -22198.76911625494, -13622.069492586792, -12921.007027746085, -187500.02235174447, -187500.02235174447, -0.15, 0.754, 0.61, 192.0, 0.0, 0.0, 0.0, 0.0, 0.0, 0.0, 0.0, 0.0, 0.0, 1.7297052573785138E9, 0.0, 2024-10-23 23:10:57.378
14.0, -44918.55739576309, -51952.5619688704, -24940.45644288736, -21568.606384826468, -12071.193703555311, -11335.173110386504, -187500.02235174447, -187500.02235174447, -0.158, 0.75, 0.604, 192.0, 251.0, 16.0, 23.0, 112.0, 18.0, 224.0, 0.0, 0.0, 0.0, 1.7297052573814726E9, 0.0, 2024-10-23 23:10:57.381
15.0, -43517.99708819355, -51035.0452107245, -34377.83233855156, -19956.62092645418, -11007.60829539398, -10401.607799721694, -187500.02235174447, -187500.02235174447, -0.158, 0.75, 0.604, 192.0, 0.0, 0.0, 0.0, 0.0, 0.0, 0.0, 0.0, 0.0, 0.0, 1.7297052573855407E9, 0.0, 2024-10-23 23:10:57.385
16.0, -43937.472276386296, -52300.73509225072, -22419.894924151293, -19472.906824696878, -11958.384449289377, -11478.648958045122, -187500.02235174447, -187500.02235174447, -0.158, 0.75, 0.604, 192.0, 0.0, 0.0, 0.0, 0.0, 0.0, 0.0, 0.0, 0.0, 0.0, 1.729705257388553E9, 0.0, 2024-10-23 23:10:57.388
17.0, -45558.666653474174, -53905.16566099712, -7393.644141393202, -20834.32922772518, -13530.62850602013, -12985.715327944199, -187500.02235174447, -187500.02235174447, -0.158, 0.75, 0.604, 192.0, 0.0, 0.0, 0.0, 0.0, 0.0, 0.0, 0.0, 0.0, 0.0, 1.7297052573925207E9, 0.0, 2024-10-23 23:10:57.392
18.0, -46207.11311186709, -53726.35170535466, -9038.732533303802, -22197.606825543266, -13613.732291904962, -12913.921524753754, -187500.02235174447, -187500.02235174447, -0.158, 0.75, 0.604, 192.0, 0.0, 0.0, 0.0, 0.0, 0.0, 0.0, 0.0, 0.0, 0.0, 1.7297052573965504E9, 0.0, 2024-10-23 23:10:57.396
19.0, -44917.685677729336, -51981.19455351765, -24820.986368773745, -21578.731725064725, -12049.557214922574, -11313.693083964954, -187500.02235174447, -187500.02235174447, -0.158, 0.75, 0.604, 192.0, 0.0, 0.0, 0.0, 0.0, 0.0, 0.0, 0.0, 0.0, 0.0, 1.7297052574005227E9, 0.0, 2024-10-23 23:10:57.400
20.0, -43523.115637673814, -51058.17926623575, -34263.99490404069, -19967.930909148563, -11001.170992990852, -10385.492191969419, -187500.02235174447, -187500.02235174447, -0.158, 0.75, 0.604, 192.0, 0.0, 0.0, 0.0, 0.0, 0.0, 0.0, 0.0, 0.0, 0.0, 1.7297052574045205E9, 0.0, 2024-10-23 23:10:57.404
21.0, -43955.577189395095, -52321.38810412742, -22346.357684893333, -19489.089487682522, -11945.17456831629, -11467.31662360628, -187500.02235174447, -187500.02235174447, -0.158, 0.75, 0.604, 192.0, 0.0, 0.0, 0.0, 0.0, 0.0, 0.0, 0.0, 0.0, 0.0, 1.7297052574085538E9, 0.0, 2024-10-23 23:10:57.408
22.0, -45585.77931949846, -53926.533928696386, -7398.494469940004, -20862.805350161238, -13519.922020426038, -12983.6142639654, -187500.02235174447, -187500.02235174447, -0.158, 0.75, 0.604, 192.0, 0.0, 0.0, 0.0, 0.0, 0.0, 0.0, 0.0, 0.0, 0.0, 1.729705257413578E9, 0.0, 2024-10-23 23:10:57.413
23.0, -46231.00712668981, -53736.00765895935, -9033.010486723244, -22215.39881412969, -13613.709940160506, -12913.36273114237, -187500.02235174447, -187500.02235174447, -0.158, 0.75, 0.604, 192.0, 0.0, 0.0, 0.0, 0.0, 0.0, 0.0, 0.0, 0.0, 0.0, 1.729705257416564E9, 0.0, 2024-10-23 23:10:57.416
24.0, -44943.948977464315, -51987.944780343154, -24755.965144153255, -21591.98630952672, -12037.062589772057, -11323.304334080736, -187500.02235174447, -187500.02235174447, -0.154, 0.75, 0.61, 192.0, 251.0, 48.0, 23.0, 112.0, 19.0, 16.0, 0.0, 0.0, 0.0, 1.7297052574205616E9, 0.0, 2024-10-23 23:10:57.420
25.0, -43553.62576885531, -51062.18022849324, -34195.84443519646, -19990.126191392683, -10972.471353110237, -10395.550476974306, -187500.02235174447, -187500.02235174447, -0.154, 0.75, 0.61, 192.0, 0.0, 0.0, 0.0, 0.0, 0.0, 0.0, 0.0, 0.0, 0.0, 1.7297052574245572E9, 0.0, 2024-10-23 23:10:57.424
26.0, -43982.55574495265, -52322.796264028104, -22342.6249435693, -19514.23520019474, -11937.105588567923, -11482.94049298054, -187500.02235174447, -187500.02235174447, -0.154, 0.75, 0.61, 192.0, 0.0, 0.0, 0.0, 0.0, 0.0, 0.0, 0.0, 0.0, 0.0, 1.7297052574285772E9, 0.0, 2024-10-23 23:10:57.428
27.0, -45599.81621501639, -53916.85562334724, -7429.272822054962, -20875.501141011853, -13527.856889707673, -12997.04766238304, -187500.02235174447, -187500.02235174447, -0.154, 0.75, 0.61, 192.0, 0.0, 0.0, 0.0, 0.0, 0.0, 0.0, 0.0, 0.0, 0.0, 1.729705257432582E9, 0.0, 2024-10-23 23:10:57.432
28.0, -46244.10524894062, -53736.655859548555, -8994.811355449123, -22229.234543947525, -13622.516527475898, -12933.859280807887, -187500.02235174447, -187500.02235174447, -0.154, 0.75, 0.61, 192.0, 0.0, 0.0, 0.0, 0.0, 0.0, 0.0, 0.0, 0.0, 0.0, 1.7297052574365723E9, 0.0, 2024-10-23 23:10:57.436
29.0, -44947.05586994361, -51978.40058546074, -24685.42303865231, -21609.264207990673, -12055.1451510364, -11344.404380846547, -187500.02235174447, -187500.02235174447, -0.154, 0.75, 0.61, 192.0, 0.0, 0.0, 0.0, 0.0, 0.0, 0.0, 0.0, 0.0, 0.0, 1.7297052574415703E9, 0.0, 2024-10-23 23:10:57.441
30.0, -43534.69384130166, -51029.837254266415, -34225.035813455084, -19996.071755417797, -10983.915446271354, -10404.982913134447, -187500.02235174447, -187500.02235174447, -0.154, 0.75, 0.61, 192.0, 0.0, 0.0, 0.0, 0.0, 0.0, 0.0, 0.0, 0.0, 0.0, 1.729705257444621E9, 0.0, 2024-10-23 23:10:57.444
31.0, -43951.68798585987, -52286.675844988335, -22463.033790950038, -19507.373214646963, -11954.584652731974, -11492.529391351867, -187500.02235174447, -187500.02235174447, -0.154, 0.75, 0.61, 192.0, 0.0, 0.0, 0.0, 0.0, 0.0, 0.0, 0.0, 0.0, 0.0, 1.7297052574476001E9, 0.0, 2024-10-23 23:10:57.447
32.0, -45586.628685787764, -53915.91685008012, -7472.903427231721, -20878.07159162421, -13562.412686635576, -13031.111720932928, -187500.02235174447, -187500.02235174447, -0.154, 0.75, 0.61, 192.0, 0.0, 0.0, 0.0, 0.0, 0.0, 0.0, 0.0, 0.0, 0.0, 1.7297052574525983E9, 0.0, 2024-10-23 23:10:57.452
33.0, -46246.228664663875, -53756.303042924774, -8886.807726241079, -22244.74665459951, -13682.106278193747, -12986.609397722412, -187500.02235174447, -187500.02235174447, -0.154, 0.75, 0.61, 192.0, 0.0, 0.0, 0.0, 0.0, 0.0, 0.0, 0.0, 0.0, 0.0, 1.72970525745658E9, 0.0, 2024-10-23 23:10:57.456
34.0, -44947.882884488456, -51990.85050712234, -24604.174447557267, -21625.066891320574, -12104.520154538173, -11382.514105142845, -187500.02235174447, -187500.02235174447, -0.15, 0.75, 0.606, 192.0, 251.0, 80.0, 23.0, 112.0, 18.0, 240.0, 0.0, 0.0, 0.0, 1.7297052574606304E9, 0.0, 2024-10-23 23:10:57.460
35.0, -43520.65694578373, -51023.556414074475, -34308.63133771793, -19995.24474087295, -10980.093297969497, -10403.932381145047, -187500.02235174447, -187500.02235174447, -0.15, 0.75, 0.606, 192.0, 0.0, 0.0, 0.0, 0.0, 0.0, 0.0, 0.0, 0.0, 0.0, 1.7297052574646287E9, 0.0, 2024-10-23 23:10:57.464
36.0, -43932.39843039494, -52279.52328676263, -22620.323016682032, -19487.346051615008, -11935.652725178328, -11475.676176032564, -187500.02235174447, -187500.02235174447, -0.15, 0.75, 0.606, 192.0, 0.0, 0.0, 0.0, 0.0, 0.0, 0.0, 0.0, 0.0, 0.0, 1.7297052574699256E9, 0.0, 2024-10-23 23:10:57.469
37.0, -45564.07577563236, -53904.20453598554, -7564.120896353829, -20845.88507960857, -13538.429264835033, -12997.47234552769, -187500.02235174447, -187500.02235174447, -0.15, 0.75, 0.606, 192.0, 0.0, 0.0, 0.0, 0.0, 0.0, 0.0, 0.0, 0.0, 0.0, 1.72970525747263E9, 0.0, 2024-10-23 23:10:57.472
38.0, -46236.371545359085, -53755.09604872418, -8887.27711287464, -22215.10824145177, -13649.517434777908, -12948.27615598156, -187500.02235174447, -187500.02235174447, -0.15, 0.75, 0.606, 192.0, 0.0, 0.0, 0.0, 0.0, 0.0, 0.0, 0.0, 0.0, 0.0, 1.7297052574757833E9, 0.0, 2024-10-23 23:10:57.475
39.0, -44931.38729708044, -51982.71447214061, -24569.81981632946, -21592.254530460184, -12058.05087781559, -11329.831043461687, -187500.02235174447, -187500.02235174447, -0.15, 0.75, 0.606, 192.0, 0.0, 0.0, 0.0, 0.0, 0.0, 0.0, 0.0, 0.0, 0.0, 1.7297052574806383E9, 0.0, 2024-10-23 23:10:57.480
40.0, -43518.73469576058, -51022.86350999636, -34309.7489249407, -19971.104856861217, -10972.449001365781, -10365.755601615383, -187500.02235174447, -187500.02235174447, -0.15, 0.75, 0.606, 192.0, 0.0, 0.0, 0.0, 0.0, 0.0, 0.0, 0.0, 0.0, 0.0, 1.7297052574846437E9, 0.0, 2024-10-23 23:10:57.484
41.0, -43921.78135177867, -52273.331853548516, -22650.72138914125, -19468.03414440562, -11928.433111719265, -11443.22144308346, -187500.02235174447, -187500.02235174447, -0.15, 0.75, 0.606, 192.0, 0.0, 0.0, 0.0, 0.0, 0.0, 0.0, 0.0, 0.0, 0.0, 1.7297052574906545E9, 0.0, 2024-10-23 23:10:57.490
42.0, -45559.985406397034, -53904.495108663454, -7617.720379557655, -20836.1173672816, -13534.58476478872, -12981.490848242147, -187500.02235174447, -187500.02235174447, -0.15, 0.75, 0.606, 192.0, 0.0, 0.0, 0.0, 0.0, 0.0, 0.0, 0.0, 0.0, 0.0, 1.7297052574937384E9, 0.0, 2024-10-23 23:10:57.493
43.0, -46243.4123448625, -53763.50030463938, -8881.778583738636, -22208.894456493195, -13646.812873698816, -12946.264498980583, -187500.02235174447, -187500.02235174447, -0.15, 0.75, 0.606, 192.0, 0.0, 0.0, 0.0, 0.0, 0.0, 0.0, 0.0, 0.0, 0.0, 1.7297052574967277E9, 0.0, 2024-10-23 23:10:57.496
44.0, -44959.23757067175, -52005.96028637413, -24528.33497862041, -21593.483876405226, -12066.499837219697, -11345.276098880304, -187500.02235174447, -187500.02235174447, -0.148, 0.752, 0.606, 192.0, 251.0, 96.0, 23.0, 128.0, 18.0, 240.0, 0.0, 0.0, 0.0, 1.7297052575017188E9, 0.0, 2024-10-23 23:10:57.501
45.0, -43548.23899844158, -51042.711859072675, -34309.23483481823, -19984.784124467868, -10973.231312421718, -10378.764316888371, -187500.02235174447, -187500.02235174447, -0.148, 0.752, 0.606, 192.0, 0.0, 0.0, 0.0, 0.0, 0.0, 0.0, 0.0, 0.0, 0.0, 1.7297052575057533E9, 0.0, 2024-10-23 23:10:57.505
46.0, -43947.1729334799, -52288.82161245604, -22697.97297691977, -19480.931100956335, -11922.129919782868, -11448.764675708375, -187500.02235174447, -187500.02235174447, -0.148, 0.752, 0.606, 192.0, 0.0, 0.0, 0.0, 0.0, 0.0, 0.0, 0.0, 0.0, 0.0, 1.7297052575088253E9, 0.0, 2024-10-23 23:10:57.508
47.0, -45586.20400264311, -53924.54462343987, -7614.546431845001, -20846.17565228649, -13541.62556429214, -12997.964083905708, -187500.02235174447, -187500.02235174447, -0.148, 0.752, 0.606, 192.0, 0.0, 0.0, 0.0, 0.0, 0.0, 0.0, 0.0, 0.0, 0.0, 1.7297052575127087E9, 0.0, 2024-10-23 23:10:57.512
48.0, -46270.72617658689, -53788.377796218134, -8734.502939522617, -22230.5980003593, -13674.841961245771, -12984.821258165986, -187500.02235174447, -187500.02235174447, -0.148, 0.752, 0.606, 192.0, 0.0, 0.0, 0.0, 0.0, 0.0, 0.0, 0.0, 0.0, 0.0, 1.7297052575177236E9, 0.0, 2024-10-23 23:10:57.517
49.0, -44985.277352962185, -52023.08172262689, -24398.381936357255, -21626.09507156552, -12105.078948149556, -11388.25850346786, -187500.02235174447, -187500.02235174447, -0.148, 0.752, 0.606, 192.0, 0.0, 0.0, 0.0, 0.0, 0.0, 0.0, 0.0, 0.0, 0.0, 1.7297052575217333E9, 0.0, 2024-10-23 23:10:57.521
50.0, -43561.650045114766, -51044.589405606916, -34366.47765236827, -20016.411842872127, -10998.22056272275, -10407.06162536879, -187500.02235174447, -187500.02235174447, -0.148, 0.752, 0.606, 192.0, 0.0, 0.0, 0.0, 0.0, 0.0, 0.0, 0.0, 0.0, 0.0, 1.7297052575266929E9, 0.0, 2024-10-23 23:10:57.526
51.0, -43939.75215432074, -52273.0859843595, -22866.3486679016, -19492.33049062854, -11941.665344436806, -11466.087277661238, -187500.02235174447, -187500.02235174447, -0.148, 0.752, 0.606, 192.0, 0.0, 0.0, 0.0, 0.0, 0.0, 0.0, 0.0, 0.0, 0.0, 1.729705257529904E9, 0.0, 2024-10-23 23:10:57.529
52.0, -45568.59082801233, -53899.46596616101, -7708.423758557291, -20835.49151843685, -13556.690640055018, -13010.19048812276, -187500.02235174447, -187500.02235174447, -0.148, 0.752, 0.606, 192.0, 0.0, 0.0, 0.0, 0.0, 0.0, 0.0, 0.0, 0.0, 0.0, 1.7297052575328472E9, 0.0, 2024-10-23 23:10:57.532
53.0, -46258.70093806994, -53775.100860011684, -8520.909669507702, -22205.027604702427, -13686.286054406888, -12999.126374617384, -187500.02235174447, -187500.02235174447, -0.148, 0.752, 0.606, 192.0, 0.0, 0.0, 0.0, 0.0, 0.0, 0.0, 0.0, 0.0, 0.0, 1.7297052575367887E9, 0.0, 2024-10-23 23:10:57.536
54.0, -44988.67481811939, -52016.80088243495, -24026.89594351005, -21613.667501648368, -12113.214983131289, -11398.272084983837, -187500.02235174447, -187500.02235174447, -0.148, 0.752, 0.6, 192.0, 251.0, 96.0, 23.0, 128.0, 18.0, 192.0, 0.0, 0.0, 0.0, 1.7297052575407495E9, 0.0, 2024-10-23 23:10:57.540
55.0, -43561.76180383704, -51021.67886754023, -34187.03784788106, -20014.690758549066, -11014.492632686215, -10404.11119510069, -187500.02235174447, -187500.02235174447, -0.148, 0.752, 0.6, 192.0, 0.0, 0.0, 0.0, 0.0, 0.0, 0.0, 0.0, 0.0, 0.0, 1.729705257544855E9, 0.0, 2024-10-23 23:10:57.544
56.0, -43907.43153183837, -52230.79648385006, -22939.90825890401, -19465.508397282174, -11933.775178644084, -11432.559660978277, -187500.02235174447, -187500.02235174447, -0.148, 0.752, 0.6, 192.0, 0.0, 0.0, 0.0, 0.0, 0.0, 0.0, 0.0, 0.0, 0.0, 1.729705257548782E9, 0.0, 2024-10-23 23:10:57.548
57.0, -45538.818304397864, -53875.84017227175, -7743.806570030042, -20798.097049963126, -13534.271840366346, -12977.981624362663, -187500.02235174447, -187500.02235174447, -0.148, 0.752, 0.6, 192.0, 0.0, 0.0, 0.0, 0.0, 0.0, 0.0, 0.0, 0.0, 0.0, 1.729705257552778E9, 0.0, 2024-10-23 23:10:57.552
58.0, -46254.118830456595, -53775.41378443406, -8423.366656704744, -22183.30170909187, -13687.291882907377, -12987.369357033893, -187500.02235174447, -187500.02235174447, -0.148, 0.752, 0.6, 192.0, 0.0, 0.0, 0.0, 0.0, 0.0, 0.0, 0.0, 0.0, 0.0, 1.7297052575567794E9, 0.0, 2024-10-23 23:10:57.556
59.0, -44999.91774558041, -52031.26246109754, -23937.801890111197, -21609.018338801663, -12120.322837868076, -11398.853230339675, -187500.02235174447, -187500.02235174447, -0.148, 0.752, 0.6, 192.0, 0.0, 0.0, 0.0, 0.0, 0.0, 0.0, 0.0, 0.0, 0.0, 1.72970525755985E9, 0.0, 2024-10-23 23:10:57.559
60.0, -43557.04558575697, -51022.52823382953, -34176.599583220435, -20002.956092710032, -10990.039824252108, -10386.743889658916, -187500.02235174447, -187500.02235174447, -0.148, 0.752, 0.6, 192.0, 0.0, 0.0, 0.0, 0.0, 0.0, 0.0, 0.0, 0.0, 0.0, 1.7297052575648894E9, 0.0, 2024-10-23 23:10:57.564
61.0, -43903.20705213631, -52226.50494891465, -22987.58452982718, -19454.71250471026, -11905.522573652575, -11407.145727532594, -187500.02235174447, -187500.02235174447, -0.148, 0.752, 0.6, 192.0, 0.0, 0.0, 0.0, 0.0, 0.0, 0.0, 0.0, 0.0, 0.0, 1.7297052575688179E9, 0.0, 2024-10-23 23:10:57.568
62.0, -45533.87856887324, -53868.19587566804, -7802.770471903143, -20793.850218516614, -13517.373921558134, -12951.695972883223, -187500.02235174447, -187500.02235174447, -0.148, 0.752, 0.6, 192.0, 0.0, 0.0, 0.0, 0.0, 0.0, 0.0, 0.0, 0.0, 0.0, 1.729705257572775E9, 0.0, 2024-10-23 23:10:57.572
63.0, -46247.32390014218, -53775.14556350059, -8429.893366085693, -22173.91397642064, -13666.393001841665, -12963.721211400178, -187500.02235174447, -187500.02235174447, -0.148, 0.752, 0.6, 192.0, 0.0, 0.0, 0.0, 0.0, 0.0, 0.0, 0.0, 0.0, 0.0, 1.7297052575768013E9, 0.0, 2024-10-23 23:10:57.576
64.0, -44984.45033841734, -52029.94370817467, -23920.658102113975, -21594.489704905714, -12095.49004977823, -11375.383898661603, -187500.02235174447, -187500.02235174447, -0.152, 0.752, 0.606, 192.0, 251.0, 64.0, 23.0, 128.0, 18.0, 240.0, 0.0, 0.0, 0.0, 1.72970525758086E9, 0.0, 2024-10-23 23:10:57.580
65.0, -43552.50818163254, -51029.971364733145, -34186.926089158784, -20003.269017132407, -10989.88336204092, -10377.646729665605, -187500.02235174447, -187500.02235174447, -0.152, 0.752, 0.606, 192.0, 0.0, 0.0, 0.0, 0.0, 0.0, 0.0, 0.0, 0.0, 0.0, 1.7297052575839975E9, 0.0, 2024-10-23 23:10:57.583
66.0, -43895.00396192121, -52232.96460306223, -23063.133426086122, -19463.31792632555, -11907.154250997812, -11405.223477509437, -187500.02235174447, -187500.02235174447, -0.152, 0.752, 0.606, 192.0, 0.0, 0.0, 0.0, 0.0, 0.0, 0.0, 0.0, 0.0, 0.0, 1.7297052575899725E9, 0.0, 2024-10-23 23:10:57.589
67.0, -45528.044763570404, -53883.93150376457, -7876.598283839022, -20803.59557909913, -13497.346758526179, -12948.052638537007, -187500.02235174447, -187500.02235174447, -0.152, 0.752, 0.606, 192.0, 0.0, 0.0, 0.0, 0.0, 0.0, 0.0, 0.0, 0.0, 0.0, 1.729705257592902E9, 0.0, 2024-10-23 23:10:57.592
68.0, -46262.724252071894, -53807.01915109386, -8397.192763947578, -22193.807028985862, -13661.028583172392, -12974.003013849619, -187500.02235174447, -187500.02235174447, -0.152, 0.752, 0.606, 192.0, 0.0, 0.0, 0.0, 0.0, 0.0, 0.0, 0.0, 0.0, 0.0, 1.7297052575968587E9, 0.0, 2024-10-23 23:10:57.596
69.0, -45021.420123746415, -52067.87461851533, -23870.411380578447, -21631.79476640162, -12110.108090652, -11399.456727439969, -187500.02235174447, -187500.02235174447, -0.152, 0.752, 0.606, 192.0, 0.0, 0.0, 0.0, 0.0, 0.0, 0.0, 0.0, 0.0, 0.0, 1.729705257600881E9, 0.0, 2024-10-23 23:10:57.600
70.0, -43587.10868204936, -51046.98104226364, -34341.39899508941, -20041.378741428704, -10986.038861994608, -10384.665177424571, -187500.02235174447, -187500.02235174447, -0.152, 0.752, 0.606, 192.0, 0.0, 0.0, 0.0, 0.0, 0.0, 0.0, 0.0, 0.0, 0.0, 1.7297052576049628E9, 0.0, 2024-10-23 23:10:57.604
71.0, -43906.62686903797, -52226.37083844791, -23370.693429791147, -19472.77271423015, -11895.106660736403, -11400.037872795805, -187500.02235174447, -187500.02235174447, -0.152, 0.752, 0.606, 192.0, 0.0, 0.0, 0.0, 0.0, 0.0, 0.0, 0.0, 0.0, 0.0, 1.7297052576088667E9, 0.0, 2024-10-23 23:10:57.608
72.0, -45537.745420664, -53884.55735260932, -8024.656239110976, -20796.241855173335, -13538.093988668203, -12967.833932379954, -187500.02235174447, -187500.02235174447, -0.152, 0.752, 0.606, 192.0, 0.0, 0.0, 0.0, 0.0, 0.0, 0.0, 0.0, 0.0, 0.0, 1.7297052576118848E9, 0.0, 2024-10-23 23:10:57.611
73.0, -46280.136261002575, -53823.760607690885, -8321.465053732998, -22192.644738274186, -13726.586249659807, -13011.598648023444, -187500.02235174447, -187500.02235174447, -0.152, 0.752, 0.606, 192.0, 0.0, 0.0, 0.0, 0.0, 0.0, 0.0, 0.0, 0.0, 0.0, 1.7297052576158638E9, 0.0, 2024-10-23 23:10:57.615
74.0, -45023.4764842363, -52076.07770873043, -23552.770740124077, -21627.48087972175, -12140.394704388942, -11423.864832385163, -187500.02235174447, -187500.02235174447, -0.148, 0.752, 0.606, 192.0, 251.0, 96.0, 23.0, 128.0, 18.0, 240.0, 0.0, 0.0, 0.0, 1.72970525761992E9, 0.0, 2024-10-23 23:10:57.619
75.0, -43602.73255142362, -51087.303589261006, -33220.41430716685, -20036.751930326456, -11039.95126962081, -10441.371553107687, -187500.02235174447, -187500.02235174447, -0.148, 0.752, 0.606, 192.0, 0.0, 0.0, 0.0, 0.0, 0.0, 0.0, 0.0, 0.0, 0.0, 1.729705257624878E9, 0.0, 2024-10-23 23:10:57.624
76.0, -43954.459602172334, -52250.935405604294, -22579.598138284462, -19544.745331376234, -11929.684809408762, -11439.55575699279, -187500.02235174447, -187500.02235174447, -0.148, 0.752, 0.606, 192.0, 0.0, 0.0, 0.0, 0.0, 0.0, 0.0, 0.0, 0.0, 0.0, 1.7297052576289897E9, 0.0, 2024-10-23 23:10:57.628
77.0, -45497.422873666634, -53792.06583405326, -8637.496368586584, -20832.541088168753, -13444.887214289573, -12894.140230910807, -187500.02235174447, -187500.02235174447, -0.148, 0.752, 0.606, 192.0, 0.0, 0.0, 0.0, 0.0, 0.0, 0.0, 0.0, 0.0, 0.0, 1.7297052576328535E9, 0.0, 2024-10-23 23:10:57.632
78.0, -46143.36593668055, -53677.20021929744, -9532.862547977275, -22105.22706570948, -13567.844160538216, -12882.69613774969, -187500.02235174447, -187500.02235174447, -0.148, 0.752, 0.606, 192.0, 0.0, 0.0, 0.0, 0.0, 0.0, 0.0, 0.0, 0.0, 0.0, 1.7297052576369317E9, 0.0, 2024-10-23 23:10:57.636
79.0, -44942.11613441898, -52037.096266400375, -23817.057766563627, -21515.16336383383, -12103.268456848677, -11395.455765182467, -187500.02235174447, -187500.02235174447, -0.148, 0.752, 0.606, 192.0, 0.0, 0.0, 0.0, 0.0, 0.0, 0.0, 0.0, 0.0, 0.0, 1.7297052576400263E9, 0.0, 2024-10-23 23:10:57.640
80.0, -43631.72276398215, -51135.337488095465, -32916.45293431913, -20034.360293669735, -11090.421508600892, -10490.701853120549, -187500.02235174447, -187500.02235174447, -0.148, 0.752, 0.606, 192.0, 0.0, 0.0, 0.0, 0.0, 0.0, 0.0, 0.0, 0.0, 0.0, 1.7297052576439312E9, 0.0, 2024-10-23 23:10:57.643
81.0, -43995.206832314354, -52284.574781009534, -22456.216508891168, -19587.325404563595, -11962.698335969251, -11466.26609161688, -187500.02235174447, -187500.02235174447, -0.148, 0.752, 0.606, 192.0, 0.0, 0.0, 0.0, 0.0, 0.0, 0.0, 0.0, 0.0, 0.0, 1.7297052576479657E9, 0.0, 2024-10-23 23:10:57.647
82.0, -45497.288763199904, -53785.4944211834, -8868.702813232281, -20855.853957635638, -13442.406170655033, -12876.258835346562, -187500.02235174447, -187500.02235174447, -0.148, 0.752, 0.606, 192.0, 0.0, 0.0, 0.0, 0.0, 0.0, 0.0, 0.0, 0.0, 0.0, 1.7297052576519768E9, 0.0, 2024-10-23 23:10:57.651
83.0, -46114.19691016638, -53660.302300489224, -9807.073748954983, -22086.049268966828, -13549.046343451304, -12846.173387309718, -187500.02235174447, -187500.02235174447, -0.148, 0.752, 0.606, 192.0, 0.0, 0.0, 0.0, 0.0, 0.0, 0.0, 0.0, 0.0, 0.0, 1.729705257656927E9, 0.0, 2024-10-23 23:10:57.656
84.0, -44940.5068088182, -52063.3372143909, -23732.523469033655, -21496.522008958105, -12114.198459887322, -11394.069957026239, -187500.02235174447, -187500.02235174447, -0.15, 0.754, 0.608, 192.0, 251.0, 80.0, 23.0, 144.0, 19.0, 0.0, 0.0, 0.0, 0.0, 1.7297052576609197E9, 0.0, 2024-10-23 23:10:57.660
85.0, -43667.9549417442, -51191.01568353363, -32458.398635196525, -20051.280564222405, -11132.331029454594, -10523.51421398094, -187500.02235174447, -187500.02235174447, -0.15, 0.754, 0.608, 192.0, 0.0, 0.0, 0.0, 0.0, 0.0, 0.0, 0.0, 0.0, 0.0, 1.729705257665022E9, 0.0, 2024-10-23 23:10:57.665
86.0, -44031.75193449878, -52312.4474063453, -22281.090591083837, -19635.806338287155, -11982.345519345465, -11472.859856231196, -187500.02235174447, -187500.02235174447, -0.15, 0.754, 0.608, 192.0, 0.0, 0.0, 0.0, 0.0, 0.0, 0.0, 0.0, 0.0, 0.0, 1.7297052576680317E9, 0.0, 2024-10-23 23:10:57.668
87.0, -45478.11096645725, -53750.60334808867, -9206.7729481188, -20865.93459438498, -13393.947588675928, -12819.217183496618, -187500.02235174447, -187500.02235174447, -0.15, 0.754, 0.608, 192.0, 0.0, 0.0, 0.0, 0.0, 0.0, 0.0, 0.0, 0.0, 0.0, 1.729705257671966E9, 0.0, 2024-10-23 23:10:57.671
88.0, -46068.085261355074, -53624.874785527565, -10119.2382120178, -22042.84334693472, -13495.804488158761, -12792.372738405793, -187500.02235174447, -187500.02235174447, -0.15, 0.754, 0.608, 192.0, 0.0, 0.0, 0.0, 0.0, 0.0, 0.0, 0.0, 0.0, 0.0, 1.7297052576759648E9, 0.0, 2024-10-23 23:10:57.675
89.0, -44930.828503469056, -52071.31678716145, -23606.95136868374, -21475.10903776992, -12107.358826083997, -11385.509238899856, -187500.02235174447, -187500.02235174447, -0.15, 0.754, 0.608, 192.0, 0.0, 0.0, 0.0, 0.0, 0.0, 0.0, 0.0, 0.0, 0.0, 1.7297052576800199E9, 0.0, 2024-10-23 23:10:57.680
90.0, -43696.900450813824, -51214.127387300425, -32248.694568716834, -20085.05405009437, -11152.715820397832, -10534.399513530674, -187500.02235174447, -187500.02235174447, -0.15, 0.754, 0.608, 192.0, 0.0, 0.0, 0.0, 0.0, 0.0, 0.0, 0.0, 0.0, 0.0, 1.7297052576849802E9, 0.0, 2024-10-23 23:10:57.684
91.0, -44048.269873651254, -52314.95080172429, -22339.830975512385, -19679.906330097478, -11987.061737425534, -11475.877341732663, -187500.02235174447, -187500.02235174447, -0.15, 0.754, 0.608, 192.0, 0.0, 0.0, 0.0, 0.0, 0.0, 0.0, 0.0, 0.0, 0.0, 1.7297052576890895E9, 0.0, 2024-10-23 23:10:57.689
92.0, -45475.22759142251, -53750.40218238857, -9370.365365787193, -20894.723641243418, -13370.165332575481, -12825.498023688559, -187500.02235174447, -187500.02235174447, -0.15, 0.754, 0.608, 192.0, 0.0, 0.0, 0.0, 0.0, 0.0, 0.0, 0.0, 0.0, 0.0, 1.7297052576930976E9, 0.0, 2024-10-23 23:10:57.693
93.0, -46068.1746683329, -53638.68816360094, -10174.379965589043, -22072.571167060276, -13488.964854355438, -12818.099596273853, -187500.02235174447, -187500.02235174447, -0.15, 0.754, 0.608, 192.0, 0.0, 0.0, 0.0, 0.0, 0.0, 0.0, 0.0, 0.0, 0.0, 1.7297052576960287E9, 0.0, 2024-10-23 23:10:57.696
94.0, -44949.536913578144, -52103.7491683661, -23523.691120587722, -21516.7279859457, -12131.49871009573, -11436.001829624394, -187500.02235174447, -187500.02235174447, -0.15, 0.752, 0.604, 192.0, 251.0, 80.0, 23.0, 128.0, 18.0, 224.0, 0.0, 0.0, 0.0, 1.7297052577001646E9, 0.0, 2024-10-23 23:10:57.700
95.0, -43716.52528244559, -51242.40234403638, -32122.183695099797, -20128.394082593215, -11177.012166620752, -10579.862961752768, -187500.02235174447, -187500.02235174447, -0.15, 0.752, 0.604, 192.0, 0.0, 0.0, 0.0, 0.0, 0.0, 0.0, 0.0, 0.0, 0.0, 1.7297052577040355E9, 0.0, 2024-10-23 23:10:57.704
96.0, -44046.146457928, -52310.368694110955, -22348.011713983025, -19701.587522219124, -12004.674912056316, -11494.742214052942, -187500.02235174447, -187500.02235174447, -0.15, 0.752, 0.604, 192.0, 0.0, 0.0, 0.0, 0.0, 0.0, 0.0, 0.0, 0.0, 0.0, 1.729705257707987E9, 0.0, 2024-10-23 23:10:57.707
97.0, -45465.392823862174, -53728.16219665554, -9545.267766149971, -20894.366013332132, -13407.336283604656, -12829.72250339061, -187500.02235174447, -187500.02235174447, -0.15, 0.752, 0.604, 192.0, 0.0, 0.0, 0.0, 0.0, 0.0, 0.0, 0.0, 0.0, 0.0, 1.7297052577120197E9, 0.0, 2024-10-23 23:10:57.712
98.0, -46043.65480466543, -53608.89328824202, -10279.053184873246, -22037.098948609706, -13512.568296500242, -12809.96356129212, -187500.02235174447, -187500.02235174447, -0.15, 0.752, 0.604, 192.0, 0.0, 0.0, 0.0, 0.0, 0.0, 0.0, 0.0, 0.0, 0.0, 1.7297052577170465E9, 0.0, 2024-10-23 23:10:57.717
99.0, -44922.69246848732, -52076.07770873043, -23438.754491657557, -21470.951613301233, -12160.555977887629, -11432.11262608917, -187500.02235174447, -187500.02235174447, -0.15, 0.752, 0.604, 192.0, 0.0, 0.0, 0.0, 0.0, 0.0, 0.0, 0.0, 0.0, 0.0, 1.729705257721156E9, 0.0, 2024-10-23 23:10:57.721
100.0, -43704.880023584374, -51230.15358807488, -31990.33075455794, -20102.756631702978, -11226.096597444606, -10588.803659534891, -187500.02235174447, -187500.02235174447, -0.15, 0.752, 0.604, 192.0, 0.0, 0.0, 0.0, 0.0, 0.0, 0.0, 0.0, 0.0, 0.0, 1.7297052577240627E9, 0.0, 2024-10-23 23:10:57.724
101.0, -44029.606167031074, -52295.68359800382, -22352.079731473892, -19686.27657726724, -12011.1345662039, -11487.679062805064, -187500.02235174447, -187500.02235174447, -0.15, 0.752, 0.604, 192.0, 0.0, 0.0, 0.0, 0.0, 0.0, 0.0, 0.0, 0.0, 0.0, 1.7297052577281349E9, 0.0, 2024-10-23 23:10:57.728
102.0, -45437.69901248205, -53704.089367877175, -9664.33550886339, -20870.963736887425, -13386.996196150327, -12813.606895638335, -187500.02235174447, -187500.02235174447, -0.15, 0.752, 0.604, 192.0, 0.0, 0.0, 0.0, 0.0, 0.0, 0.0, 0.0, 0.0, 0.0, 1.7297052577321775E9, 0.0, 2024-10-23 23:10:57.732
103.0, -46026.086333523555, -53603.484166083836, -10328.539947097295, -22017.429413489033, -13517.642142491597, -12811.885811315276, -187500.02235174447, -187500.02235174447, -0.15, 0.752, 0.604, 192.0, 0.0, 0.0, 0.0, 0.0, 0.0, 0.0, 0.0, 0.0, 0.0, 1.729705257736074E9, 0.0, 2024-10-23 23:10:57.736
104.0, -44915.6516689839, -52086.62773211333, -23352.38735108225, -21464.58136613147, -12176.69393738436, -11440.941565149018, -187500.02235174447, -187500.02235174447, -0.15, 0.752, 0.604, 192.0, 0.0, 0.0, 0.0, 0.0, 0.0, 0.0, 0.0, 0.0, 0.0, 1.7297052577410743E9, 0.0, 2024-10-23 23:10:57.741
105.0, -43707.58458466346, -51238.51314050116, -31882.818863727913, -20103.15896310317, -11233.673838814955, -10588.177810690142, -187500.02235174447, -187500.02235174447, -0.148, 0.748, 0.604, 192.0, 251.0, 96.0, 23.0, 96.0, 18.0, 224.0, 0.0, 0.0, 0.0, 1.7297052577451785E9, 0.0, 2024-10-23 23:10:57.745
106.0, -44041.653757292486, -52304.40077834139, -22409.43430774621, -19698.23476055083, -12003.087938199991, -11481.442926102034, -187500.02235174447, -187500.02235174447, -0.148, 0.748, 0.604, 192.0, 0.0, 0.0, 0.0, 0.0, 0.0, 0.0, 0.0, 0.0, 0.0, 1.7297052577491486E9, 0.0, 2024-10-23 23:10:57.749
107.0, -45435.195617103054, -53696.98151314039, -10055.51338857572, -20886.453495794955, -13357.938928358428, -12780.056927210919, -187500.02235174447, -187500.02235174447, -0.148, 0.748, 0.604, 192.0, 0.0, 0.0, 0.0, 0.0, 0.0, 0.0, 0.0, 0.0, 0.0, 1.7297052577520616E9, 0.0, 2024-10-23 23:10:57.752
108.0, -45990.59176332853, -53584.663997252464, -10737.912146796245, -21990.87554107613, -13464.154418010046, -12757.235796122051, -187500.02235174447, -187500.02235174447, -0.148, 0.748, 0.604, 192.0, 0.0, 0.0, 0.0, 0.0, 0.0, 0.0, 0.0, 0.0, 0.0, 1.7297052577561047E9, 0.0, 2024-10-23 23:10:57.756
109.0, -44914.64584048341, -52118.00958132858, -23190.20309331454, -21431.657246548803, -12152.196425461343, -11425.518861474857, -187500.02235174447, -187500.02235174447, -0.148, 0.748, 0.604, 192.0, 0.0, 0.0, 0.0, 0.0, 0.0, 0.0, 0.0, 0.0, 0.0, 1.729705257760099E9, 0.0, 2024-10-23 23:10:57.760
110.0, -43755.23850384218, -51298.72874006376, -31353.48485153733, -20121.01800692296, -11227.884737001032, -10597.43143289464, -187500.02235174447, -187500.02235174447, -0.148, 0.748, 0.604, 192.0, 0.0, 0.0, 0.0, 0.0, 0.0, 0.0, 0.0, 0.0, 0.0, 1.7297052577661145E9, 0.0, 2024-10-23 23:10:57.766
111.0, -44085.97726654736, -52327.713647808276, -22277.84958813782, -19741.23951688284, -11992.04617643907, -11462.5557020373, -187500.02235174447, -187500.02235174447, -0.148, 0.748, 0.604, 192.0, 0.0, 0.0, 0.0, 0.0, 0.0, 0.0, 0.0, 0.0, 0.0, 1.7297052577701871E9, 0.0, 2024-10-23 23:10:57.770
112.0, -45426.545491998855, -53678.228399542386, -10189.132116929546, -20873.578890988694, -13316.92347728294, -12731.911269654187, -187500.02235174447, -187500.02235174447, -0.148, 0.748, 0.604, 192.0, 0.0, 0.0, 0.0, 0.0, 0.0, 0.0, 0.0, 0.0, 0.0, 1.729705257774116E9, 0.0, 2024-10-23 23:10:57.774
113.0, -45988.42364411636, -53588.732014743335, -10668.577035495882, -21965.998049497375, -13444.440179400466, -12736.068694122874, -187500.02235174447, -187500.02235174447, -0.148, 0.748, 0.604, 192.0, 0.0, 0.0, 0.0, 0.0, 0.0, 0.0, 0.0, 0.0, 0.0, 1.729705257778309E9, 0.0, 2024-10-23 23:10:57.778
114.0, -44933.73423024824, -52136.65093620431, -23049.141234057097, -21436.57463032897, -12140.774684044682, -11424.624791696644, -187500.02235174447, -187500.02235174447, -0.148, 0.748, 0.604, 192.0, 0.0, 0.0, 0.0, 0.0, 0.0, 0.0, 0.0, 0.0, 0.0, 1.7297052577821472E9, 0.0, 2024-10-23 23:10:57.782
115.0, -43764.313312091035, -51299.33223716405, -31401.20582594941, -20137.26772514197, -11215.434815339424, -10597.207915450086, -187500.02235174447, -187500.02235174447, -0.146, 0.754, 0.604, 192.0, 251.0, 112.0, 23.0, 144.0, 18.0, 224.0, 0.0, 0.0, 0.0, 1.7297052577851586E9, 0.0, 2024-10-23 23:10:57.785
116.0, -44072.36505417407, -52320.51638609367, -22332.723120775598, -19737.931458703453, -11981.786725734082, -11469.775315496365, -187500.02235174447, -187500.02235174447, -0.146, 0.754, 0.604, 192.0, 0.0, 0.0, 0.0, 0.0, 0.0, 0.0, 0.0, 0.0, 0.0, 1.7297052577881367E9, 0.0, 2024-10-23 23:10:57.788
117.0, -45443.19754161806, -53713.90178369305, -9886.154220837858, -20885.581777761196, -13346.204262519392, -12777.352366131827, -187500.02235174447, -187500.02235174447, -0.146, 0.754, 0.604, 192.0, 0.0, 0.0, 0.0, 0.0, 0.0, 0.0, 0.0, 0.0, 0.0, 1.7297052577941124E9, 0.0, 2024-10-23 23:10:57.794
118.0, -46053.80249664814, -53654.7143643754, -10185.935817472437, -22034.349684041703, -13515.228154090424, -12818.032541040486, -187500.02235174447, -187500.02235174447, -0.146, 0.754, 0.604, 192.0, 0.0, 0.0, 0.0, 0.0, 0.0, 0.0, 0.0, 0.0, 0.0, 1.7297052577971473E9, 0.0, 2024-10-23 23:10:57.797
119.0, -44961.025710228176, -52134.86279664789, -22996.25700667584, -21507.429660252295, -12174.034079794179, -11458.711201990987, -187500.02235174447, -187500.02235174447, -0.146, 0.754, 0.604, 192.0, 0.0, 0.0, 0.0, 0.0, 0.0, 0.0, 0.0, 0.0, 0.0, 1.7297052578011394E9, 0.0, 2024-10-23 23:10:57.801
120.0, -43729.66810818531, -51240.61420447996, -31805.81710407938, -20144.777911278954, -11191.876076683531, -10570.56463605936, -187500.02235174447, -187500.02235174447, -0.146, 0.754, 0.604, 192.0, 0.0, 0.0, 0.0, 0.0, 0.0, 0.0, 0.0, 0.0, 0.0, 1.7297052578051891E9, 0.0, 2024-10-23 23:10:57.805
121.0, -44020.28548959321, -52273.82359192653, -22624.81571731755, -19700.536990229724, -11965.380545303888, -11448.764675708375, -187500.02235174447, -187500.02235174447, -0.146, 0.754, 0.604, 192.0, 0.0, 0.0, 0.0, 0.0, 0.0, 0.0, 0.0, 0.0, 0.0, 1.7297052578081555E9, 0.0, 2024-10-23 23:10:57.808
122.0, -45429.74179145596, -53709.185565612985, -9865.322395005513, -20869.533225242285, -13373.562797732688, -12796.798383807944, -187500.02235174447, -187500.02235174447, -0.146, 0.754, 0.604, 192.0, 0.0, 0.0, 0.0, 0.0, 0.0, 0.0, 0.0, 0.0, 0.0, 1.7297052578121977E9, 0.0, 2024-10-23 23:10:57.812
123.0, -46053.95895885932, -53653.105038774615, -10069.37147013801, -22033.567372985766, -13542.296116625801, -12840.11606456233, -187500.02235174447, -187500.02235174447, -0.146, 0.754, 0.604, 192.0, 0.0, 0.0, 0.0, 0.0, 0.0, 0.0, 0.0, 0.0, 0.0, 1.7297052578161843E9, 0.0, 2024-10-23 23:10:57.816
124.0, -44965.04902423013, -52125.20684304319, -23026.521268668326, -21509.73188993119, -12194.1282980595, -11467.249568372914, -187500.02235174447, -187500.02235174447, -0.146, 0.754, 0.604, 192.0, 0.0, 0.0, 0.0, 0.0, 0.0, 0.0, 0.0, 0.0, 0.0, 1.729705257820184E9, 0.0, 2024-10-23 23:10:57.820
125.0, -43709.640945153355, -51211.668695410335, -32044.48903137315, -20134.294943129415, -11197.821640708642, -10563.769705744948, -187500.02235174447, -187500.02235174447, -0.14400000000000002, 0.758, 0.612, 192.0, 251.0, 128.0, 23.0, 176.0, 19.0, 32.0, 0.0, 0.0, 0.0, 1.7297052578243213E9, 0.0, 2024-10-23 23:10:57.824
126.0, -43998.649000960475, -52264.6370249554, -22728.684273801362, -19671.636184649014, -11976.779934976094, -11455.000812411407, -187500.02235174447, -187500.02235174447, -0.14400000000000002, 0.758, 0.612, 192.0, 0.0, 0.0, 0.0, 0.0, 0.0, 0.0, 0.0, 0.0, 0.0, 1.7297052578291876E9, 0.0, 2024-10-23 23:10:57.829
127.0, -45443.89044569617, -53744.36721138564, -9525.084140906829, -20859.586698959673, -13405.212867881402, -12840.227823284606, -187500.02235174447, -187500.02235174447, -0.14400000000000002, 0.758, 0.612, 192.0, 0.0, 0.0, 0.0, 0.0, 0.0, 0.0, 0.0, 0.0, 0.0, 1.729705257833222E9, 0.0, 2024-10-23 23:10:57.833
128.0, -46100.02590418171, -53695.17102183951, -9602.599990677832, -22066.849120479717, -13583.624492123663, -12884.685443006212, -187500.02235174447, -187500.02235174447, -0.14400000000000002, 0.758, 0.612, 192.0, 0.0, 0.0, 0.0, 0.0, 0.0, 0.0, 0.0, 0.0, 0.0, 1.7297052578361993E9, 0.0, 2024-10-23 23:10:57.836
129.0, -44971.24045744425, -52104.7997003555, -23202.608311487238, -21539.280896101107, -12177.342137973565, -11446.261280329381, -187500.02235174447, -187500.02235174447, -0.14400000000000002, 0.758, 0.612, 192.0, 0.0, 0.0, 0.0, 0.0, 0.0, 0.0, 0.0, 0.0, 0.0, 1.729705257840277E9, 0.0, 2024-10-23 23:10:57.840
130.0, -43650.09589792442, -51132.185892127265, -32843.139212505725, -20096.274625810936, -11099.541020338658, -10473.736879078971, -187500.02235174447, -187500.02235174447, -0.14400000000000002, 0.758, 0.612, 192.0, 0.0, 0.0, 0.0, 0.0, 0.0, 0.0, 0.0, 0.0, 0.0, 1.7297052578462503E9, 0.0, 2024-10-23 23:10:57.846
131.0, -43943.23902645577, -52234.77509436311, -23067.827292421734, -19588.599453997547, -11917.436053447254, -11407.056320554771, -187500.02235174447, -187500.02235174447, -0.14400000000000002, 0.758, 0.612, 192.0, 0.0, 0.0, 0.0, 0.0, 0.0, 0.0, 0.0, 0.0, 0.0, 1.7297052578492188E9, 0.0, 2024-10-23 23:10:57.849
132.0, -45471.070166953825, -53833.550671762314, -8494.378148839254, -20812.424518158976, -13467.23895874488, -12904.422033360248, -187500.02235174447, -187500.02235174447, -0.14400000000000002, 0.758, 0.612, 192.0, 0.0, 0.0, 0.0, 0.0, 0.0, 0.0, 0.0, 0.0, 0.0, 1.7297052578522491E9, 0.0, 2024-10-23 23:10:57.852
133.0, -46257.31512991371, -53870.85573325822, -7768.952282542263, -22175.880929932708, -13727.301505482377, -13033.10102618945, -187500.02235174447, -187500.02235174447, -0.14400000000000002, 0.758, 0.612, 192.0, 0.0, 0.0, 0.0, 0.0, 0.0, 0.0, 0.0, 0.0, 0.0, 1.729705257856246E9, 0.0, 2024-10-23 23:10:57.856
134.0, -45062.27911261071, -52132.381753013346, -22811.8327631751, -21698.939406745365, -12182.997129320756, -11454.911405433584, -187500.02235174447, -187500.02235174447, -0.14400000000000002, 0.758, 0.612, 192.0, 0.0, 0.0, 0.0, 0.0, 0.0, 0.0, 0.0, 0.0, 0.0, 1.7297052578612292E9, 0.0, 2024-10-23 23:10:57.861
135.0, -43575.15049876577, -50998.656570751264, -34194.68214448478, -20118.514611543967, -10949.247890621173, -10331.803301787771, -187500.02235174447, -187500.02235174447, -0.158, 0.758, 0.612, 192.0, 251.0, 16.0, 23.0, 176.0, 19.0, 32.0, 0.0, 0.0, 0.0, 1.7297052578642292E9, 0.0, 2024-10-23 23:10:57.864
136.0, -43788.3861408694, -52111.348761480906, -24166.303773677802, -19440.69796093678, -11754.51418811252, -11272.252949744816, -187500.02235174447, -187500.02235174447, -0.158, 0.758, 0.612, 192.0, 0.0, 0.0, 0.0, 0.0, 0.0, 0.0, 0.0, 0.0, 0.0, 1.7297052578682392E9, 0.0, 2024-10-23 23:10:57.868
137.0, -45438.54837877135, -53836.12112237467, -8594.60337097685, -20727.219668295344, -13441.84737704365, -12893.246161132594, -187500.02235174447, -187500.02235174447, -0.158, 0.758, 0.612, 192.0, 0.0, 0.0, 0.0, 0.0, 0.0, 0.0, 0.0, 0.0, 0.0, 1.7297052578732765E9, 0.0, 2024-10-23 23:10:57.873
138.0, -46307.51714796032, -53920.36484722672, -7664.9496155917195, -22198.90322672167, -13772.519084515463, -13071.613081885944, -187500.02235174447, -187500.02235174447, -0.158, 0.758, 0.612, 192.0, 0.0, 0.0, 0.0, 0.0, 0.0, 0.0, 0.0, 0.0, 0.0, 1.729705257877257E9, 0.0, 2024-10-23 23:10:57.877
139.0, -45108.390761422015, -52167.98808193065, -22720.97292196428, -21744.089930545084, -12221.866812928536, -11489.824830272775, -187500.02235174447, -187500.02235174447, -0.158, 0.758, 0.612, 192.0, 0.0, 0.0, 0.0, 0.0, 0.0, 0.0, 0.0, 0.0, 0.0, 1.729705257880297E9, 0.0, 2024-10-23 23:10:57.880
140.0, -43602.173757812234, -51012.13467265781, -34184.28858331306, -20156.065542228884, -10971.51022809866, -10350.578767130228, -187500.02235174447, -187500.02235174447, -0.158, 0.758, 0.612, 192.0, 0.0, 0.0, 0.0, 0.0, 0.0, 0.0, 0.0, 0.0, 0.0, 1.7297052578842552E9, 0.0, 2024-10-23 23:10:57.884
141.0, -43793.41528337184, -52108.37597946835, -24209.666157921096, -19451.583260486517, -11772.686156354684, -11277.416202713992, -187500.02235174447, -187500.02235174447, -0.158, 0.758, 0.612, 192.0, 0.0, 0.0, 0.0, 0.0, 0.0, 0.0, 0.0, 0.0, 0.0, 1.7297052578892822E9, 0.0, 2024-10-23 23:10:57.889
142.0, -45445.052736407844, -53839.58564276525, -8687.47486918865, -20742.910592902972, -13466.926034322505, -12907.88655375082, -187500.02235174447, -187500.02235174447, -0.158, 0.758, 0.612, 192.0, 0.0, 0.0, 0.0, 0.0, 0.0, 0.0, 0.0, 0.0, 0.0, 1.729705257892311E9, 0.0, 2024-10-23 23:10:57.892
143.0, -46305.52784270381, -53922.15298678315, -7714.391674326858, -22211.330796638824, -13794.49084931503, -13089.673291405832, -187500.02235174447, -187500.02235174447, -0.158, 0.758, 0.612, 192.0, 0.0, 0.0, 0.0, 0.0, 0.0, 0.0, 0.0, 0.0, 0.0, 1.7297052578963172E9, 0.0, 2024-10-23 23:10:57.896
144.0, -45097.25959268327, -52163.04834640603, -22718.69304402984, -21745.341628234582, -12241.37988583802, -11497.379719898669, -187500.02235174447, -187500.02235174447, -0.158, 0.758, 0.612, 192.0, 0.0, 0.0, 0.0, 0.0, 0.0, 0.0, 0.0, 0.0, 0.0, 1.7297052579002986E9, 0.0, 2024-10-23 23:10:57.900
145.0, -43589.05328381697, -51000.62352426333, -34198.19136836426, -20147.12484444676, -10990.106879485475, -10350.578767130228, -187500.02235174447, -187500.02235174447, -0.156, 0.756, 0.608, 192.0, 251.0, 32.0, 23.0, 160.0, 19.0, 0.0, 0.0, 0.0, 0.0, 1.729705257904284E9, 0.0, 2024-10-23 23:10:57.904
146.0, -43768.44838481527, -52079.69869133219, -24274.217995908024, -19424.560001440048, -11768.036993507982, -11261.300594961715, -187500.02235174447, -187500.02235174447, -0.156, 0.756, 0.608, 192.0, 0.0, 0.0, 0.0, 0.0, 0.0, 0.0, 0.0, 0.0, 0.0, 1.7297052579083247E9, 0.0, 2024-10-23 23:10:57.908
